Measurement Sequence started on: 15-12-46-377
Integration time: 28
Scans to Average: 2 
>>>>>Begin Spectral Data<<<<<
432.689 .0000100
433.621 .0000100
434.552 .0000100
435.482 .0000100
436.410 .0000100
437.337 .0000100
438.262 .0266035
439.187 .0563730
440.110 .0934298
441.031 .1351927
441.952 .1756972
442.871 .2074905
443.789 .2247872
444.705 .2255881
445.621 .2123486
446.535 .1904168
447.447 .1656415
448.359 .1279930
449.269 .1092618
450.178 .0974232
451.086 .0891542
451.993 .0829025
452.898 .0780108
453.803 .0740263
454.706 .0707279
455.608 .0679018
456.508 .0654480
457.408 .0633077
458.306 .0614060
459.204 .0597159
460.100 .0581846
460.995 .0568123
461.888 .0555790
462.781 .0544601
463.673 .0534207
464.563 .0524604
465.452 .0515668
466.340 .0507098
467.228 .0498982
468.114 .0491297
468.999 .0484140
469.882 .0477563
470.765 .0471521
471.647 .0466035
472.528 .0461033
473.407 .0456608
474.286 .0452684
475.163 .0449225
476.040 .0446287
476.915 .0443735
477.790 .0441614
478.663 .0439873
479.535 .0438471
480.407 .0437361
481.277 .0436574
482.147 .0436049
483.015 .0435753
483.883 .0435645
484.749 .0435742
485.615 .0436014
486.479 .0436465
487.343 .0437045
488.206 .0437676
489.067 .0438319
489.928 .0438959
490.788 .0439542
491.647 .0440206
492.505 .0440997
493.362 .0441978
494.218 .0443162
495.073 .0444597
495.928 .0446274
496.781 .0448152
497.634 .0450273
498.486 .0452516
499.337 .0454882
500.187 .0457386
501.036 .0460011
501.884 .0462881
502.731 .0466053
503.578 .0469577
504.424 .0473486
505.268 .0477663
506.113 .0482071
506.956 .0486618
507.798 .0491506
508.640 .0496652
509.480 .0502100
510.320 .0508050
511.160 .0514558
511.998 .0521703
512.836 .0529579
513.672 .0538366
514.508 .0548335
515.344 .0559624
516.178 .0572454
517.012 .0587279
517.845 .0604384
518.677 .0624202
519.508 .0647075
520.339 .0673201
521.169 .0703270
521.998 .0737154
522.826 .0775599
523.654 .0818939
524.481 .0867197
525.307 .0921331
526.133 .0981223
526.958 .1047216
527.782 .1117825
528.605 .1191237
529.428 .1266409
530.250 .1337930
531.072 .1403280
531.892 .1457734
532.712 .1498658
533.532 .1524188
534.350 .1532205
535.168 .1521850
535.986 .1494572
536.802 .1452572
537.618 .1398589
538.434 .1334701
539.249 .1265620
540.063 .1193635
540.876 .1122121
541.689 .1052962
542.501 .0988097
543.313 .0928569
544.124 .0875368
544.934 .0827294
545.744 .0784279
546.553 .0745742
547.361 .0711520
548.169 .0681511
548.976 .0654956
549.783 .0631519
550.589 .0610818
551.395 .0592241
552.200 .0575846
553.004 .0561071
553.808 .0547699
554.611 .0535492
555.414 .0524362
556.216 .0514145
557.018 .0504813
557.819 .0496197
558.619 .0488149
559.419 .0480657
560.218 .0473609
561.017 .0466893
561.815 .0460555
562.613 .0454521
563.410 .0448644
564.207 .0442881
565.003 .0437198
565.799 .0431463
566.594 .0425689
567.388 .0419944
568.182 .0414167
568.976 .0408518
569.769 .0403074
570.562 .0397858
571.354 .0392910
572.145 .0388265
572.936 .0383812
573.727 .0379549
574.517 .0375360
575.307 .0371265
576.096 .0367211
576.885 .0363267
577.673 .0359465
578.461 .0355811
579.248 .0352378
580.035 .0349191
580.821 .0346247
581.607 .0343527
582.392 .0340991
583.177 .0338610
583.962 .0336367
584.746 .0334276
585.529 .0332303
586.313 .0330474
587.095 .0328800
587.878 .0327286
588.660 .0325905
589.441 .0324661
590.222 .0323561
591.003 .0322581
591.783 .0321717
592.563 .0320937
593.342 .0320238
594.121 .0319587
594.899 .0318972
595.678 .0318381
596.455 .0317801
597.233 .0317238
598.009 .0316687
598.786 .0316159
599.562 .0315652
600.338 .0315167
601.113 .0314696
601.888 .0314234
602.663 .0313781
603.437 .0313322
604.211 .0312853
604.984 .0312382
605.757 .0311908
606.530 .0311437
607.302 .0310981
608.074 .0310554
608.845 .0310158
609.616 .0309795
610.387 .0309466
611.158 .0309162
611.928 .0308880
612.697 .0308621
613.467 .0308381
614.236 .0308160
615.004 .0307962
615.773 .0307789
616.541 .0307639
617.308 .0307521
618.076 .0307431
618.843 .0307362
619.609 .0307310
620.375 .0307269
621.141 .0307225
621.907 .0307178
622.672 .0307123
623.437 .0307048
624.202 .0306958
624.966 .0306853
625.730 .0306727
626.493 .0306589
627.257 .0306441
628.020 .0306288
628.782 .0306131
629.545 .0305976
630.307 .0305820
631.068 .0305657
631.830 .0305494
632.591 .0305321
633.352 .0305137
634.112 .0304941
634.872 .0304729
635.632 .0304509
636.392 .0304283
637.151 .0304057
637.910 .0303829
638.668 .0303605
639.427 .0303386
640.185 .0303168
640.943 .0302941
641.700 .0302710
642.457 .0302467
643.214 .0302204
643.971 .0301923
644.727 .0301625
645.483 .0301322
646.239 .0301026
646.994 .0300742
647.750 .0300476
648.505 .0300228
649.259 .0300007
650.014 .0299795
650.768 .0299597
651.521 .0299401
652.275 .0299195
653.028 .0298980
653.781 .0298744
654.534 .0298490
655.286 .0298218
656.039 .0297937
656.791 .0297651
657.542 .0297354
658.294 .0297047
659.045 .0296730
659.796 .0296405
660.546 .0296071
661.297 .0295735
662.047 .0295393
662.796 .0295052
663.546 .0294716
664.295 .0294390
665.044 .0294078
665.793 .0293785
666.542 .0293518
667.290 .0293264
668.038 .0293029
668.786 .0292805
669.533 .0292591
670.281 .0292392
671.028 .0292206
671.774 .0292031
672.521 .0291868
673.267 .0291719
674.013 .0291587
674.759 .0291469
675.505 .0291367
676.250 .0291265
676.995 .0291169
677.740 .0291066
678.484 .0290949
679.229 .0290818
679.973 .0290680
680.717 .0290534
681.460 .0290390
682.204 .0290254
682.947 .0290132
683.690 .0290027
684.433 .0289942
685.175 .0289868
685.917 .0289802
686.659 .0289737
687.401 .0289669
688.142 .0289593
688.884 .0289514
689.625 .0289429
690.365 .0289344
691.106 .0289267
691.846 .0289199
692.586 .0289136
693.326 .0289075
694.066 .0289012
694.805 .0288942
695.545 .0288855
696.284 .0288749
697.022 .0288628
697.761 .0288494
698.499 .0288352
699.237 .0288208
699.975 .0288068
700.713 .0287938
701.450 .0287821
702.187 .0287713
702.924 .0287611
703.661 .0287509
704.397 .0287401
705.133 .0287287
705.869 .0287167
706.605 .0287040
707.341 .0286907
708.076 .0286776
708.811 .0286648
709.546 .0286521
710.281 .0286398
711.015 .0286272
711.749 .0286144
712.483 .0286004
713.217 .0285847
713.950 .0285675
714.684 .0285489
715.417 .0285298
716.150 .0285105
716.882 .0284917
717.615 .0284740
718.347 .0284577
719.079 .0284426
719.811 .0284281
720.542 .0284139
721.273 .0283990
722.005 .0283823
722.735 .0283636
723.466 .0283432
724.196 .0283207
724.927 .0282966
725.656 .0282718
726.386 .0282465
727.116 .0282211
727.845 .0281955
728.574 .0281696
729.303 .0281437
730.031 .0281183
730.760 .0280929
731.488 .0280672
732.216 .0280425
732.944 .0280183
733.671 .0279948
734.398 .0279729
735.125 .0279523
735.852 .0279332
736.579 .0279154
737.305 .0278993
738.031 .0278845
738.757 .0278707
739.483 .0278580
740.208 .0278456
740.933 .0278334
741.658 .0278205
742.383 .0278067
743.108 .0277919
743.832 .0277768
744.556 .0277609
745.280 .0277444
746.004 .0277279
746.727 .0277112
747.450 .0276948
748.173 .0276783
748.896 .0276621
749.618 .0276454
750.340 .0276283
751.062 .0276110
751.784 .0275931
752.506 .0275752
753.227 .0275573
753.948 .0275397
754.669 .0275222
755.389 .0275047
756.110 .0274868
756.830 .0274686
757.550 .0274504
758.269 .0274316
758.989 .0274128
759.708 .0273941
760.427 .0273758
761.146 .0273582
761.864 .0273418
762.582 .0273268
763.300 .0273125
764.018 .0272992
764.736 .0272864
765.453 .0272743
766.170 .0272630
766.887 .0272522
767.603 .0272427
768.320 .0272346
769.036 .0272280
769.751 .0272232
770.467 .0272200
771.182 .0272185
771.897 .0272177
772.612 .0272172
773.327 .0272164
774.041 .0272148
774.755 .0272125
775.469 .0272098
776.183 .0272067
776.896 .0272037
777.609 .0272014
778.322 .0271999
779.035 .0271994
779.747 .0271995
780.459 .0272004
781.171 .0272018
781.882 .0272037
782.594 .0272059
783.305 .0272086
784.016 .0272120
784.726 .0272160
785.436 .0272199
786.147 .0272244
786.856 .0272289
787.566 .0272333
788.275 .0272376
788.984 .0272419
789.693 .0272459
790.401 .0272499
791.110 .0272535
791.818 .0272567
792.525 .0272591
793.233 .0272607
793.940 .0272610
794.647 .0272602
795.353 .0272581
796.060 .0272550
796.766 .0272510
797.472 .0272468
798.177 .0272420
798.883 .0272372
799.588 .0272322
800.292 .0272270
800.997 .0272212
801.701 .0272142
802.405 .0272060
803.109 .0271968
803.812 .0271865
804.515 .0271753
805.218 .0271630
805.921 .0271501
806.623 .0271363
807.325 .0271216
808.027 .0271061
808.728 .0270898
809.429 .0270724
810.130 .0270544
810.831 .0270358
811.531 .0270171
812.231 .0269982
812.931 .0269794
813.630 .0269608
814.330 .0269419
815.029 .0269228
815.727 .0269031
816.426 .0268832
817.124 .0268632
817.821 .0268429
818.519 .0268228
819.216 .0268037
819.913 .0267855
820.609 .0267682
821.306 .0267518
822.002 .0267362
822.697 .0267212
823.393 .0267067
824.088 .0266923
824.783 .0266779
825.477 .0266636
826.171 .0266488
826.865 .0266340
827.559 .0266195
828.252 .0266050
828.945 .0265906
829.638 .0265762
830.330 .0265617
831.023 .0265471
831.714 .0265325
832.406 .0265182
833.097 .0265043
833.788 .0264905
834.479 .0264765
835.169 .0264627
835.859 .0264493
836.548 .0264363
837.238 .0264233
837.927 .0264105
838.615 .0263976
839.304 .0263847
839.992 .0263717
840.680 .0263586
841.367 .0263454
842.054 .0263320
842.741 .0263180
843.428 .0263033
844.114 .0262879
844.800 .0262714
845.485 .0262539
846.170 .0262357
846.855 .0262165
847.540 .0261963
848.224 .0261759
848.908 .0261559
849.592 .0261363
850.275 .0261175
850.958 .0260993
851.641 .0260817
852.323 .0260649
853.005 .0260486
853.687 .0260328
854.368 .0260174
855.049 .0260024
855.730 .0259874
856.410 .0259726
857.090 .0259577
857.769 .0259425
858.449 .0259266
859.128 .0259101
859.806 .0258924
860.485 .0258743
861.163 .0258558
861.840 .0258376
862.518 .0258198
863.195 .0258024
863.871 .0257853
864.548 .0257687
865.224 .0257523
865.899 .0257362
866.574 .0257207
867.249 .0257058
867.924 .0256917
868.598 .0256787
869.272 .0256671
869.946 .0256570
870.619 .0256482
871.292 .0256411
871.964 .0256348
872.636 .0256299
873.308 .0256261
873.979 .0256232
874.651 .0256215
875.321 .0256203
875.992 .0256196
876.662 .0256193
877.331 .0256188
878.001 .0256180
878.670 .0256171
879.338 .0256168
880.007 .0256173
880.675 .0256188
881.342 .0256219
882.009 .0256265
882.676 .0256324
883.343 .0256395
884.009 .0256470
884.675 .0256545
885.340 .0256620
886.005 .0256688
886.670 .0256757
887.334 .0256827
887.998 .0256902
888.662 .0256984
889.325 .0257079
889.988 .0257184
890.650 .0257298
891.312 .0257417
891.974 .0257545
892.636 .0257675
893.297 .0257805
893.957 .0257929
894.618 .0258044
895.278 .0258151
895.937 .0258247
896.596 .0258334
897.255 .0258418
897.914 .0258500
898.572 .0258584
899.230 .0258671
899.887 .0258764
900.544 .0258857
901.201 .0258950
901.857 .0259037
902.513 .0259110
903.168 .0259167
903.823 .0259204
904.478 .0259224
905.132 .0259230
905.786 .0259225
906.440 .0259210
907.093 .0259187
907.746 .0259154
908.399 .0259106
909.051 .0259042
909.703 .0258961
910.354 .0258863
911.005 .0258752
911.656 .0258631
912.306 .0258504
912.956 .0258371
913.605 .0258237
914.254 .0258105
914.903 .0257976
915.551 .0257853
916.199 .0257737
916.847 .0257625
917.494 .0257518
918.141 .0257420
918.788 .0257327
919.434 .0257240
920.079 .0257152
920.725 .0257060
921.370 .0256959
922.014 .0256847
922.658 .0256721
923.302 .0256577
923.946 .0256424
924.589 .0256257
925.231 .0256070
925.873 .0255876
926.515 .0255669
927.157 .0255454
927.798 .0255233
928.439 .0255010
929.079 .0254781
929.719 .0254552
930.359 .0254325
930.998 .0254101
931.637 .0253882
932.275 .0253673
932.913 .0253468
933.551 .0253269
934.188 .0253076
934.825 .0252881
935.462 .0252687
936.098 .0252501
936.733 .0252315
937.369 .0252137
938.004 .0251966
938.638 .0251804
939.273 .0251651
939.907 .0251510
940.540 .0251376
941.173 .0251250
941.806 .0251132
942.438 .0251017
943.070 .0250899
943.702 .0250778
944.333 .0250647
944.964 .0250512
945.594 .0250375
946.224 .0250235
946.854 .0250100
947.483 .0249971
948.112 .0249844
948.741 .0249715
949.369 .0249585
949.996 .0249442
950.624 .0249284
951.251 .0249110
951.878 .0248918
952.504 .0248712
953.130 .0248498
953.755 .0248278
954.380 .0248063
955.005 .0247855
955.629 .0247651
956.253 .0247449
956.877 .0247257
957.500 .0247062
958.123 .0246863
958.746 .0246659
959.368 .0246454
959.990 .0246247
960.611 .0246040
961.232 .0245838
961.853 .0245643
962.473 .0245459
963.093 .0245277
963.712 .0245095
964.331 .0244916
964.950 .0244731
965.569 .0244544
966.187 .0244355
966.804 .0244170
967.422 .0243990
968.039 .0243820
968.655 .0243660
969.272 .0243509
969.887 .0243361
970.503 .0243211
971.118 .0243060
971.733 .0242907
972.347 .0242748
972.961 .0242584
973.575 .0242420
974.188 .0242257
974.801 .0242094
975.414 .0241935
976.026 .0241775
976.638 .0241617
977.250 .0241454
977.861 .0241281
978.472 .0241098
979.083 .0240908
979.693 .0240707
980.303 .0240497
980.912 .0240288
981.521 .0240074
982.130 .0239859
982.738 .0239652
983.346 .0239451
983.954 .0239253
984.562 .0239064
985.169 .0238880
985.775 .0238701
986.382 .0238527
986.988 .0238357
987.594 .0238188
988.199 .0238026
988.804 .0237869
989.409 .0237713
990.013 .0237563
990.617 .0237423
991.221 .0237284
991.824 .0237161
992.427 .0237052
993.030 .0236955
993.632 .0236881
994.234 .0236828
994.836 .0236798
995.438 .0236785
996.039 .0236782
996.640 .0236789
997.240 .0236796
997.840 .0236808
998.440 .0236814
999.040 .0236820
999.639 .0236833
1000.238 .0236844
1000.836 .0236864
1001.435 .0236892
1002.033 .0236926
1002.630 .0236964
1003.228 .0237003
1003.825 .0237046
1004.422 .0237086
1005.018 .0237129
1005.614 .0237169
1006.210 .0237212
1006.806 .0237259
1007.401 .0237310
1007.996 .0237363
1008.591 .0237422
1009.186 .0237487
1009.780 .0237552
1010.374 .0237615
1010.967 .0237672
1011.561 .0237728
1012.154 .0237780
1012.746 .0237825
1013.339 .0237872
1013.931 .0237914
1014.523 .0237967
1015.115 .0238026
1015.706 .0238102
1016.298 .0238197
1016.888 .0238310
1017.479 .0238441
1018.069 .0238587
1018.660 .0238745
1019.250 .0238912
1019.839 .0239085
1020.429 .0239272
1021.018 .0239465
1021.607 .0239664
1022.195 .0239868
1022.784 .0240078
1023.372 .0240288
1023.960 .0240494
1024.547 .0240689
1025.135 .0240872
1025.722 .0241040
1026.309 .0241192
1026.896 .0241334
1027.483 .0241476
1028.069 .0241623
1028.655 .0241781
1029.241 .0241952
1029.827 .0242139
1030.412 .0242340
1030.997 .0242555
1031.582 .0242780
1032.167 .0243009
1032.752 .0243240
1033.336 .0243464
1033.921 .0243685
1034.505 .0243895
1035.089 .0244092
1035.672 .0244279
1036.256 .0244460
1036.839 .0244626
1037.422 .0244782
1038.005 .0244923
1038.588 .0245057
1039.171 .0245183
1039.753 .0245307
1040.335 .0245426
1040.918 .0245539
1041.500 .0245651
1042.081 .0245757
1042.663 .0245856
1043.244 .0245958
1043.826 .0246052
1044.407 .0246149
1044.988 .0246244
1045.569 .0246344
1046.150 .0246437
1046.730 .0246532
1047.311 .0246627
1047.891 .0246721
1048.471 .0246809
1049.052 .0246893
1049.632 .0246968
1050.211 .0247043
1050.791 .0247119
1051.371 .0247197
1051.950 .0247279
1052.530 .0247377
1053.109 .0247483
1053.688 .0247605
1054.268 .0247747
1054.847 .0247916
1055.426 .0248098
1056.005 .0248300
1056.583 .0248514
1057.162 .0248721
1057.741 .0248918
1058.319 .0249093
1058.898 .0249239
1059.476 .0249362
1060.055 .0249457
1060.633 .0249533
1061.211 .0249597
1061.790 .0249670
1062.368 .0249745
1062.946 .0249829
1063.524 .0249929
1064.102 .0250032
1064.680 .0250135
1065.258 .0250232
1065.836 .0250319
1066.414 .0250391
1066.992 .0250461
1067.570 .0250539
1068.148 .0250628
1068.726 .0250740
1069.304 .0250872
1069.882 .0251021
1070.460 .0251179
1071.038 .0251335
1071.616 .0251466
1072.194 .0251576
1072.772 .0251656
1073.350 .0251699
1073.928 .0251704
1074.506 .0251683
1075.084 .0251642
1075.662 .0251603
1076.240 .0251568
1076.819 .0251541
1077.397 .0251535
1077.976 .0251561
1078.554 .0251601
1079.133 .0251653
1079.711 .0251700
1080.290 .0251738
1080.869 .0251748
1081.448 .0251738
1082.027 .0251692
1082.606 .0251638
1083.185 .0251590
1083.764 .0251558
1084.343 .0251537
1084.923 .0251550
1085.502 .0251586
1086.082 .0251641
1086.662 .0251703
1087.242 .0251751
1087.822 .0251779
1088.402 .0251798
1088.983 .0251808
1089.563 .0251807
1090.144 .0251807
1090.725 .0251835
1091.306 .0251871
1091.887 .0251926
1092.469 .0252001
1093.050 .0252087
1093.632 .0252172
1094.214 .0252266
1094.796 .0252362
1095.379 .0252464
1095.961 .0252587
1096.544 .0252729
1097.127 .0252886
1097.710 .0253065
1098.294 .0253256
1098.877 .0253450
1099.461 .0253668
1100.046 .0253918
1100.630 .0254161
1101.215 .0254408
1101.800 .0254665
1102.385 .0254909
1102.970 .0255141
1103.556 .0255353
1104.142 .0255555
1104.728 .0255746
1105.315 .0255903
1105.902 .0256040
1106.489 .0256155
1107.077 .0256252
1107.664 .0256318
1108.253 .0256346
1108.841 .0256366
1109.430 .0256376
1110.019 .0256399
1110.609 .0256448
1111.198 .0256567
1111.789 .0256744
1112.379 .0256966
1112.970 .0257233
1113.561 .0257551
1114.153 .0257913
1114.745 .0258289
1115.338 .0258685
1115.931 .0259083
1116.524 .0259495
1117.117 .0259898
1117.712 .0260294
1118.306 .0260695
1118.901 .0261075
1119.496 .0261408
1120.092 .0261683
1120.689 .0261911
1121.285 .0262087
1121.882 .0262191
1122.480 .0262268
1123.078 .0262300
1123.677 .0262338
1124.276 .0262353
1124.875 .0262387
1125.476 .0262440
1126.076 .0262535
1126.677 .0262657
1127.279 .0262856
1127.881 .0263134
1128.484 .0263513
1129.087 .0263970
1129.691 .0264556
1130.295 .0265234
1130.900 .0266003
1131.505 .0266815
1132.111 .0267697
1132.718 .0268594
1133.325 .0269516
1133.933 .0270404
1134.541 .0271284
1135.150 .0272148
1135.760 .0273004
1136.370 .0273826
1136.981 .0274675
1137.592 .0275519
1138.204 .0276414
1138.817 .0277288
1139.431 .0278118
1140.045 .0278915
1140.660 .0279691
1141.275 .0280526
1141.891 .0281646
1142.508 .0280478
1143.126 .0281972
1143.744 .0283401
1144.363 .0286914
1144.983 .0295080
