Measurement Sequence started on: 15-12-46-377
Integration time: 28
Scans to Average: 2 
>>>>>Begin Spectral Data<<<<<
432.689 .0000100
433.621 .0000100
434.552 .0000100
435.482 .0000100
436.410 .0000100
437.337 .0000100
438.262 .0280395
439.187 .0593706
440.110 .0984413
441.031 .1424839
441.952 .1852286
442.871 .2188659
443.789 .2372997
444.705 .2384110
445.621 .2247918
446.535 .2020409
447.447 .1762886
448.359 .1369167
449.269 .1174579
450.178 .1051335
451.086 .0965223
451.993 .0899788
452.898 .0848120
453.803 .0805838
454.706 .0770739
455.608 .0740556
456.508 .0714430
457.408 .0691707
458.306 .0671604
459.204 .0653490
460.100 .0637132
460.995 .0622366
461.888 .0609078
462.781 .0596897
463.673 .0585616
464.563 .0575281
465.452 .0565641
466.340 .0556495
467.228 .0547967
468.114 .0539953
468.999 .0532596
469.882 .0525708
470.765 .0519381
471.647 .0513580
472.528 .0508189
473.407 .0503254
474.286 .0498750
475.163 .0494682
476.040 .0491012
476.915 .0487637
477.790 .0484673
478.663 .0482026
479.535 .0479713
480.407 .0477758
481.277 .0476043
482.147 .0474571
483.015 .0473333
483.883 .0472279
484.749 .0471435
485.615 .0470771
486.479 .0470251
487.343 .0469980
488.206 .0469975
489.067 .0470213
489.928 .0470694
490.788 .0471498
491.647 .0472655
492.505 .0474077
493.362 .0475748
494.218 .0477612
495.073 .0479657
495.928 .0481946
496.781 .0484295
497.634 .0486833
498.486 .0489591
499.337 .0492599
500.187 .0495910
501.036 .0499625
501.884 .0503667
502.731 .0508041
503.578 .0512720
504.424 .0517614
505.268 .0522590
506.113 .0527666
506.956 .0532719
507.798 .0537940
508.640 .0543422
509.480 .0549311
510.320 .0555805
511.160 .0563280
511.998 .0571877
512.836 .0581533
513.672 .0592433
514.508 .0604501
515.344 .0617617
516.178 .0632162
517.012 .0648209
517.845 .0666105
518.677 .0686394
519.508 .0709332
520.339 .0735557
521.169 .0765922
521.998 .0800951
522.826 .0840825
523.654 .0885796
524.481 .0936183
525.307 .0992267
526.133 .1053650
526.958 .1120524
527.782 .1191999
528.605 .1267163
529.428 .1344820
530.250 .1419169
531.072 .1487578
531.892 .1546029
532.712 .1590669
533.532 .1619121
534.350 .1628950
535.168 .1619873
535.986 .1592999
536.802 .1550580
537.618 .1495552
538.434 .1430364
539.249 .1360246
540.063 .1286619
540.876 .1212367
541.689 .1139763
542.501 .1070293
543.313 .1005900
544.124 .0947540
544.934 .0894874
545.744 .0847770
546.553 .0805953
547.361 .0769386
548.169 .0737560
548.976 .0709564
549.783 .0684724
550.589 .0662592
551.395 .0642375
552.200 .0623772
553.004 .0606663
553.808 .0590813
554.611 .0576517
555.414 .0563688
556.216 .0552288
557.018 .0542286
557.819 .0533509
558.619 .0525489
559.419 .0518072
560.218 .0511083
561.017 .0504234
561.815 .0497276
562.613 .0490387
563.410 .0483388
564.207 .0476350
565.003 .0469425
565.799 .0462685
566.594 .0456013
567.388 .0449634
568.182 .0443331
568.976 .0437186
569.769 .0431198
570.562 .0425355
571.354 .0419592
572.145 .0414087
572.936 .0408735
573.727 .0403587
574.517 .0398658
575.307 .0394043
576.096 .0389590
576.885 .0385378
577.673 .0381426
578.461 .0377706
579.248 .0374205
580.035 .0370908
580.821 .0367780
581.607 .0364854
582.392 .0362054
583.177 .0359402
583.962 .0356900
584.746 .0354601
585.529 .0352479
586.313 .0350552
587.095 .0348825
587.878 .0347304
588.660 .0345990
589.441 .0344869
590.222 .0343910
591.003 .0343102
591.783 .0342409
592.563 .0341790
593.342 .0341247
594.121 .0340741
594.899 .0340270
595.678 .0339832
596.455 .0339415
597.233 .0339010
598.009 .0338595
598.786 .0338162
599.562 .0337712
600.338 .0337242
601.113 .0336753
601.888 .0336239
602.663 .0335716
603.437 .0335185
604.211 .0334647
604.984 .0334108
605.757 .0333577
606.530 .0333045
607.302 .0332519
608.074 .0331992
608.845 .0331466
609.616 .0330944
610.387 .0330432
611.158 .0329948
611.928 .0329491
612.697 .0329073
613.467 .0328685
614.236 .0328322
615.004 .0327985
615.773 .0327661
616.541 .0327342
617.308 .0327027
618.076 .0326712
618.843 .0326391
619.609 .0326072
620.375 .0325761
621.141 .0325457
621.907 .0325165
622.672 .0324884
623.437 .0324601
624.202 .0324304
624.966 .0324001
625.730 .0323679
626.493 .0323337
627.257 .0322987
628.020 .0322622
628.782 .0322250
629.545 .0321878
630.307 .0321508
631.068 .0321141
631.830 .0320780
632.591 .0320417
633.352 .0320046
634.112 .0319667
634.872 .0319273
635.632 .0318871
636.392 .0318467
637.151 .0318071
637.910 .0317682
638.668 .0317309
639.427 .0316950
640.185 .0316608
640.943 .0316281
641.700 .0315966
642.457 .0315665
643.214 .0315373
643.971 .0315086
644.727 .0314819
645.483 .0314567
646.239 .0314343
646.994 .0314146
647.750 .0313993
648.505 .0313870
649.259 .0313780
650.014 .0313715
650.768 .0313668
651.521 .0313630
652.275 .0313597
653.028 .0313562
653.781 .0313527
654.534 .0313484
655.286 .0313430
656.039 .0313365
656.791 .0313294
657.542 .0313199
658.294 .0313088
659.045 .0312950
659.796 .0312790
660.546 .0312599
661.297 .0312389
662.047 .0312161
662.796 .0311919
663.546 .0311670
664.295 .0311410
665.044 .0311149
665.793 .0310890
666.542 .0310631
667.290 .0310377
668.038 .0310130
668.786 .0309887
669.533 .0309644
670.281 .0309410
671.028 .0309190
671.774 .0308977
672.521 .0308779
673.267 .0308594
674.013 .0308418
674.759 .0308250
675.505 .0308086
676.250 .0307921
676.995 .0307757
677.740 .0307591
678.484 .0307416
679.229 .0307230
679.973 .0307037
680.717 .0306834
681.460 .0306619
682.204 .0306399
682.947 .0306173
683.690 .0305942
684.433 .0305710
685.175 .0305474
685.917 .0305235
686.659 .0304993
687.401 .0304747
688.142 .0304493
688.884 .0304226
689.625 .0303946
690.365 .0303651
691.106 .0303341
691.846 .0303028
692.586 .0302711
693.326 .0302390
694.066 .0302076
694.805 .0301767
695.545 .0301461
696.284 .0301154
697.022 .0300847
697.761 .0300534
698.499 .0300216
699.237 .0299892
699.975 .0299561
700.713 .0299232
701.450 .0298915
702.187 .0298613
702.924 .0298329
703.661 .0298066
704.397 .0297816
705.133 .0297583
705.869 .0297363
706.605 .0297147
707.341 .0296932
708.076 .0296712
708.811 .0296488
709.546 .0296252
710.281 .0296008
711.015 .0295759
711.749 .0295507
712.483 .0295252
713.217 .0294995
713.950 .0294738
714.684 .0294478
715.417 .0294220
716.150 .0293966
716.882 .0293712
717.615 .0293456
718.347 .0293202
719.079 .0292953
719.811 .0292710
720.542 .0292488
721.273 .0292275
722.005 .0292079
722.735 .0291903
723.466 .0291740
724.196 .0291587
724.927 .0291443
725.656 .0291308
726.386 .0291175
727.116 .0291046
727.845 .0290922
728.574 .0290799
729.303 .0290690
730.031 .0290594
730.760 .0290508
731.488 .0290433
732.216 .0290366
732.944 .0290303
733.671 .0290250
734.398 .0290203
735.125 .0290161
735.852 .0290130
736.579 .0290113
737.305 .0290108
738.031 .0290115
738.757 .0290136
739.483 .0290162
740.208 .0290189
740.933 .0290211
741.658 .0290221
742.383 .0290221
743.108 .0290211
743.832 .0290193
744.556 .0290172
745.280 .0290150
746.004 .0290123
746.727 .0290096
747.450 .0290070
748.173 .0290036
748.896 .0289994
749.618 .0289944
750.340 .0289881
751.062 .0289809
751.784 .0289728
752.506 .0289640
753.227 .0289550
753.948 .0289461
754.669 .0289371
755.389 .0289282
756.110 .0289192
756.830 .0289096
757.550 .0288995
758.269 .0288889
758.989 .0288772
759.708 .0288645
760.427 .0288510
761.146 .0288364
761.864 .0288213
762.582 .0288061
763.300 .0287903
764.018 .0287747
764.736 .0287590
765.453 .0287431
766.170 .0287268
766.887 .0287103
767.603 .0286932
768.320 .0286757
769.036 .0286575
769.751 .0286389
770.467 .0286201
771.182 .0286017
771.897 .0285833
772.612 .0285650
773.327 .0285471
774.041 .0285298
774.755 .0285123
775.469 .0284953
776.183 .0284786
776.896 .0284622
777.609 .0284455
778.322 .0284287
779.035 .0284111
779.747 .0283932
780.459 .0283747
781.171 .0283558
781.882 .0283364
782.594 .0283175
783.305 .0282989
784.016 .0282816
784.726 .0282654
785.436 .0282501
786.147 .0282352
786.856 .0282212
787.566 .0282071
788.275 .0281928
788.984 .0281780
789.693 .0281630
790.401 .0281477
791.110 .0281324
791.818 .0281166
792.525 .0281010
793.233 .0280854
793.940 .0280698
794.647 .0280532
795.353 .0280356
796.060 .0280163
796.766 .0279956
797.472 .0279733
798.177 .0279491
798.883 .0279234
799.588 .0278967
800.292 .0278695
800.997 .0278420
801.701 .0278148
802.405 .0277879
803.109 .0277618
803.812 .0277365
804.515 .0277118
805.218 .0276875
805.921 .0276633
806.623 .0276393
807.325 .0276153
808.027 .0275914
808.728 .0275674
809.429 .0275431
810.130 .0275194
810.831 .0274958
811.531 .0274722
812.231 .0274484
812.931 .0274246
813.630 .0274005
814.330 .0273761
815.029 .0273511
815.727 .0273261
816.426 .0273017
817.124 .0272779
817.821 .0272547
818.519 .0272329
819.216 .0272129
819.913 .0271944
820.609 .0271780
821.306 .0271639
822.002 .0271521
822.697 .0271426
823.393 .0271356
824.088 .0271313
824.783 .0271293
825.477 .0271296
826.171 .0271316
826.865 .0271356
827.559 .0271411
828.252 .0271477
828.945 .0271555
829.638 .0271640
830.330 .0271732
831.023 .0271825
831.714 .0271919
832.406 .0272011
833.097 .0272097
833.788 .0272171
834.479 .0272234
835.169 .0272287
835.859 .0272332
836.548 .0272374
837.238 .0272416
837.927 .0272458
838.615 .0272504
839.304 .0272554
839.992 .0272602
840.680 .0272647
841.367 .0272688
842.054 .0272719
842.741 .0272746
843.428 .0272772
844.114 .0272799
844.800 .0272833
845.485 .0272877
846.170 .0272925
846.855 .0272974
847.540 .0273022
848.224 .0273058
848.908 .0273086
849.592 .0273102
850.275 .0273102
850.958 .0273089
851.641 .0273068
852.323 .0273042
853.005 .0273013
853.687 .0272982
854.368 .0272946
855.049 .0272904
855.730 .0272852
856.410 .0272786
857.090 .0272709
857.769 .0272623
858.449 .0272530
859.128 .0272430
859.806 .0272330
860.485 .0272234
861.163 .0272146
861.840 .0272068
862.518 .0271997
863.195 .0271929
863.871 .0271860
864.548 .0271791
865.224 .0271721
865.899 .0271654
866.574 .0271588
867.249 .0271524
867.924 .0271468
868.598 .0271416
869.272 .0271366
869.946 .0271320
870.619 .0271272
871.292 .0271223
871.964 .0271166
872.636 .0271103
873.308 .0271034
873.979 .0270963
874.651 .0270891
875.321 .0270817
875.992 .0270744
876.662 .0270672
877.331 .0270600
878.001 .0270532
878.670 .0270467
879.338 .0270405
880.007 .0270350
880.675 .0270307
881.342 .0270269
882.009 .0270240
882.676 .0270212
883.343 .0270182
884.009 .0270144
884.675 .0270094
885.340 .0270029
886.005 .0269952
886.670 .0269865
887.334 .0269771
887.998 .0269669
888.662 .0269565
889.325 .0269454
889.988 .0269340
890.650 .0269217
891.312 .0269085
891.974 .0268944
892.636 .0268797
893.297 .0268651
893.957 .0268510
894.618 .0268373
895.278 .0268246
895.937 .0268129
896.596 .0268022
897.255 .0267920
897.914 .0267826
898.572 .0267733
899.230 .0267642
899.887 .0267547
900.544 .0267447
901.201 .0267340
901.857 .0267223
902.513 .0267097
903.168 .0266953
903.823 .0266788
904.478 .0266599
905.132 .0266380
905.786 .0266139
906.440 .0265869
907.093 .0265575
907.746 .0265260
908.399 .0264926
909.051 .0264576
909.703 .0264219
910.354 .0263856
911.005 .0263490
911.656 .0263126
912.306 .0262765
912.956 .0262403
913.605 .0262039
914.254 .0261678
914.903 .0261322
915.551 .0260972
916.199 .0260637
916.847 .0260310
917.494 .0260002
918.141 .0259710
918.788 .0259430
919.434 .0259165
920.079 .0258907
920.725 .0258651
921.370 .0258390
922.014 .0258122
922.658 .0257848
923.302 .0257564
923.946 .0257280
924.589 .0256992
925.231 .0256701
925.873 .0256409
926.515 .0256114
927.157 .0255818
927.798 .0255523
928.439 .0255225
929.079 .0254925
929.719 .0254624
930.359 .0254319
930.998 .0254012
931.637 .0253707
932.275 .0253407
932.913 .0253109
933.551 .0252812
934.188 .0252519
934.825 .0252229
935.462 .0251947
936.098 .0251670
936.733 .0251399
937.369 .0251135
938.004 .0250875
938.638 .0250621
939.273 .0250368
939.907 .0250123
940.540 .0249892
941.173 .0249679
941.806 .0249490
942.438 .0249327
943.070 .0249192
943.702 .0249085
944.333 .0249003
944.964 .0248942
945.594 .0248892
946.224 .0248856
946.854 .0248833
947.483 .0248820
948.112 .0248819
948.741 .0248827
949.369 .0248845
949.996 .0248875
950.624 .0248905
951.251 .0248925
951.878 .0248933
952.504 .0248926
953.130 .0248901
953.755 .0248857
954.380 .0248799
955.005 .0248735
955.629 .0248663
956.253 .0248593
956.877 .0248526
957.500 .0248465
958.123 .0248413
958.746 .0248367
959.368 .0248329
959.990 .0248295
960.611 .0248262
961.232 .0248237
961.853 .0248220
962.473 .0248215
963.093 .0248219
963.712 .0248234
964.331 .0248258
964.950 .0248293
965.569 .0248329
966.187 .0248375
966.804 .0248429
967.422 .0248491
968.039 .0248557
968.655 .0248626
969.272 .0248702
969.887 .0248780
970.503 .0248864
971.118 .0248952
971.733 .0249039
972.347 .0249126
972.961 .0249210
973.575 .0249291
974.188 .0249366
974.801 .0249440
975.414 .0249509
976.026 .0249572
976.638 .0249628
977.250 .0249675
977.861 .0249716
978.472 .0249751
979.083 .0249782
979.693 .0249803
980.303 .0249819
980.912 .0249827
981.521 .0249829
982.130 .0249831
982.738 .0249842
983.346 .0249864
983.954 .0249895
984.562 .0249935
985.169 .0249976
985.775 .0250017
986.382 .0250058
986.988 .0250093
987.594 .0250125
988.199 .0250149
988.804 .0250173
989.409 .0250199
990.013 .0250234
990.617 .0250282
991.221 .0250343
991.824 .0250420
992.427 .0250513
993.030 .0250613
993.632 .0250716
994.234 .0250826
994.836 .0250944
995.438 .0251067
996.039 .0251196
996.640 .0251333
997.240 .0251480
997.840 .0251640
998.440 .0251810
999.040 .0251988
999.639 .0252168
1000.238 .0252342
1000.836 .0252500
1001.435 .0252640
1002.033 .0252762
1002.630 .0252866
1003.228 .0252960
1003.825 .0253051
1004.422 .0253144
1005.018 .0253241
1005.614 .0253343
1006.210 .0253453
1006.806 .0253566
1007.401 .0253675
1007.996 .0253770
1008.591 .0253852
1009.186 .0253921
1009.780 .0253986
1010.374 .0254051
1010.967 .0254119
1011.561 .0254195
1012.154 .0254280
1012.746 .0254365
1013.339 .0254443
1013.931 .0254512
1014.523 .0254566
1015.115 .0254603
1015.706 .0254632
1016.298 .0254649
1016.888 .0254666
1017.479 .0254692
1018.069 .0254733
1018.660 .0254786
1019.250 .0254860
1019.839 .0254936
1020.429 .0255017
1021.018 .0255105
1021.607 .0255195
1022.195 .0255283
1022.784 .0255377
1023.372 .0255476
1023.960 .0255577
1024.547 .0255686
1025.135 .0255801
1025.722 .0255919
1026.309 .0256044
1026.896 .0256172
1027.483 .0256295
1028.069 .0256409
1028.655 .0256516
1029.241 .0256601
1029.827 .0256673
1030.412 .0256736
1030.997 .0256781
1031.582 .0256822
1032.167 .0256853
1032.752 .0256886
1033.336 .0256915
1033.921 .0256939
1034.505 .0256954
1035.089 .0256950
1035.672 .0256930
1036.256 .0256886
1036.839 .0256813
1037.422 .0256723
1038.005 .0256624
1038.588 .0256524
1039.171 .0256425
1039.753 .0256339
1040.335 .0256265
1040.918 .0256201
1041.500 .0256140
1042.081 .0256084
1042.663 .0256018
1043.244 .0255948
1043.826 .0255871
1044.407 .0255790
1044.988 .0255715
1045.569 .0255642
1046.150 .0255569
1046.730 .0255502
1047.311 .0255428
1047.891 .0255344
1048.471 .0255240
1049.052 .0255121
1049.632 .0254978
1050.211 .0254816
1050.791 .0254640
1051.371 .0254454
1051.950 .0254268
1052.530 .0254085
1053.109 .0253907
1053.688 .0253741
1054.268 .0253575
1054.847 .0253409
1055.426 .0253246
1056.005 .0253090
1056.583 .0252939
1057.162 .0252799
1057.741 .0252677
1058.319 .0252578
1058.898 .0252496
1059.476 .0252431
1060.055 .0252374
1060.633 .0252325
1061.211 .0252269
1061.790 .0252197
1062.368 .0252113
1062.946 .0252006
1063.524 .0251881
1064.102 .0251751
1064.680 .0251621
1065.258 .0251484
1065.836 .0251335
1066.414 .0251189
1066.992 .0251038
1067.570 .0250888
1068.148 .0250729
1068.726 .0250572
1069.304 .0250424
1069.882 .0250279
1070.460 .0250140
1071.038 .0250009
1071.616 .0249897
1072.194 .0249789
1072.772 .0249683
1073.350 .0249578
1073.928 .0249464
1074.506 .0249345
1075.084 .0249212
1075.662 .0249083
1076.240 .0248956
1076.819 .0248831
1077.397 .0248710
1077.976 .0248593
1078.554 .0248482
1079.133 .0248365
1079.711 .0248235
1080.290 .0248099
1080.869 .0247951
1081.448 .0247790
1082.027 .0247625
1082.606 .0247459
1083.185 .0247316
1083.764 .0247206
1084.343 .0247116
1084.923 .0247054
1085.502 .0247005
1086.082 .0246963
1086.662 .0246915
1087.242 .0246861
1087.822 .0246797
1088.402 .0246712
1088.983 .0246635
1089.563 .0246559
1090.144 .0246484
1090.725 .0246427
1091.306 .0246375
1091.887 .0246332
1092.469 .0246308
1093.050 .0246277
1093.632 .0246239
1094.214 .0246211
1094.796 .0246189
1095.379 .0246167
1095.961 .0246155
1096.544 .0246159
1097.127 .0246160
1097.710 .0246182
1098.294 .0246225
1098.877 .0246256
1099.461 .0246322
1100.046 .0246407
1100.630 .0246504
1101.215 .0246625
1101.800 .0246749
1102.385 .0246886
1102.970 .0247035
1103.556 .0247185
1104.142 .0247310
1104.728 .0247431
1105.315 .0247575
1105.902 .0247705
1106.489 .0247842
1107.077 .0248003
1107.664 .0248173
1108.253 .0248358
1108.841 .0248555
1109.430 .0248756
1110.019 .0248967
1110.609 .0249173
1111.198 .0249383
1111.789 .0249616
1112.379 .0249875
1112.970 .0250144
1113.561 .0250436
1114.153 .0250760
1114.745 .0251126
1115.338 .0251508
1115.931 .0251920
1116.524 .0252365
1117.117 .0252849
1117.712 .0253353
1118.306 .0253878
1118.901 .0254430
1119.496 .0254980
1120.092 .0255519
1120.689 .0256052
1121.285 .0256549
1121.882 .0257030
1122.480 .0257500
1123.078 .0257984
1123.677 .0258481
1124.276 .0258999
1124.875 .0259506
1125.476 .0260008
1126.076 .0260536
1126.677 .0261051
1127.279 .0261542
1127.881 .0262041
1128.484 .0262542
1129.087 .0263033
1129.691 .0263513
1130.295 .0264014
1130.900 .0264519
1131.505 .0265061
1132.111 .0265631
1132.718 .0266225
1133.325 .0266870
1133.933 .0267564
1134.541 .0268276
1135.150 .0269053
1135.760 .0269885
1136.370 .0270727
1136.981 .0271601
1137.592 .0272513
1138.204 .0273469
1138.817 .0274490
1139.431 .0275566
1140.045 .0276713
1140.660 .0277875
1141.275 .0279290
1141.891 .0280737
1142.508 .0282078
1143.126 .0283564
1143.744 .0283057
1144.363 .0290591
1144.983 .0289547
