Measurement Sequence started on: 15-12-46-377
Integration time: 28
Scans to Average: 2 
>>>>>Begin Spectral Data<<<<<
432.689 .0000100
433.621 .0000100
434.552 .0000100
435.482 .0000100
436.410 .0000100
437.337 .0000100
438.262 .0286954
439.187 .0607273
440.110 .1005063
441.031 .1453984
441.952 .1889303
442.871 .2231286
443.789 .2417524
444.705 .2427249
445.621 .2286733
446.535 .2053352
447.447 .1789729
448.359 .1387094
449.269 .1188301
450.178 .1062952
451.086 .0974156
451.993 .0906396
452.898 .0852615
453.803 .0808542
454.706 .0771498
455.608 .0739926
456.508 .0712678
457.408 .0689166
458.306 .0668421
459.204 .0650086
460.100 .0633560
460.995 .0618442
461.888 .0604629
462.781 .0591868
463.673 .0579980
464.563 .0569167
465.452 .0559249
466.340 .0550158
467.228 .0541744
468.114 .0534010
468.999 .0526818
469.882 .0520061
470.765 .0513667
471.647 .0507681
472.528 .0502137
473.407 .0497169
474.286 .0492740
475.163 .0488826
476.040 .0485454
476.915 .0482475
477.790 .0479778
478.663 .0477316
479.535 .0475020
480.407 .0472967
481.277 .0471167
482.147 .0469654
483.015 .0468368
483.883 .0467344
484.749 .0466616
485.615 .0466113
486.479 .0465795
487.343 .0465627
488.206 .0465497
489.067 .0465365
489.928 .0465220
490.788 .0465086
491.647 .0465026
492.505 .0465121
493.362 .0465353
494.218 .0465740
495.073 .0466283
495.928 .0467036
496.781 .0467968
497.634 .0469260
498.486 .0470901
499.337 .0472856
500.187 .0475178
501.036 .0477943
501.884 .0481148
502.731 .0484857
503.578 .0489070
504.424 .0493782
505.268 .0498821
506.113 .0504221
506.956 .0509849
507.798 .0515798
508.640 .0522130
509.480 .0528856
510.320 .0536059
511.160 .0543928
511.998 .0552420
512.836 .0561652
513.672 .0571714
514.508 .0582724
515.344 .0594450
516.178 .0607307
517.012 .0621701
517.845 .0638060
518.677 .0656802
519.508 .0678496
520.339 .0703551
521.169 .0733057
521.998 .0767094
522.826 .0806274
523.654 .0851178
524.481 .0902126
525.307 .0959234
526.133 .1022599
526.958 .1091409
527.782 .1165158
528.605 .1242069
529.428 .1321667
530.250 .1397740
531.072 .1467482
531.892 .1527162
532.712 .1573630
533.532 .1604062
534.350 .1616664
535.168 .1609817
535.986 .1584711
536.802 .1542702
537.618 .1486627
538.434 .1418323
539.249 .1343946
540.063 .1265859
540.876 .1187311
541.689 .1110922
542.501 .1039527
543.313 .0974333
544.124 .0916580
544.934 .0865406
545.744 .0819817
546.553 .0779094
547.361 .0743095
548.169 .0711322
548.976 .0683222
549.783 .0658271
550.589 .0636422
551.395 .0616915
552.200 .0599583
553.004 .0583905
553.808 .0569655
554.611 .0556744
555.414 .0545118
556.216 .0534561
557.018 .0524978
557.819 .0516354
558.619 .0508411
559.419 .0500956
560.218 .0494049
561.017 .0487418
561.815 .0480983
562.613 .0474614
563.410 .0468376
564.207 .0462168
565.003 .0456154
565.799 .0450252
566.594 .0444409
567.388 .0438764
568.182 .0433221
568.976 .0427670
569.769 .0422157
570.562 .0416781
571.354 .0411470
572.145 .0406232
572.936 .0401155
573.727 .0396210
574.517 .0391546
575.307 .0387095
576.096 .0382892
576.885 .0378947
577.673 .0375256
578.461 .0371766
579.248 .0368485
580.035 .0365453
580.821 .0362630
581.607 .0359991
582.392 .0357565
583.177 .0355319
583.962 .0353252
584.746 .0351357
585.529 .0349615
586.313 .0347998
587.095 .0346489
587.878 .0345033
588.660 .0343645
589.441 .0342304
590.222 .0341015
591.003 .0339784
591.783 .0338635
592.563 .0337566
593.342 .0336570
594.121 .0335633
594.899 .0334754
595.678 .0333912
596.455 .0333114
597.233 .0332338
598.009 .0331600
598.786 .0330902
599.562 .0330246
600.338 .0329642
601.113 .0329088
601.888 .0328575
602.663 .0328102
603.437 .0327655
604.211 .0327233
604.984 .0326825
605.757 .0326433
606.530 .0326049
607.302 .0325685
608.074 .0325351
608.845 .0325040
609.616 .0324748
610.387 .0324482
611.158 .0324243
611.928 .0324024
612.697 .0323824
613.467 .0323646
614.236 .0323494
615.004 .0323366
615.773 .0323254
616.541 .0323153
617.308 .0323062
618.076 .0322980
618.843 .0322897
619.609 .0322812
620.375 .0322725
621.141 .0322628
621.907 .0322531
622.672 .0322424
623.437 .0322312
624.202 .0322183
624.966 .0322043
625.730 .0321888
626.493 .0321711
627.257 .0321514
628.020 .0321295
628.782 .0321060
629.545 .0320819
630.307 .0320559
631.068 .0320287
631.830 .0320005
632.591 .0319718
633.352 .0319419
634.112 .0319109
634.872 .0318788
635.632 .0318465
636.392 .0318134
637.151 .0317803
637.910 .0317466
638.668 .0317131
639.427 .0316795
640.185 .0316449
640.943 .0316099
641.700 .0315745
642.457 .0315383
643.214 .0315023
643.971 .0314656
644.727 .0314300
645.483 .0313943
646.239 .0313590
646.994 .0313247
647.750 .0312910
648.505 .0312579
649.259 .0312258
650.014 .0311942
650.768 .0311630
651.521 .0311318
652.275 .0311013
653.028 .0310707
653.781 .0310405
654.534 .0310108
655.286 .0309814
656.039 .0309528
656.791 .0309251
657.542 .0308972
658.294 .0308701
659.045 .0308437
659.796 .0308176
660.546 .0307915
661.297 .0307658
662.047 .0307405
662.796 .0307150
663.546 .0306902
664.295 .0306655
665.044 .0306408
665.793 .0306180
666.542 .0305972
667.290 .0305786
668.038 .0305625
668.786 .0305495
669.533 .0305392
670.281 .0305307
671.028 .0305231
671.774 .0305153
672.521 .0305076
673.267 .0305001
674.013 .0304922
674.759 .0304839
675.505 .0304764
676.250 .0304695
676.995 .0304634
677.740 .0304581
678.484 .0304531
679.229 .0304485
679.973 .0304440
680.717 .0304390
681.460 .0304332
682.204 .0304266
682.947 .0304197
683.690 .0304126
684.433 .0304053
685.175 .0303976
685.917 .0303902
686.659 .0303831
687.401 .0303761
688.142 .0303688
688.884 .0303609
689.625 .0303524
690.365 .0303429
691.106 .0303313
691.846 .0303179
692.586 .0303022
693.326 .0302850
694.066 .0302658
694.805 .0302456
695.545 .0302244
696.284 .0302030
697.022 .0301814
697.761 .0301597
698.499 .0301378
699.237 .0301156
699.975 .0300929
700.713 .0300704
701.450 .0300474
702.187 .0300246
702.924 .0300018
703.661 .0299798
704.397 .0299576
705.133 .0299357
705.869 .0299136
706.605 .0298911
707.341 .0298681
708.076 .0298445
708.811 .0298199
709.546 .0297948
710.281 .0297688
711.015 .0297418
711.749 .0297140
712.483 .0296860
713.217 .0296572
713.950 .0296280
714.684 .0295987
715.417 .0295693
716.150 .0295396
716.882 .0295101
717.615 .0294809
718.347 .0294519
719.079 .0294232
719.811 .0293947
720.542 .0293667
721.273 .0293400
722.005 .0293140
722.735 .0292887
723.466 .0292644
724.196 .0292405
724.927 .0292165
725.656 .0291924
726.386 .0291683
727.116 .0291439
727.845 .0291195
728.574 .0290951
729.303 .0290709
730.031 .0290477
730.760 .0290256
731.488 .0290042
732.216 .0289841
732.944 .0289649
733.671 .0289463
734.398 .0289286
735.125 .0289122
735.852 .0288966
736.579 .0288827
737.305 .0288704
738.031 .0288596
738.757 .0288507
739.483 .0288434
740.208 .0288372
740.933 .0288326
741.658 .0288295
742.383 .0288269
743.108 .0288254
743.832 .0288256
744.556 .0288267
745.280 .0288287
746.004 .0288316
746.727 .0288348
747.450 .0288388
748.173 .0288429
748.896 .0288467
749.618 .0288503
750.340 .0288542
751.062 .0288576
751.784 .0288609
752.506 .0288645
753.227 .0288673
753.948 .0288691
754.669 .0288699
755.389 .0288690
756.110 .0288667
756.830 .0288630
757.550 .0288581
758.269 .0288524
758.989 .0288464
759.708 .0288399
760.427 .0288334
761.146 .0288274
761.864 .0288212
762.582 .0288150
763.300 .0288088
764.018 .0288023
764.736 .0287960
765.453 .0287900
766.170 .0287838
766.887 .0287776
767.603 .0287713
768.320 .0287645
769.036 .0287573
769.751 .0287500
770.467 .0287416
771.182 .0287327
771.897 .0287231
772.612 .0287128
773.327 .0287018
774.041 .0286912
774.755 .0286804
775.469 .0286700
776.183 .0286602
776.896 .0286509
777.609 .0286420
778.322 .0286335
779.035 .0286248
779.747 .0286160
780.459 .0286066
781.171 .0285968
781.882 .0285863
782.594 .0285759
783.305 .0285651
784.016 .0285541
784.726 .0285428
785.436 .0285306
786.147 .0285168
786.856 .0285013
787.566 .0284834
788.275 .0284627
788.984 .0284395
789.693 .0284141
790.401 .0283871
791.110 .0283591
791.818 .0283308
792.525 .0283025
793.233 .0282743
793.940 .0282467
794.647 .0282191
795.353 .0281913
796.060 .0281637
796.766 .0281358
797.472 .0281073
798.177 .0280787
798.883 .0280496
799.588 .0280204
800.292 .0279917
800.997 .0279636
801.701 .0279357
802.405 .0279087
803.109 .0278823
803.812 .0278557
804.515 .0278285
805.218 .0278003
805.921 .0277707
806.623 .0277397
807.325 .0277079
808.027 .0276751
808.728 .0276425
809.429 .0276111
810.130 .0275808
810.831 .0275526
811.531 .0275258
812.231 .0275003
812.931 .0274751
813.630 .0274501
814.330 .0274247
815.029 .0273991
815.727 .0273736
816.426 .0273491
817.124 .0273258
817.821 .0273045
818.519 .0272850
819.216 .0272677
819.913 .0272524
820.609 .0272386
821.306 .0272256
822.002 .0272131
822.697 .0272009
823.393 .0271901
824.088 .0271798
824.783 .0271712
825.477 .0271640
826.171 .0271586
826.865 .0271550
827.559 .0271530
828.252 .0271526
828.945 .0271533
829.638 .0271549
830.330 .0271569
831.023 .0271591
831.714 .0271619
832.406 .0271653
833.097 .0271696
833.788 .0271754
834.479 .0271825
835.169 .0271906
835.859 .0272001
836.548 .0272105
837.238 .0272216
837.927 .0272327
838.615 .0272436
839.304 .0272541
839.992 .0272642
840.680 .0272744
841.367 .0272844
842.054 .0272948
842.741 .0273060
843.428 .0273172
844.114 .0273284
844.800 .0273393
845.485 .0273494
846.170 .0273577
846.855 .0273644
847.540 .0273694
848.224 .0273730
848.908 .0273762
849.592 .0273795
850.275 .0273834
850.958 .0273883
851.641 .0273939
852.323 .0273997
853.005 .0274049
853.687 .0274097
854.368 .0274130
855.049 .0274147
855.730 .0274150
856.410 .0274137
857.090 .0274112
857.769 .0274082
858.449 .0274046
859.128 .0274007
859.806 .0273966
860.485 .0273922
861.163 .0273874
861.840 .0273828
862.518 .0273778
863.195 .0273724
863.871 .0273668
864.548 .0273614
865.224 .0273554
865.899 .0273495
866.574 .0273436
867.249 .0273376
867.924 .0273317
868.598 .0273259
869.272 .0273199
869.946 .0273145
870.619 .0273091
871.292 .0273038
871.964 .0272980
872.636 .0272920
873.308 .0272852
873.979 .0272779
874.651 .0272699
875.321 .0272614
875.992 .0272525
876.662 .0272434
877.331 .0272339
878.001 .0272243
878.670 .0272145
879.338 .0272047
880.007 .0271946
880.675 .0271847
881.342 .0271748
882.009 .0271647
882.676 .0271541
883.343 .0271429
884.009 .0271306
884.675 .0271167
885.340 .0271011
886.005 .0270839
886.670 .0270653
887.334 .0270458
887.998 .0270258
888.662 .0270058
889.325 .0269861
889.988 .0269667
890.650 .0269471
891.312 .0269272
891.974 .0269067
892.636 .0268852
893.297 .0268626
893.957 .0268394
894.618 .0268159
895.278 .0267922
895.937 .0267692
896.596 .0267473
897.255 .0267267
897.914 .0267072
898.572 .0266887
899.230 .0266704
899.887 .0266520
900.544 .0266329
901.201 .0266124
901.857 .0265908
902.513 .0265675
903.168 .0265428
903.823 .0265166
904.478 .0264893
905.132 .0264607
905.786 .0264310
906.440 .0264002
907.093 .0263679
907.746 .0263338
908.399 .0262979
909.051 .0262598
909.703 .0262201
910.354 .0261784
911.005 .0261359
911.656 .0260927
912.306 .0260498
912.956 .0260073
913.605 .0259660
914.254 .0259261
914.903 .0258877
915.551 .0258511
916.199 .0258166
916.847 .0257838
917.494 .0257530
918.141 .0257239
918.788 .0256967
919.434 .0256712
920.079 .0256473
920.725 .0256243
921.370 .0256026
922.014 .0255813
922.658 .0255603
923.302 .0255392
923.946 .0255183
924.589 .0254970
925.231 .0254754
925.873 .0254536
926.515 .0254311
927.157 .0254082
927.798 .0253849
928.439 .0253612
929.079 .0253376
929.719 .0253137
930.359 .0252900
930.998 .0252666
931.637 .0252442
932.275 .0252228
932.913 .0252028
933.551 .0251848
934.188 .0251688
934.825 .0251546
935.462 .0251426
936.098 .0251320
936.733 .0251231
937.369 .0251155
938.004 .0251089
938.638 .0251030
939.273 .0250978
939.907 .0250936
940.540 .0250908
941.173 .0250894
941.806 .0250904
942.438 .0250927
943.070 .0250969
943.702 .0251023
944.333 .0251080
944.964 .0251136
945.594 .0251191
946.224 .0251239
946.854 .0251282
947.483 .0251323
948.112 .0251365
948.741 .0251413
949.369 .0251470
949.996 .0251536
950.624 .0251606
951.251 .0251674
951.878 .0251741
952.504 .0251796
953.130 .0251849
953.755 .0251896
954.380 .0251942
955.005 .0251993
955.629 .0252052
956.253 .0252120
956.877 .0252200
957.500 .0252299
958.123 .0252413
958.746 .0252540
959.368 .0252676
959.990 .0252816
960.611 .0252961
961.232 .0253108
961.853 .0253258
962.473 .0253407
963.093 .0253556
963.712 .0253701
964.331 .0253842
964.950 .0253986
965.569 .0254131
966.187 .0254280
966.804 .0254434
967.422 .0254594
968.039 .0254754
968.655 .0254912
969.272 .0255062
969.887 .0255209
970.503 .0255353
971.118 .0255485
971.733 .0255610
972.347 .0255731
972.961 .0255849
973.575 .0255966
974.188 .0256077
974.801 .0256182
975.414 .0256271
976.026 .0256342
976.638 .0256397
977.250 .0256433
977.861 .0256460
978.472 .0256478
979.083 .0256488
979.693 .0256494
980.303 .0256491
980.912 .0256482
981.521 .0256470
982.130 .0256460
982.738 .0256449
983.346 .0256437
983.954 .0256429
984.562 .0256429
985.169 .0256436
985.775 .0256448
986.382 .0256455
986.988 .0256457
987.594 .0256450
988.199 .0256431
988.804 .0256399
989.409 .0256363
990.013 .0256329
990.617 .0256298
991.221 .0256268
991.824 .0256243
992.427 .0256220
993.030 .0256201
993.632 .0256182
994.234 .0256163
994.836 .0256146
995.438 .0256132
996.039 .0256124
996.640 .0256127
997.240 .0256144
997.840 .0256175
998.440 .0256214
999.040 .0256258
999.639 .0256305
1000.238 .0256349
1000.836 .0256389
1001.435 .0256420
1002.033 .0256445
1002.630 .0256458
1003.228 .0256456
1003.825 .0256441
1004.422 .0256414
1005.018 .0256379
1005.614 .0256333
1006.210 .0256282
1006.806 .0256226
1007.401 .0256162
1007.996 .0256089
1008.591 .0256007
1009.186 .0255921
1009.780 .0255823
1010.374 .0255718
1010.967 .0255609
1011.561 .0255498
1012.154 .0255392
1012.746 .0255295
1013.339 .0255212
1013.931 .0255140
1014.523 .0255077
1015.115 .0255012
1015.706 .0254942
1016.298 .0254865
1016.888 .0254777
1017.479 .0254683
1018.069 .0254585
1018.660 .0254484
1019.250 .0254387
1019.839 .0254299
1020.429 .0254215
1021.018 .0254131
1021.607 .0254047
1022.195 .0253954
1022.784 .0253844
1023.372 .0253718
1023.960 .0253582
1024.547 .0253441
1025.135 .0253307
1025.722 .0253181
1026.309 .0253070
1026.896 .0252979
1027.483 .0252899
1028.069 .0252828
1028.655 .0252761
1029.241 .0252689
1029.827 .0252608
1030.412 .0252514
1030.997 .0252415
1031.582 .0252310
1032.167 .0252207
1032.752 .0252116
1033.336 .0252033
1033.921 .0251964
1034.505 .0251894
1035.089 .0251812
1035.672 .0251719
1036.256 .0251595
1036.839 .0251438
1037.422 .0251246
1038.005 .0251032
1038.588 .0250798
1039.171 .0250557
1039.753 .0250321
1040.335 .0250090
1040.918 .0249871
1041.500 .0249656
1042.081 .0249432
1042.663 .0249193
1043.244 .0248944
1043.826 .0248668
1044.407 .0248375
1044.988 .0248085
1045.569 .0247790
1046.150 .0247511
1046.730 .0247250
1047.311 .0247014
1047.891 .0246795
1048.471 .0246595
1049.052 .0246410
1049.632 .0246225
1050.211 .0246052
1050.791 .0245876
1051.371 .0245710
1051.950 .0245562
1052.530 .0245433
1053.109 .0245321
1053.688 .0245227
1054.268 .0245157
1054.847 .0245083
1055.426 .0245014
1056.005 .0244943
1056.583 .0244872
1057.162 .0244793
1057.741 .0244705
1058.319 .0244616
1058.898 .0244520
1059.476 .0244420
1060.055 .0244312
1060.633 .0244195
1061.211 .0244075
1061.790 .0243947
1062.368 .0243815
1062.946 .0243685
1063.524 .0243567
1064.102 .0243455
1064.680 .0243354
1065.258 .0243258
1065.836 .0243166
1066.414 .0243071
1066.992 .0242972
1067.570 .0242885
1068.148 .0242801
1068.726 .0242731
1069.304 .0242684
1069.882 .0242657
1070.460 .0242643
1071.038 .0242645
1071.616 .0242651
1072.194 .0242656
1072.772 .0242659
1073.350 .0242655
1073.928 .0242630
1074.506 .0242601
1075.084 .0242573
1075.662 .0242539
1076.240 .0242517
1076.819 .0242506
1077.397 .0242501
1077.976 .0242508
1078.554 .0242517
1079.133 .0242519
1079.711 .0242521
1080.290 .0242531
1080.869 .0242536
1081.448 .0242527
1082.027 .0242517
1082.606 .0242505
1083.185 .0242509
1083.764 .0242532
1084.343 .0242582
1084.923 .0242661
1085.502 .0242778
1086.082 .0242919
1086.662 .0243079
1087.242 .0243256
1087.822 .0243448
1088.402 .0243635
1088.983 .0243827
1089.563 .0244023
1090.144 .0244210
1090.725 .0244409
1091.306 .0244632
1091.887 .0244869
1092.469 .0245116
1093.050 .0245364
1093.632 .0245604
1094.214 .0245838
1094.796 .0246071
1095.379 .0246296
1095.961 .0246529
1096.544 .0246790
1097.127 .0247068
1097.710 .0247354
1098.294 .0247669
1098.877 .0248005
1099.461 .0248355
1100.046 .0248714
1100.630 .0249069
1101.215 .0249421
1101.800 .0249781
1102.385 .0250137
1102.970 .0250504
1103.556 .0250866
1104.142 .0251232
1104.728 .0251572
1105.315 .0251901
1105.902 .0252202
1106.489 .0252489
1107.077 .0252773
1107.664 .0253089
1108.253 .0253438
1108.841 .0253833
1109.430 .0254261
1110.019 .0254740
1110.609 .0255234
1111.198 .0255733
1111.789 .0256220
1112.379 .0256708
1112.970 .0257162
1113.561 .0257630
1114.153 .0258114
1114.745 .0258644
1115.338 .0259225
1115.931 .0259849
1116.524 .0260487
1117.117 .0261117
1117.712 .0261728
1118.306 .0262305
1118.901 .0262832
1119.496 .0263334
1120.092 .0263814
1120.689 .0264323
1121.285 .0264863
1121.882 .0265424
1122.480 .0266036
1123.078 .0266698
1123.677 .0267383
1124.276 .0268066
1124.875 .0268758
1125.476 .0269451
1126.076 .0270170
1126.677 .0270922
1127.279 .0271716
1127.881 .0272540
1128.484 .0273419
1129.087 .0274331
1129.691 .0275276
1130.295 .0276234
1130.900 .0277193
1131.505 .0278182
1132.111 .0279214
1132.718 .0280244
1133.325 .0281277
1133.933 .0282316
1134.541 .0283392
1135.150 .0284449
1135.760 .0285471
1136.370 .0286464
1136.981 .0287456
1137.592 .0288419
1138.204 .0289325
1138.817 .0290198
1139.431 .0291093
1140.045 .0291981
1140.660 .0292802
1141.275 .0293542
1141.891 .0294233
1142.508 .0296004
1143.126 .0296643
1143.744 .0295574
1144.363 .0295403
1144.983 .0296666
