Measurement Sequence started on: 15-12-46-377
Integration time: 28
Scans to Average: 2 
>>>>>Begin Spectral Data<<<<<
432.689 .0000100
433.621 .0000100
434.552 .0000100
435.482 .0000100
436.410 .0000100
437.337 .0000100
438.262 .0271911
439.187 .0576713
440.110 .0955351
441.031 .1382762
441.952 .1798128
442.871 .2125446
443.789 .2304979
444.705 .2316402
445.621 .2184483
446.535 .1963543
447.447 .1712875
448.359 .1329547
449.269 .1138282
450.178 .1017177
451.086 .0931157
451.993 .0865274
452.898 .0813274
453.803 .0771223
454.706 .0736501
455.608 .0707145
456.508 .0682018
457.408 .0660440
458.306 .0641643
459.204 .0625067
460.100 .0610297
460.995 .0597110
461.888 .0585268
462.781 .0574599
463.673 .0564936
464.563 .0556283
465.452 .0548429
466.340 .0541191
467.228 .0534598
468.114 .0528417
468.999 .0522632
469.882 .0517178
470.765 .0512115
471.647 .0507437
472.528 .0503137
473.407 .0499207
474.286 .0495681
475.163 .0492453
476.040 .0489538
476.915 .0486800
477.790 .0484266
478.663 .0481887
479.535 .0479585
480.407 .0477450
481.277 .0475506
482.147 .0473769
483.015 .0472312
483.883 .0471086
484.749 .0470127
485.615 .0469417
486.479 .0468888
487.343 .0468543
488.206 .0468383
489.067 .0468407
489.928 .0468609
490.788 .0469042
491.647 .0469743
492.505 .0470682
493.362 .0471885
494.218 .0473432
495.073 .0475232
495.928 .0477405
496.781 .0479836
497.634 .0482526
498.486 .0485476
499.337 .0488617
500.187 .0491850
501.036 .0495121
501.884 .0498430
502.731 .0501830
503.578 .0505260
504.424 .0508878
505.268 .0512640
506.113 .0516716
506.956 .0521105
507.798 .0525971
508.640 .0531284
509.480 .0537125
510.320 .0543523
511.160 .0550484
511.998 .0558197
512.836 .0566742
513.672 .0576283
514.508 .0586971
515.344 .0599319
516.178 .0613597
517.012 .0630029
517.845 .0649200
518.677 .0671255
519.508 .0696276
520.339 .0724426
521.169 .0756006
521.998 .0790916
522.826 .0829789
523.654 .0873075
524.481 .0921297
525.307 .0975666
526.133 .1035871
526.958 .1102246
527.782 .1174001
528.605 .1249541
529.428 .1327204
530.250 .1401129
531.072 .1468793
531.892 .1525606
532.712 .1569041
533.532 .1597165
534.350 .1608094
535.168 .1601860
535.986 .1578840
536.802 .1540991
537.618 .1490394
538.434 .1429014
539.249 .1360855
540.063 .1287542
540.876 .1212241
541.689 .1137267
542.501 .1065149
543.313 .0997831
544.124 .0936760
544.934 .0881834
545.744 .0832718
546.553 .0789076
547.361 .0750590
548.169 .0717262
548.976 .0687840
549.783 .0661778
550.589 .0638436
551.395 .0617208
552.200 .0598196
553.004 .0580813
553.808 .0565003
554.611 .0550801
555.414 .0538264
556.216 .0527222
557.018 .0517620
557.819 .0509289
558.619 .0501814
559.419 .0494866
560.218 .0488251
561.017 .0481688
561.815 .0475060
562.613 .0468376
563.410 .0461774
564.207 .0455311
565.003 .0449177
565.799 .0443265
566.594 .0437583
567.388 .0432154
568.182 .0426924
568.976 .0421709
569.769 .0416505
570.562 .0411292
571.354 .0406085
572.145 .0400979
572.936 .0396043
573.727 .0391262
574.517 .0386795
575.307 .0382614
576.096 .0378758
576.885 .0375166
577.673 .0371883
578.461 .0368838
579.248 .0365980
580.035 .0363328
580.821 .0360779
581.607 .0358311
582.392 .0355954
583.177 .0353671
583.962 .0351509
584.746 .0349456
585.529 .0347504
586.313 .0345682
587.095 .0344035
587.878 .0342563
588.660 .0341260
589.441 .0340123
590.222 .0339135
591.003 .0338286
591.783 .0337550
592.563 .0336891
593.342 .0336281
594.121 .0335700
594.899 .0335144
595.678 .0334603
596.455 .0334097
597.233 .0333628
598.009 .0333189
598.786 .0332776
599.562 .0332377
600.338 .0331964
601.113 .0331534
601.888 .0331075
602.663 .0330583
603.437 .0330057
604.211 .0329494
604.984 .0328903
605.757 .0328311
606.530 .0327732
607.302 .0327177
608.074 .0326642
608.845 .0326148
609.616 .0325674
610.387 .0325217
611.158 .0324776
611.928 .0324340
612.697 .0323915
613.467 .0323501
614.236 .0323096
615.004 .0322706
615.773 .0322334
616.541 .0321987
617.308 .0321661
618.076 .0321355
618.843 .0321059
619.609 .0320771
620.375 .0320486
621.141 .0320205
621.907 .0319922
622.672 .0319647
623.437 .0319383
624.202 .0319138
624.966 .0318917
625.730 .0318715
626.493 .0318522
627.257 .0318330
628.020 .0318134
628.782 .0317919
629.545 .0317680
630.307 .0317427
631.068 .0317159
631.830 .0316885
632.591 .0316597
633.352 .0316308
634.112 .0316021
634.872 .0315737
635.632 .0315445
636.392 .0315146
637.151 .0314840
637.910 .0314524
638.668 .0314208
639.427 .0313908
640.185 .0313632
640.943 .0313378
641.700 .0313157
642.457 .0312969
643.214 .0312805
643.971 .0312662
644.727 .0312537
645.483 .0312427
646.239 .0312326
646.994 .0312224
647.750 .0312116
648.505 .0312005
649.259 .0311887
650.014 .0311749
650.768 .0311593
651.521 .0311409
652.275 .0311199
653.028 .0310960
653.781 .0310710
654.534 .0310448
655.286 .0310184
656.039 .0309922
656.791 .0309665
657.542 .0309409
658.294 .0309162
659.045 .0308920
659.796 .0308686
660.546 .0308457
661.297 .0308229
662.047 .0308001
662.796 .0307782
663.546 .0307562
664.295 .0307348
665.044 .0307138
665.793 .0306933
666.542 .0306724
667.290 .0306515
668.038 .0306299
668.786 .0306073
669.533 .0305832
670.281 .0305571
671.028 .0305285
671.774 .0304980
672.521 .0304660
673.267 .0304325
674.013 .0303987
674.759 .0303653
675.505 .0303326
676.250 .0303020
676.995 .0302729
677.740 .0302455
678.484 .0302196
679.229 .0301949
679.973 .0301706
680.717 .0301463
681.460 .0301222
682.204 .0300975
682.947 .0300730
683.690 .0300491
684.433 .0300256
685.175 .0300032
685.917 .0299822
686.659 .0299623
687.401 .0299437
688.142 .0299255
688.884 .0299066
689.625 .0298866
690.365 .0298647
691.106 .0298403
691.846 .0298136
692.586 .0297852
693.326 .0297558
694.066 .0297264
694.805 .0296983
695.545 .0296716
696.284 .0296466
697.022 .0296231
697.761 .0296001
698.499 .0295770
699.237 .0295537
699.975 .0295293
700.713 .0295046
701.450 .0294806
702.187 .0294575
702.924 .0294361
703.661 .0294175
704.397 .0294018
705.133 .0293893
705.869 .0293792
706.605 .0293708
707.341 .0293632
708.076 .0293561
708.811 .0293486
709.546 .0293403
710.281 .0293315
711.015 .0293225
711.749 .0293130
712.483 .0293038
713.217 .0292949
713.950 .0292863
714.684 .0292779
715.417 .0292691
716.150 .0292599
716.882 .0292500
717.615 .0292387
718.347 .0292262
719.079 .0292123
719.811 .0291982
720.542 .0291840
721.273 .0291696
722.005 .0291564
722.735 .0291440
723.466 .0291325
724.196 .0291216
724.927 .0291101
725.656 .0290979
726.386 .0290848
727.116 .0290708
727.845 .0290558
728.574 .0290406
729.303 .0290257
730.031 .0290115
730.760 .0289986
731.488 .0289866
732.216 .0289748
732.944 .0289637
733.671 .0289529
734.398 .0289416
735.125 .0289301
735.852 .0289186
736.579 .0289075
737.305 .0288975
738.031 .0288883
738.757 .0288799
739.483 .0288723
740.208 .0288658
740.933 .0288593
741.658 .0288524
742.383 .0288450
743.108 .0288366
743.832 .0288276
744.556 .0288179
745.280 .0288069
746.004 .0287951
746.727 .0287825
747.450 .0287686
748.173 .0287532
748.896 .0287363
749.618 .0287178
750.340 .0286981
751.062 .0286771
751.784 .0286552
752.506 .0286320
753.227 .0286084
753.948 .0285839
754.669 .0285593
755.389 .0285344
756.110 .0285092
756.830 .0284840
757.550 .0284594
758.269 .0284349
758.989 .0284108
759.708 .0283867
760.427 .0283630
761.146 .0283390
761.864 .0283148
762.582 .0282899
763.300 .0282649
764.018 .0282395
764.736 .0282140
765.453 .0281878
766.170 .0281617
766.887 .0281353
767.603 .0281087
768.320 .0280820
769.036 .0280552
769.751 .0280283
770.467 .0280012
771.182 .0279746
771.897 .0279487
772.612 .0279241
773.327 .0279013
774.041 .0278801
774.755 .0278609
775.469 .0278432
776.183 .0278270
776.896 .0278117
777.609 .0277972
778.322 .0277828
779.035 .0277688
779.747 .0277552
780.459 .0277421
781.171 .0277299
781.882 .0277191
782.594 .0277095
783.305 .0277011
784.016 .0276939
784.726 .0276872
785.436 .0276806
786.147 .0276741
786.856 .0276672
787.566 .0276602
788.275 .0276533
788.984 .0276467
789.693 .0276413
790.401 .0276371
791.110 .0276336
791.818 .0276304
792.525 .0276279
793.233 .0276249
793.940 .0276208
794.647 .0276156
795.353 .0276092
796.060 .0276022
796.766 .0275949
797.472 .0275873
798.177 .0275804
798.883 .0275743
799.588 .0275686
800.292 .0275634
800.997 .0275591
801.701 .0275546
802.405 .0275501
803.109 .0275456
803.812 .0275412
804.515 .0275368
805.218 .0275328
805.921 .0275287
806.623 .0275255
807.325 .0275232
808.027 .0275211
808.728 .0275191
809.429 .0275175
810.130 .0275153
810.831 .0275123
811.531 .0275087
812.231 .0275040
812.931 .0274982
813.630 .0274918
814.330 .0274846
815.029 .0274774
815.727 .0274707
816.426 .0274647
817.124 .0274595
817.821 .0274555
818.519 .0274523
819.216 .0274496
819.913 .0274473
820.609 .0274454
821.306 .0274438
822.002 .0274428
822.697 .0274426
823.393 .0274439
824.088 .0274466
824.783 .0274503
825.477 .0274549
826.171 .0274602
826.865 .0274656
827.559 .0274706
828.252 .0274748
828.945 .0274782
829.638 .0274805
830.330 .0274816
831.023 .0274812
831.714 .0274796
832.406 .0274773
833.097 .0274736
833.788 .0274686
834.479 .0274629
835.169 .0274561
835.859 .0274489
836.548 .0274415
837.238 .0274339
837.927 .0274259
838.615 .0274178
839.304 .0274096
839.992 .0274017
840.680 .0273940
841.367 .0273866
842.054 .0273795
842.741 .0273731
843.428 .0273668
844.114 .0273598
844.800 .0273525
845.485 .0273439
846.170 .0273333
846.855 .0273207
847.540 .0273054
848.224 .0272881
848.908 .0272694
849.592 .0272497
850.275 .0272290
850.958 .0272073
851.641 .0271847
852.323 .0271608
853.005 .0271354
853.687 .0271080
854.368 .0270786
855.049 .0270480
855.730 .0270163
856.410 .0269839
857.090 .0269515
857.769 .0269200
858.449 .0268893
859.128 .0268597
859.806 .0268310
860.485 .0268029
861.163 .0267753
861.840 .0267477
862.518 .0267198
863.195 .0266917
863.871 .0266633
864.548 .0266348
865.224 .0266068
865.899 .0265793
866.574 .0265522
867.249 .0265261
867.924 .0265008
868.598 .0264764
869.272 .0264526
869.946 .0264296
870.619 .0264068
871.292 .0263842
871.964 .0263613
872.636 .0263381
873.308 .0263143
873.979 .0262906
874.651 .0262662
875.321 .0262420
875.992 .0262178
876.662 .0261943
877.331 .0261718
878.001 .0261507
878.670 .0261306
879.338 .0261117
880.007 .0260935
880.675 .0260760
881.342 .0260581
882.009 .0260405
882.676 .0260228
883.343 .0260051
884.009 .0259878
884.675 .0259713
885.340 .0259560
886.005 .0259422
886.670 .0259301
887.334 .0259199
887.998 .0259109
888.662 .0259033
889.325 .0258963
889.988 .0258903
890.650 .0258856
891.312 .0258818
891.974 .0258791
892.636 .0258779
893.297 .0258784
893.957 .0258803
894.618 .0258834
895.278 .0258878
895.937 .0258930
896.596 .0258990
897.255 .0259054
897.914 .0259117
898.572 .0259179
899.230 .0259240
899.887 .0259288
900.544 .0259325
901.201 .0259347
901.857 .0259352
902.513 .0259341
903.168 .0259318
903.823 .0259280
904.478 .0259231
905.132 .0259173
905.786 .0259113
906.440 .0259047
907.093 .0258979
907.746 .0258906
908.399 .0258831
909.051 .0258757
909.703 .0258679
910.354 .0258600
911.005 .0258528
911.656 .0258463
912.306 .0258409
912.956 .0258361
913.605 .0258324
914.254 .0258296
914.903 .0258276
915.551 .0258260
916.199 .0258245
916.847 .0258232
917.494 .0258218
918.141 .0258201
918.788 .0258180
919.434 .0258160
920.079 .0258138
920.725 .0258119
921.370 .0258102
922.014 .0258087
922.658 .0258071
923.302 .0258054
923.946 .0258032
924.589 .0258004
925.231 .0257968
925.873 .0257926
926.515 .0257877
927.157 .0257829
927.798 .0257781
928.439 .0257735
929.079 .0257697
929.719 .0257665
930.359 .0257635
930.998 .0257605
931.637 .0257569
932.275 .0257533
932.913 .0257493
933.551 .0257453
934.188 .0257412
934.825 .0257378
935.462 .0257349
936.098 .0257334
936.733 .0257330
937.369 .0257338
938.004 .0257357
938.638 .0257383
939.273 .0257409
939.907 .0257439
940.540 .0257472
941.173 .0257504
941.806 .0257538
942.438 .0257582
943.070 .0257627
943.702 .0257679
944.333 .0257737
944.964 .0257797
945.594 .0257863
946.224 .0257929
946.854 .0257990
947.483 .0258049
948.112 .0258105
948.741 .0258152
949.369 .0258186
949.996 .0258214
950.624 .0258228
951.251 .0258228
951.878 .0258219
952.504 .0258200
953.130 .0258173
953.755 .0258135
954.380 .0258089
955.005 .0258036
955.629 .0257974
956.253 .0257902
956.877 .0257821
957.500 .0257732
958.123 .0257637
958.746 .0257532
959.368 .0257421
959.990 .0257310
960.611 .0257200
961.232 .0257089
961.853 .0256982
962.473 .0256875
963.093 .0256770
963.712 .0256658
964.331 .0256544
964.950 .0256417
965.569 .0256284
966.187 .0256142
966.804 .0255992
967.422 .0255839
968.039 .0255682
968.655 .0255522
969.272 .0255361
969.887 .0255199
970.503 .0255039
971.118 .0254879
971.733 .0254720
972.347 .0254558
972.961 .0254393
973.575 .0254224
974.188 .0254045
974.801 .0253855
975.414 .0253656
976.026 .0253444
976.638 .0253228
977.250 .0253010
977.861 .0252795
978.472 .0252589
979.083 .0252387
979.693 .0252186
980.303 .0251980
980.912 .0251761
981.521 .0251525
982.130 .0251269
982.738 .0251002
983.346 .0250720
983.954 .0250433
984.562 .0250148
985.169 .0249866
985.775 .0249588
986.382 .0249313
986.988 .0249039
987.594 .0248760
988.199 .0248468
988.804 .0248166
989.409 .0247853
990.013 .0247540
990.617 .0247228
991.221 .0246917
991.824 .0246610
992.427 .0246315
993.030 .0246025
993.632 .0245746
994.234 .0245481
994.836 .0245238
995.438 .0245014
996.039 .0244811
996.640 .0244627
997.240 .0244463
997.840 .0244316
998.440 .0244187
999.040 .0244061
999.639 .0243942
1000.238 .0243823
1000.836 .0243704
1001.435 .0243583
1002.033 .0243465
1002.630 .0243349
1003.228 .0243237
1003.825 .0243127
1004.422 .0243015
1005.018 .0242897
1005.614 .0242779
1006.210 .0242657
1006.806 .0242531
1007.401 .0242389
1007.996 .0242235
1008.591 .0242071
1009.186 .0241903
1009.780 .0241735
1010.374 .0241572
1010.967 .0241420
1011.561 .0241286
1012.154 .0241160
1012.746 .0241043
1013.339 .0240938
1013.931 .0240842
1014.523 .0240749
1015.115 .0240649
1015.706 .0240544
1016.298 .0240436
1016.888 .0240324
1017.479 .0240214
1018.069 .0240104
1018.660 .0239998
1019.250 .0239897
1019.839 .0239802
1020.429 .0239714
1021.018 .0239638
1021.607 .0239573
1022.195 .0239520
1022.784 .0239477
1023.372 .0239444
1023.960 .0239417
1024.547 .0239401
1025.135 .0239397
1025.722 .0239401
1026.309 .0239414
1026.896 .0239448
1027.483 .0239498
1028.069 .0239569
1028.655 .0239652
1029.241 .0239744
1029.827 .0239834
1030.412 .0239917
1030.997 .0239990
1031.582 .0240055
1032.167 .0240117
1032.752 .0240180
1033.336 .0240248
1033.921 .0240326
1034.505 .0240417
1035.089 .0240509
1035.672 .0240605
1036.256 .0240703
1036.839 .0240792
1037.422 .0240881
1038.005 .0240977
1038.588 .0241083
1039.171 .0241200
1039.753 .0241329
1040.335 .0241459
1040.918 .0241587
1041.500 .0241702
1042.081 .0241801
1042.663 .0241880
1043.244 .0241943
1043.826 .0241999
1044.407 .0242048
1044.988 .0242107
1045.569 .0242174
1046.150 .0242254
1046.730 .0242346
1047.311 .0242440
1047.891 .0242541
1048.471 .0242647
1049.052 .0242761
1049.632 .0242893
1050.211 .0243044
1050.791 .0243222
1051.371 .0243421
1051.950 .0243644
1052.530 .0243879
1053.109 .0244119
1053.688 .0244348
1054.268 .0244569
1054.847 .0244773
1055.426 .0244967
1056.005 .0245143
1056.583 .0245309
1057.162 .0245468
1057.741 .0245619
1058.319 .0245755
1058.898 .0245884
1059.476 .0246002
1060.055 .0246115
1060.633 .0246210
1061.211 .0246298
1061.790 .0246376
1062.368 .0246452
1062.946 .0246522
1063.524 .0246594
1064.102 .0246663
1064.680 .0246746
1065.258 .0246832
1065.836 .0246927
1066.414 .0247028
1066.992 .0247138
1067.570 .0247247
1068.148 .0247355
1068.726 .0247464
1069.304 .0247576
1069.882 .0247699
1070.460 .0247842
1071.038 .0248000
1071.616 .0248185
1072.194 .0248392
1072.772 .0248629
1073.350 .0248880
1073.928 .0249144
1074.506 .0249413
1075.084 .0249690
1075.662 .0249955
1076.240 .0250212
1076.819 .0250455
1077.397 .0250698
1077.976 .0250929
1078.554 .0251155
1079.133 .0251368
1079.711 .0251562
1080.290 .0251742
1080.869 .0251905
1081.448 .0252039
1082.027 .0252175
1082.606 .0252295
1083.185 .0252422
1083.764 .0252546
1084.343 .0252691
1084.923 .0252837
1085.502 .0252992
1086.082 .0253163
1086.662 .0253360
1087.242 .0253555
1087.822 .0253775
1088.402 .0254004
1088.983 .0254248
1089.563 .0254507
1090.144 .0254777
1090.725 .0255035
1091.306 .0255296
1091.887 .0255546
1092.469 .0255783
1093.050 .0255995
1093.632 .0256230
1094.214 .0256454
1094.796 .0256695
1095.379 .0256956
1095.961 .0257221
1096.544 .0257479
1097.127 .0257748
1097.710 .0258009
1098.294 .0258244
1098.877 .0258469
1099.461 .0258673
1100.046 .0258840
1100.630 .0259014
1101.215 .0259179
1101.800 .0259330
1102.385 .0259484
1102.970 .0259653
1103.556 .0259814
1104.142 .0259990
1104.728 .0260206
1105.315 .0260448
1105.902 .0260728
1106.489 .0261047
1107.077 .0261369
1107.664 .0261695
1108.253 .0262053
1108.841 .0262405
1109.430 .0262775
1110.019 .0263167
1110.609 .0263568
1111.198 .0263978
1111.789 .0264430
1112.379 .0264917
1112.970 .0265408
1113.561 .0265899
1114.153 .0266361
1114.745 .0266769
1115.338 .0267143
1115.931 .0267470
1116.524 .0267762
1117.117 .0268070
1117.712 .0268416
1118.306 .0268784
1118.901 .0269225
1119.496 .0269729
1120.092 .0270276
1120.689 .0270853
1121.285 .0271410
1121.882 .0271917
1122.480 .0272387
1123.078 .0272860
1123.677 .0273330
1124.276 .0273824
1124.875 .0274372
1125.476 .0274945
1126.076 .0275573
1126.677 .0276254
1127.279 .0276928
1127.881 .0277608
1128.484 .0278288
1129.087 .0278934
1129.691 .0279603
1130.295 .0280325
1130.900 .0281114
1131.505 .0282038
1132.111 .0283081
1132.718 .0284184
1133.325 .0285291
1133.933 .0286399
1134.541 .0287461
1135.150 .0288468
1135.760 .0289444
1136.370 .0290362
1136.981 .0291301
1137.592 .0292290
1138.204 .0293317
1138.817 .0294338
1139.431 .0295362
1140.045 .0296364
1140.660 .0297406
1141.275 .0298666
1141.891 .0300003
1142.508 .0299345
1143.126 .0300777
1143.744 .0304493
1144.363 .0311524
1144.983 .0309449
