Measurement Sequence started on: 15-12-46-377
Integration time: 28
Scans to Average: 2 
>>>>>Begin Spectral Data<<<<<
432.689 .0000100
433.621 .0000100
434.552 .0000100
435.482 .0000100
436.410 .0000100
437.337 .0000100
438.262 .0267672
439.187 .0566478
440.110 .0938484
441.031 .1358455
441.952 .1766656
442.871 .2088707
443.789 .2266695
444.705 .2280694
445.621 .2155045
446.535 .1942734
447.447 .1701817
448.359 .1330433
449.269 .1148187
450.178 .1032986
451.086 .0951145
451.993 .0887948
452.898 .0837323
453.803 .0795240
454.706 .0759751
455.608 .0729236
456.508 .0702879
457.408 .0680051
458.306 .0659999
459.204 .0642335
460.100 .0626422
460.995 .0612175
461.888 .0599162
462.781 .0587046
463.673 .0575780
464.563 .0565427
465.452 .0555760
466.340 .0546740
467.228 .0538417
468.114 .0530757
468.999 .0523738
469.882 .0517296
470.765 .0511322
471.647 .0505813
472.528 .0500704
473.407 .0496011
474.286 .0491759
475.163 .0487991
476.040 .0484633
476.915 .0481615
477.790 .0478988
478.663 .0476733
479.535 .0474746
480.407 .0473057
481.277 .0471587
482.147 .0470324
483.015 .0469265
483.883 .0468419
484.749 .0467777
485.615 .0467379
486.479 .0467193
487.343 .0467277
488.206 .0467536
489.067 .0467949
489.928 .0468452
490.788 .0469087
491.647 .0469811
492.505 .0470574
493.362 .0471378
494.218 .0472315
495.073 .0473383
495.928 .0474690
496.781 .0476110
497.634 .0477762
498.486 .0479649
499.337 .0481706
500.187 .0483929
501.036 .0486335
501.884 .0488866
502.731 .0491622
503.578 .0494556
504.424 .0497765
505.268 .0501232
506.113 .0505137
506.956 .0509488
507.798 .0514376
508.640 .0519949
509.480 .0526235
510.320 .0533377
511.160 .0541543
511.998 .0550601
512.836 .0560717
513.672 .0572038
514.508 .0584687
515.344 .0598859
516.178 .0614712
517.012 .0632653
517.845 .0653042
518.677 .0676445
519.508 .0702832
520.339 .0732727
521.169 .0766682
521.998 .0804698
522.826 .0846868
523.654 .0893253
524.481 .0943992
525.307 .0999862
526.133 .1060741
526.958 .1126072
527.782 .1195812
528.605 .1268314
529.428 .1342041
530.250 .1412117
531.072 .1475499
531.892 .1528767
532.712 .1568262
533.532 .1592101
534.350 .1597970
535.168 .1585792
535.986 .1557172
536.802 .1513440
537.618 .1458274
538.434 .1393818
539.249 .1324722
540.063 .1253281
540.876 .1181742
541.689 .1112347
542.501 .1046444
543.313 .0985207
544.124 .0929115
544.934 .0877730
545.744 .0830912
546.553 .0788304
547.361 .0750404
548.169 .0716979
548.976 .0687381
549.783 .0661440
550.589 .0638679
551.395 .0618207
552.200 .0599948
553.004 .0583345
553.808 .0568212
554.611 .0554617
555.414 .0542535
556.216 .0531590
557.018 .0521981
557.819 .0513687
558.619 .0506283
559.419 .0499623
560.218 .0493438
561.017 .0487514
561.815 .0481611
562.613 .0475736
563.410 .0469684
564.207 .0463674
565.003 .0457838
565.799 .0452148
566.594 .0446576
567.388 .0441238
568.182 .0435965
568.976 .0430626
569.769 .0425273
570.562 .0419859
571.354 .0414300
572.145 .0408789
572.936 .0403284
573.727 .0397960
574.517 .0392866
575.307 .0388085
576.096 .0383614
576.885 .0379490
577.673 .0375664
578.461 .0372061
579.248 .0368652
580.035 .0365459
580.821 .0362408
581.607 .0359494
582.392 .0356745
583.177 .0354184
583.962 .0351815
584.746 .0349648
585.529 .0347650
586.313 .0345838
587.095 .0344179
587.878 .0342664
588.660 .0341271
589.441 .0339999
590.222 .0338841
591.003 .0337798
591.783 .0336843
592.563 .0335981
593.342 .0335194
594.121 .0334465
594.899 .0333774
595.678 .0333113
596.455 .0332475
597.233 .0331857
598.009 .0331263
598.786 .0330696
599.562 .0330166
600.338 .0329681
601.113 .0329224
601.888 .0328797
602.663 .0328383
603.437 .0327971
604.211 .0327543
604.984 .0327107
605.757 .0326657
606.530 .0326192
607.302 .0325724
608.074 .0325271
608.845 .0324845
609.616 .0324446
610.387 .0324076
611.158 .0323735
611.928 .0323419
612.697 .0323119
613.467 .0322818
614.236 .0322523
615.004 .0322233
615.773 .0321954
616.541 .0321688
617.308 .0321442
618.076 .0321225
618.843 .0321029
619.609 .0320862
620.375 .0320719
621.141 .0320589
621.907 .0320466
622.672 .0320346
623.437 .0320227
624.202 .0320102
624.966 .0319969
625.730 .0319837
626.493 .0319700
627.257 .0319557
628.020 .0319410
628.782 .0319249
629.545 .0319077
630.307 .0318895
631.068 .0318695
631.830 .0318478
632.591 .0318236
633.352 .0317967
634.112 .0317668
634.872 .0317350
635.632 .0317016
636.392 .0316665
637.151 .0316319
637.910 .0315975
638.668 .0315630
639.427 .0315295
640.185 .0314959
640.943 .0314616
641.700 .0314269
642.457 .0313911
643.214 .0313545
643.971 .0313178
644.727 .0312830
645.483 .0312510
646.239 .0312229
646.994 .0311992
647.750 .0311786
648.505 .0311612
649.259 .0311460
650.014 .0311307
650.768 .0311152
651.521 .0310986
652.275 .0310810
653.028 .0310629
653.781 .0310441
654.534 .0310254
655.286 .0310076
656.039 .0309904
656.791 .0309734
657.542 .0309552
658.294 .0309357
659.045 .0309139
659.796 .0308893
660.546 .0308622
661.297 .0308322
662.047 .0308001
662.796 .0307668
663.546 .0307334
664.295 .0307009
665.044 .0306700
665.793 .0306416
666.542 .0306159
667.290 .0305922
668.038 .0305695
668.786 .0305470
669.533 .0305240
670.281 .0305010
671.028 .0304776
671.774 .0304541
672.521 .0304321
673.267 .0304115
674.013 .0303929
674.759 .0303758
675.505 .0303601
676.250 .0303447
676.995 .0303290
677.740 .0303123
678.484 .0302941
679.229 .0302746
679.973 .0302544
680.717 .0302339
681.460 .0302142
682.204 .0301952
682.947 .0301769
683.690 .0301592
684.433 .0301419
685.175 .0301239
685.917 .0301063
686.659 .0300883
687.401 .0300704
688.142 .0300528
688.884 .0300358
689.625 .0300190
690.365 .0300021
691.106 .0299851
691.846 .0299670
692.586 .0299474
693.326 .0299264
694.066 .0299035
694.805 .0298797
695.545 .0298553
696.284 .0298308
697.022 .0298066
697.761 .0297833
698.499 .0297603
699.237 .0297374
699.975 .0297146
700.713 .0296923
701.450 .0296700
702.187 .0296482
702.924 .0296271
703.661 .0296071
704.397 .0295887
705.133 .0295722
705.869 .0295570
706.605 .0295438
707.341 .0295318
708.076 .0295206
708.811 .0295096
709.546 .0294983
710.281 .0294864
711.015 .0294734
711.749 .0294591
712.483 .0294432
713.217 .0294255
713.950 .0294063
714.684 .0293851
715.417 .0293628
716.150 .0293392
716.882 .0293146
717.615 .0292893
718.347 .0292638
719.079 .0292378
719.811 .0292119
720.542 .0291867
721.273 .0291619
722.005 .0291381
722.735 .0291154
723.466 .0290932
724.196 .0290720
724.927 .0290516
725.656 .0290316
726.386 .0290118
727.116 .0289927
727.845 .0289737
728.574 .0289552
729.303 .0289380
730.031 .0289220
730.760 .0289074
731.488 .0288942
732.216 .0288816
732.944 .0288694
733.671 .0288575
734.398 .0288452
735.125 .0288325
735.852 .0288204
736.579 .0288087
737.305 .0287978
738.031 .0287887
738.757 .0287810
739.483 .0287745
740.208 .0287693
740.933 .0287641
741.658 .0287579
742.383 .0287509
743.108 .0287426
743.832 .0287332
744.556 .0287230
745.280 .0287122
746.004 .0287005
746.727 .0286889
747.450 .0286769
748.173 .0286639
748.896 .0286505
749.618 .0286368
750.340 .0286217
751.062 .0286069
751.784 .0285922
752.506 .0285779
753.227 .0285647
753.948 .0285529
754.669 .0285417
755.389 .0285309
756.110 .0285197
756.830 .0285075
757.550 .0284939
758.269 .0284792
758.989 .0284624
759.708 .0284441
760.427 .0284250
761.146 .0284054
761.864 .0283855
762.582 .0283656
763.300 .0283459
764.018 .0283267
764.736 .0283080
765.453 .0282896
766.170 .0282712
766.887 .0282531
767.603 .0282357
768.320 .0282188
769.036 .0282025
769.751 .0281869
770.467 .0281720
771.182 .0281582
771.897 .0281451
772.612 .0281327
773.327 .0281208
774.041 .0281099
774.755 .0280996
775.469 .0280891
776.183 .0280787
776.896 .0280679
777.609 .0280569
778.322 .0280453
779.035 .0280330
779.747 .0280203
780.459 .0280077
781.171 .0279955
781.882 .0279842
782.594 .0279741
783.305 .0279658
784.016 .0279586
784.726 .0279526
785.436 .0279471
786.147 .0279419
786.856 .0279368
787.566 .0279313
788.275 .0279253
788.984 .0279186
789.693 .0279107
790.401 .0279025
791.110 .0278933
791.818 .0278835
792.525 .0278728
793.233 .0278613
793.940 .0278491
794.647 .0278361
795.353 .0278228
796.060 .0278091
796.766 .0277951
797.472 .0277811
798.177 .0277664
798.883 .0277513
799.588 .0277359
800.292 .0277204
800.997 .0277048
801.701 .0276895
802.405 .0276746
803.109 .0276603
803.812 .0276470
804.515 .0276342
805.218 .0276218
805.921 .0276092
806.623 .0275957
807.325 .0275813
808.027 .0275658
808.728 .0275494
809.429 .0275320
810.130 .0275143
810.831 .0274964
811.531 .0274785
812.231 .0274603
812.931 .0274418
813.630 .0274230
814.330 .0274037
815.029 .0273840
815.727 .0273638
816.426 .0273439
817.124 .0273247
817.821 .0273061
818.519 .0272890
819.216 .0272731
819.913 .0272587
820.609 .0272454
821.306 .0272332
822.002 .0272217
822.697 .0272109
823.393 .0272014
824.088 .0271930
824.783 .0271858
825.477 .0271800
826.171 .0271755
826.865 .0271723
827.559 .0271699
828.252 .0271678
828.945 .0271656
829.638 .0271632
830.330 .0271606
831.023 .0271574
831.714 .0271538
832.406 .0271501
833.097 .0271459
833.788 .0271414
834.479 .0271363
835.169 .0271306
835.859 .0271247
836.548 .0271188
837.238 .0271130
837.927 .0271073
838.615 .0271020
839.304 .0270970
839.992 .0270927
840.680 .0270885
841.367 .0270843
842.054 .0270802
842.741 .0270763
843.428 .0270723
844.114 .0270687
844.800 .0270652
845.485 .0270617
846.170 .0270578
846.855 .0270531
847.540 .0270468
848.224 .0270392
848.908 .0270297
849.592 .0270185
850.275 .0270058
850.958 .0269921
851.641 .0269776
852.323 .0269632
853.005 .0269492
853.687 .0269354
854.368 .0269217
855.049 .0269082
855.730 .0268947
856.410 .0268811
857.090 .0268676
857.769 .0268541
858.449 .0268408
859.128 .0268275
859.806 .0268141
860.485 .0268003
861.163 .0267863
861.840 .0267717
862.518 .0267563
863.195 .0267401
863.871 .0267233
864.548 .0267063
865.224 .0266894
865.899 .0266731
866.574 .0266575
867.249 .0266426
867.924 .0266283
868.598 .0266146
869.272 .0266022
869.946 .0265909
870.619 .0265805
871.292 .0265715
871.964 .0265644
872.636 .0265586
873.308 .0265547
873.979 .0265524
874.651 .0265515
875.321 .0265516
875.992 .0265525
876.662 .0265534
877.331 .0265544
878.001 .0265556
878.670 .0265563
879.338 .0265564
880.007 .0265566
880.675 .0265555
881.342 .0265537
882.009 .0265514
882.676 .0265483
883.343 .0265439
884.009 .0265393
884.675 .0265336
885.340 .0265274
886.005 .0265207
886.670 .0265136
887.334 .0265060
887.998 .0264985
888.662 .0264911
889.325 .0264838
889.988 .0264777
890.650 .0264731
891.312 .0264697
891.974 .0264689
892.636 .0264695
893.297 .0264715
893.957 .0264749
894.618 .0264788
895.278 .0264827
895.937 .0264864
896.596 .0264894
897.255 .0264918
897.914 .0264933
898.572 .0264940
899.230 .0264934
899.887 .0264917
900.544 .0264886
901.201 .0264835
901.857 .0264766
902.513 .0264676
903.168 .0264558
903.823 .0264420
904.478 .0264261
905.132 .0264083
905.786 .0263888
906.440 .0263680
907.093 .0263468
907.746 .0263250
908.399 .0263030
909.051 .0262816
909.703 .0262605
910.354 .0262402
911.005 .0262203
911.656 .0262005
912.306 .0261813
912.956 .0261624
913.605 .0261436
914.254 .0261249
914.903 .0261062
915.551 .0260880
916.199 .0260701
916.847 .0260530
917.494 .0260364
918.141 .0260198
918.788 .0260034
919.434 .0259871
920.079 .0259698
920.725 .0259519
921.370 .0259333
922.014 .0259139
922.658 .0258937
923.302 .0258722
923.946 .0258497
924.589 .0258260
925.231 .0258014
925.873 .0257763
926.515 .0257503
927.157 .0257243
927.798 .0256984
928.439 .0256726
929.079 .0256471
929.719 .0256215
930.359 .0255956
930.998 .0255691
931.637 .0255421
932.275 .0255144
932.913 .0254861
933.551 .0254582
934.188 .0254311
934.825 .0254050
935.462 .0253807
936.098 .0253583
936.733 .0253372
937.369 .0253180
938.004 .0253002
938.638 .0252834
939.273 .0252678
939.907 .0252534
940.540 .0252405
941.173 .0252291
941.806 .0252195
942.438 .0252116
943.070 .0252053
943.702 .0252003
944.333 .0251962
944.964 .0251921
945.594 .0251881
946.224 .0251842
946.854 .0251806
947.483 .0251772
948.112 .0251739
948.741 .0251703
949.369 .0251664
949.996 .0251616
950.624 .0251554
951.251 .0251476
951.878 .0251390
952.504 .0251291
953.130 .0251184
953.755 .0251074
954.380 .0250961
955.005 .0250848
955.629 .0250740
956.253 .0250628
956.877 .0250516
957.500 .0250404
958.123 .0250291
958.746 .0250176
959.368 .0250062
959.990 .0249950
960.611 .0249845
961.232 .0249751
961.853 .0249663
962.473 .0249581
963.093 .0249510
963.712 .0249446
964.331 .0249380
964.950 .0249314
965.569 .0249242
966.187 .0249165
966.804 .0249084
967.422 .0248993
968.039 .0248895
968.655 .0248792
969.272 .0248685
969.887 .0248572
970.503 .0248452
971.118 .0248328
971.733 .0248204
972.347 .0248084
972.961 .0247967
973.575 .0247854
974.188 .0247746
974.801 .0247646
975.414 .0247550
976.026 .0247455
976.638 .0247358
977.250 .0247262
977.861 .0247164
978.472 .0247060
979.083 .0246958
979.693 .0246852
980.303 .0246742
980.912 .0246630
981.521 .0246511
982.130 .0246386
982.738 .0246261
983.346 .0246134
983.954 .0246003
984.562 .0245871
985.169 .0245736
985.775 .0245600
986.382 .0245468
986.988 .0245341
987.594 .0245214
988.199 .0245094
988.804 .0244984
989.409 .0244877
990.013 .0244780
990.617 .0244700
991.221 .0244632
991.824 .0244579
992.427 .0244537
993.030 .0244503
993.632 .0244482
994.234 .0244478
994.836 .0244486
995.438 .0244505
996.039 .0244538
996.640 .0244578
997.240 .0244623
997.840 .0244670
998.440 .0244716
999.040 .0244753
999.639 .0244783
1000.238 .0244805
1000.836 .0244815
1001.435 .0244820
1002.033 .0244824
1002.630 .0244825
1003.228 .0244829
1003.825 .0244829
1004.422 .0244825
1005.018 .0244820
1005.614 .0244812
1006.210 .0244801
1006.806 .0244790
1007.401 .0244781
1007.996 .0244780
1008.591 .0244791
1009.186 .0244821
1009.780 .0244867
1010.374 .0244931
1010.967 .0245016
1011.561 .0245109
1012.154 .0245207
1012.746 .0245306
1013.339 .0245398
1013.931 .0245487
1014.523 .0245567
1015.115 .0245644
1015.706 .0245722
1016.298 .0245804
1016.888 .0245894
1017.479 .0245993
1018.069 .0246099
1018.660 .0246211
1019.250 .0246322
1019.839 .0246435
1020.429 .0246543
1021.018 .0246649
1021.607 .0246757
1022.195 .0246871
1022.784 .0246990
1023.372 .0247116
1023.960 .0247245
1024.547 .0247383
1025.135 .0247515
1025.722 .0247645
1026.309 .0247768
1026.896 .0247890
1027.483 .0248010
1028.069 .0248127
1028.655 .0248244
1029.241 .0248364
1029.827 .0248484
1030.412 .0248605
1030.997 .0248719
1031.582 .0248829
1032.167 .0248931
1032.752 .0249036
1033.336 .0249140
1033.921 .0249251
1034.505 .0249370
1035.089 .0249497
1035.672 .0249628
1036.256 .0249756
1036.839 .0249876
1037.422 .0249987
1038.005 .0250090
1038.588 .0250184
1039.171 .0250266
1039.753 .0250347
1040.335 .0250423
1040.918 .0250494
1041.500 .0250563
1042.081 .0250632
1042.663 .0250691
1043.244 .0250744
1043.826 .0250789
1044.407 .0250823
1044.988 .0250855
1045.569 .0250890
1046.150 .0250920
1046.730 .0250948
1047.311 .0250976
1047.891 .0251004
1048.471 .0251029
1049.052 .0251067
1049.632 .0251111
1050.211 .0251173
1050.791 .0251247
1051.371 .0251326
1051.950 .0251408
1052.530 .0251495
1053.109 .0251583
1053.688 .0251658
1054.268 .0251729
1054.847 .0251798
1055.426 .0251858
1056.005 .0251928
1056.583 .0252004
1057.162 .0252082
1057.741 .0252160
1058.319 .0252244
1058.898 .0252324
1059.476 .0252404
1060.055 .0252488
1060.633 .0252579
1061.211 .0252679
1061.790 .0252785
1062.368 .0252888
1062.946 .0252983
1063.524 .0253086
1064.102 .0253173
1064.680 .0253242
1065.258 .0253301
1065.836 .0253343
1066.414 .0253366
1066.992 .0253390
1067.570 .0253419
1068.148 .0253442
1068.726 .0253461
1069.304 .0253475
1069.882 .0253473
1070.460 .0253461
1071.038 .0253425
1071.616 .0253371
1072.194 .0253311
1072.772 .0253237
1073.350 .0253154
1073.928 .0253091
1074.506 .0253052
1075.084 .0253028
1075.662 .0253022
1076.240 .0253029
1076.819 .0253029
1077.397 .0253018
1077.976 .0252985
1078.554 .0252911
1079.133 .0252820
1079.711 .0252691
1080.290 .0252541
1080.869 .0252392
1081.448 .0252248
1082.027 .0252105
1082.606 .0251988
1083.185 .0251892
1083.764 .0251803
1084.343 .0251723
1084.923 .0251660
1085.502 .0251609
1086.082 .0251580
1086.662 .0251584
1087.242 .0251616
1087.822 .0251687
1088.402 .0251797
1088.983 .0251919
1089.563 .0252061
1090.144 .0252204
1090.725 .0252343
1091.306 .0252466
1091.887 .0252587
1092.469 .0252699
1093.050 .0252807
1093.632 .0252915
1094.214 .0253018
1094.796 .0253108
1095.379 .0253176
1095.961 .0253235
1096.544 .0253264
1097.127 .0253264
1097.710 .0253249
1098.294 .0253214
1098.877 .0253188
1099.461 .0253169
1100.046 .0253183
1100.630 .0253228
1101.215 .0253325
1101.800 .0253474
1102.385 .0253665
1102.970 .0253907
1103.556 .0254181
1104.142 .0254467
1104.728 .0254768
1105.315 .0255057
1105.902 .0255315
1106.489 .0255541
1107.077 .0255741
1107.664 .0255921
1108.253 .0256111
1108.841 .0256281
1109.430 .0256465
1110.019 .0256665
1110.609 .0256874
1111.198 .0257096
1111.789 .0257339
1112.379 .0257594
1112.970 .0257832
1113.561 .0258050
1114.153 .0258256
1114.745 .0258433
1115.338 .0258650
1115.931 .0258876
1116.524 .0259141
1117.117 .0259507
1117.712 .0259944
1118.306 .0260476
1118.901 .0261122
1119.496 .0261846
1120.092 .0262595
1120.689 .0263326
1121.285 .0263993
1121.882 .0264543
1122.480 .0265027
1123.078 .0265453
1123.677 .0265847
1124.276 .0266275
1124.875 .0266779
1125.476 .0267347
1126.076 .0268066
1126.677 .0268886
1127.279 .0269726
1127.881 .0270593
1128.484 .0271417
1129.087 .0272140
1129.691 .0272778
1130.295 .0273365
1130.900 .0273988
1131.505 .0274665
1132.111 .0275449
1132.718 .0276262
1133.325 .0277158
1133.933 .0278086
1134.541 .0278943
1135.150 .0279750
1135.760 .0280513
1136.370 .0281181
1136.981 .0281870
1137.592 .0282591
1138.204 .0283391
1138.817 .0284341
1139.431 .0285378
1140.045 .0286481
1140.660 .0287732
1141.275 .0289459
1141.891 .0291227
1142.508 .0290507
1143.126 .0292138
1143.744 .0296027
1144.363 .0308256
1144.983 .0302204
