Measurement Sequence started on: 15-12-46-377
Integration time: 28
Scans to Average: 2 
>>>>>Begin Spectral Data<<<<<
432.689 .0000100
433.621 .0000100
434.552 .0000100
435.482 .0000100
436.410 .0000100
437.337 .0000100
438.262 .0271728
439.187 .0575889
440.110 .0953077
441.031 .1377980
441.952 .1788934
442.871 .2110379
443.789 .2283654
444.705 .2288749
445.621 .2151229
446.535 .1926167
447.447 .1673062
448.359 .1289053
449.269 .1098529
450.178 .0979054
451.086 .0894819
451.993 .0830773
452.898 .0780044
453.803 .0738263
454.706 .0703558
455.608 .0674079
456.508 .0648682
457.408 .0627002
458.306 .0608024
459.204 .0591138
460.100 .0576035
460.995 .0562659
461.888 .0550790
462.781 .0540023
463.673 .0530293
464.563 .0521509
465.452 .0513229
466.340 .0505375
467.228 .0497919
468.114 .0490898
468.999 .0484331
469.882 .0478247
470.765 .0472753
471.647 .0467856
472.528 .0463524
473.407 .0459785
474.286 .0456577
475.163 .0453831
476.040 .0451367
476.915 .0449106
477.790 .0447025
478.663 .0445148
479.535 .0443418
480.407 .0441957
481.277 .0440805
482.147 .0439955
483.015 .0439290
483.883 .0438806
484.749 .0438380
485.615 .0437957
486.479 .0437512
487.343 .0437113
488.206 .0436704
489.067 .0436342
489.928 .0436111
490.788 .0436075
491.647 .0436276
492.505 .0436757
493.362 .0437546
494.218 .0438602
495.073 .0439873
495.928 .0441360
496.781 .0442983
497.634 .0444859
498.486 .0446977
499.337 .0449355
500.187 .0451961
501.036 .0454831
501.884 .0458020
502.731 .0461530
503.578 .0465342
504.424 .0469434
505.268 .0473702
506.113 .0478091
506.956 .0482561
507.798 .0487152
508.640 .0492030
509.480 .0497399
510.320 .0503318
511.160 .0510027
511.998 .0517577
512.836 .0526108
513.672 .0535744
514.508 .0546556
515.344 .0558509
516.178 .0571581
517.012 .0586051
517.845 .0602263
518.677 .0620316
519.508 .0640548
520.339 .0663486
521.169 .0689825
521.998 .0719365
522.826 .0752596
523.654 .0789236
524.481 .0829774
525.307 .0873946
526.133 .0921373
526.958 .0972140
527.782 .1025900
528.605 .1081626
529.428 .1138859
530.250 .1194030
531.072 .1245642
531.892 .1290315
532.712 .1326250
533.532 .1351645
534.350 .1364628
535.168 .1363761
535.986 .1349308
536.802 .1321915
537.618 .1283608
538.434 .1235234
539.249 .1181044
540.063 .1122966
540.876 .1063602
541.689 .1004842
542.501 .0948650
543.313 .0896696
544.124 .0849803
544.934 .0807092
545.744 .0768592
546.553 .0733517
547.361 .0702131
548.169 .0673935
548.976 .0648697
549.783 .0626321
550.589 .0606402
551.395 .0588279
552.200 .0572088
553.004 .0557614
553.808 .0544579
554.611 .0533042
555.414 .0522786
556.216 .0513490
557.018 .0504989
557.819 .0496960
558.619 .0489219
559.419 .0481735
560.218 .0474503
561.017 .0467585
561.815 .0460855
562.613 .0454554
563.410 .0448456
564.207 .0442644
565.003 .0437081
565.799 .0431580
566.594 .0426002
567.388 .0420431
568.182 .0414733
568.976 .0408963
569.769 .0403201
570.562 .0397539
571.354 .0391978
572.145 .0386570
572.936 .0381298
573.727 .0376148
574.517 .0371111
575.307 .0366313
576.096 .0361662
576.885 .0357296
577.673 .0353215
578.461 .0349455
579.248 .0346024
580.035 .0342933
580.821 .0340171
581.607 .0337655
582.392 .0335355
583.177 .0333248
583.962 .0331300
584.746 .0329558
585.529 .0327990
586.313 .0326589
587.095 .0325356
587.878 .0324266
588.660 .0323281
589.441 .0322396
590.222 .0321598
591.003 .0320873
591.783 .0320186
592.563 .0319535
593.342 .0318909
594.121 .0318290
594.899 .0317712
595.678 .0317149
596.455 .0316599
597.233 .0316069
598.009 .0315532
598.786 .0315004
599.562 .0314477
600.338 .0313962
601.113 .0313445
601.888 .0312932
602.663 .0312420
603.437 .0311898
604.211 .0311379
604.984 .0310865
605.757 .0310365
606.530 .0309878
607.302 .0309396
608.074 .0308933
608.845 .0308486
609.616 .0308065
610.387 .0307665
611.158 .0307295
611.928 .0306950
612.697 .0306636
613.467 .0306342
614.236 .0306063
615.004 .0305808
615.773 .0305566
616.541 .0305334
617.308 .0305111
618.076 .0304898
618.843 .0304691
619.609 .0304495
620.375 .0304320
621.141 .0304151
621.907 .0303999
622.672 .0303859
623.437 .0303720
624.202 .0303588
624.966 .0303457
625.730 .0303322
626.493 .0303186
627.257 .0303057
628.020 .0302918
628.782 .0302781
629.545 .0302650
630.307 .0302521
631.068 .0302397
631.830 .0302277
632.591 .0302154
633.352 .0302032
634.112 .0301920
634.872 .0301810
635.632 .0301700
636.392 .0301606
637.151 .0301515
637.910 .0301425
638.668 .0301331
639.427 .0301225
640.185 .0301108
640.943 .0300984
641.700 .0300848
642.457 .0300703
643.214 .0300554
643.971 .0300406
644.727 .0300254
645.483 .0300103
646.239 .0299950
646.994 .0299779
647.750 .0299593
648.505 .0299391
649.259 .0299170
650.014 .0298937
650.768 .0298696
651.521 .0298461
652.275 .0298227
653.028 .0297996
653.781 .0297762
654.534 .0297526
655.286 .0297281
656.039 .0297020
656.791 .0296738
657.542 .0296444
658.294 .0296142
659.045 .0295841
659.796 .0295542
660.546 .0295256
661.297 .0294980
662.047 .0294710
662.796 .0294438
663.546 .0294158
664.295 .0293862
665.044 .0293553
665.793 .0293231
666.542 .0292904
667.290 .0292575
668.038 .0292250
668.786 .0291938
669.533 .0291643
670.281 .0291360
671.028 .0291084
671.774 .0290816
672.521 .0290557
673.267 .0290305
674.013 .0290062
674.759 .0289828
675.505 .0289607
676.250 .0289404
676.995 .0289217
677.740 .0289050
678.484 .0288901
679.229 .0288775
679.973 .0288662
680.717 .0288559
681.460 .0288460
682.204 .0288364
682.947 .0288268
683.690 .0288178
684.433 .0288081
685.175 .0287982
685.917 .0287876
686.659 .0287771
687.401 .0287664
688.142 .0287561
688.884 .0287462
689.625 .0287369
690.365 .0287281
691.106 .0287199
691.846 .0287115
692.586 .0287039
693.326 .0286966
694.066 .0286900
694.805 .0286839
695.545 .0286783
696.284 .0286730
697.022 .0286684
697.761 .0286641
698.499 .0286600
699.237 .0286556
699.975 .0286511
700.713 .0286460
701.450 .0286407
702.187 .0286354
702.924 .0286299
703.661 .0286247
704.397 .0286197
705.133 .0286149
705.869 .0286102
706.605 .0286051
707.341 .0285999
708.076 .0285943
708.811 .0285881
709.546 .0285812
710.281 .0285733
711.015 .0285647
711.749 .0285552
712.483 .0285445
713.217 .0285323
713.950 .0285188
714.684 .0285038
715.417 .0284869
716.150 .0284687
716.882 .0284492
717.615 .0284284
718.347 .0284068
719.079 .0283848
719.811 .0283623
720.542 .0283394
721.273 .0283162
722.005 .0282923
722.735 .0282681
723.466 .0282437
724.196 .0282185
724.927 .0281929
725.656 .0281668
726.386 .0281399
727.116 .0281124
727.845 .0280850
728.574 .0280572
729.303 .0280296
730.031 .0280028
730.760 .0279768
731.488 .0279518
732.216 .0279281
732.944 .0279060
733.671 .0278854
734.398 .0278658
735.125 .0278465
735.852 .0278271
736.579 .0278083
737.305 .0277895
738.031 .0277710
738.757 .0277531
739.483 .0277358
740.208 .0277194
740.933 .0277035
741.658 .0276881
742.383 .0276723
743.108 .0276556
743.832 .0276376
744.556 .0276179
745.280 .0275962
746.004 .0275728
746.727 .0275487
747.450 .0275251
748.173 .0275022
748.896 .0274803
749.618 .0274601
750.340 .0274416
751.062 .0274245
751.784 .0274082
752.506 .0273918
753.227 .0273757
753.948 .0273592
754.669 .0273424
755.389 .0273259
756.110 .0273099
756.830 .0272947
757.550 .0272805
758.269 .0272675
758.989 .0272552
759.708 .0272430
760.427 .0272315
761.146 .0272198
761.864 .0272081
762.582 .0271963
763.300 .0271849
764.018 .0271735
764.736 .0271634
765.453 .0271543
766.170 .0271465
766.887 .0271405
767.603 .0271361
768.320 .0271329
769.036 .0271311
769.751 .0271305
770.467 .0271307
771.182 .0271316
771.897 .0271336
772.612 .0271358
773.327 .0271390
774.041 .0271435
774.755 .0271486
775.469 .0271546
776.183 .0271617
776.896 .0271688
777.609 .0271759
778.322 .0271830
779.035 .0271898
779.747 .0271961
780.459 .0272022
781.171 .0272075
781.882 .0272126
782.594 .0272178
783.305 .0272232
784.016 .0272285
784.726 .0272343
785.436 .0272398
786.147 .0272446
786.856 .0272492
787.566 .0272534
788.275 .0272566
788.984 .0272597
789.693 .0272622
790.401 .0272641
791.110 .0272656
791.818 .0272665
792.525 .0272669
793.233 .0272669
793.940 .0272661
794.647 .0272642
795.353 .0272612
796.060 .0272573
796.766 .0272521
797.472 .0272458
798.177 .0272383
798.883 .0272294
799.588 .0272192
800.292 .0272084
800.997 .0271967
801.701 .0271844
802.405 .0271715
803.109 .0271581
803.812 .0271437
804.515 .0271281
805.218 .0271107
805.921 .0270914
806.623 .0270701
807.325 .0270471
808.027 .0270224
808.728 .0269966
809.429 .0269699
810.130 .0269429
810.831 .0269154
811.531 .0268877
812.231 .0268593
812.931 .0268302
813.630 .0268002
814.330 .0267691
815.029 .0267371
815.727 .0267047
816.426 .0266722
817.124 .0266402
817.821 .0266088
818.519 .0265783
819.216 .0265490
819.913 .0265206
820.609 .0264934
821.306 .0264671
822.002 .0264417
822.697 .0264172
823.393 .0263938
824.088 .0263712
824.783 .0263496
825.477 .0263286
826.171 .0263086
826.865 .0262890
827.559 .0262697
828.252 .0262508
828.945 .0262322
829.638 .0262142
830.330 .0261968
831.023 .0261801
831.714 .0261641
832.406 .0261480
833.097 .0261321
833.788 .0261158
834.479 .0260989
835.169 .0260815
835.859 .0260641
836.548 .0260466
837.238 .0260295
837.927 .0260129
838.615 .0259970
839.304 .0259825
839.992 .0259692
840.680 .0259570
841.367 .0259455
842.054 .0259350
842.741 .0259251
843.428 .0259158
844.114 .0259077
844.800 .0259003
845.485 .0258934
846.170 .0258868
846.855 .0258800
847.540 .0258730
848.224 .0258657
848.908 .0258582
849.592 .0258505
850.275 .0258427
850.958 .0258348
851.641 .0258268
852.323 .0258189
853.005 .0258113
853.687 .0258036
854.368 .0257954
855.049 .0257869
855.730 .0257777
856.410 .0257684
857.090 .0257595
857.769 .0257514
858.449 .0257447
859.128 .0257395
859.806 .0257356
860.485 .0257332
861.163 .0257319
861.840 .0257314
862.518 .0257309
863.195 .0257309
863.871 .0257309
864.548 .0257311
865.224 .0257316
865.899 .0257329
866.574 .0257349
867.249 .0257378
867.924 .0257418
868.598 .0257467
869.272 .0257524
869.946 .0257593
870.619 .0257666
871.292 .0257747
871.964 .0257833
872.636 .0257927
873.308 .0258026
873.979 .0258134
874.651 .0258248
875.321 .0258366
875.992 .0258490
876.662 .0258619
877.331 .0258750
878.001 .0258886
878.670 .0259022
879.338 .0259151
880.007 .0259279
880.675 .0259405
881.342 .0259525
882.009 .0259640
882.676 .0259756
883.343 .0259868
884.009 .0259973
884.675 .0260073
885.340 .0260172
886.005 .0260265
886.670 .0260358
887.334 .0260447
887.998 .0260534
888.662 .0260617
889.325 .0260696
889.988 .0260769
890.650 .0260843
891.312 .0260908
891.974 .0260963
892.636 .0261004
893.297 .0261037
893.957 .0261055
894.618 .0261057
895.278 .0261047
895.937 .0261025
896.596 .0260990
897.255 .0260945
897.914 .0260890
898.572 .0260829
899.230 .0260766
899.887 .0260702
900.544 .0260635
901.201 .0260569
901.857 .0260498
902.513 .0260423
903.168 .0260339
903.823 .0260243
904.478 .0260132
905.132 .0260007
905.786 .0259867
906.440 .0259716
907.093 .0259556
907.746 .0259383
908.399 .0259202
909.051 .0259013
909.703 .0258810
910.354 .0258593
911.005 .0258357
911.656 .0258101
912.306 .0257824
912.956 .0257529
913.605 .0257215
914.254 .0256892
914.903 .0256567
915.551 .0256240
916.199 .0255919
916.847 .0255608
917.494 .0255304
918.141 .0255007
918.788 .0254715
919.434 .0254421
920.079 .0254119
920.725 .0253811
921.370 .0253492
922.014 .0253164
922.658 .0252829
923.302 .0252485
923.946 .0252137
924.589 .0251790
925.231 .0251441
925.873 .0251090
926.515 .0250739
927.157 .0250383
927.798 .0250023
928.439 .0249656
929.079 .0249278
929.719 .0248888
930.359 .0248490
930.998 .0248084
931.637 .0247674
932.275 .0247272
932.913 .0246878
933.551 .0246499
934.188 .0246142
934.825 .0245803
935.462 .0245485
936.098 .0245185
936.733 .0244901
937.369 .0244627
938.004 .0244362
938.638 .0244101
939.273 .0243845
939.907 .0243604
940.540 .0243376
941.173 .0243162
941.806 .0242969
942.438 .0242793
943.070 .0242626
943.702 .0242470
944.333 .0242319
944.964 .0242161
945.594 .0241996
946.224 .0241819
946.854 .0241630
947.483 .0241435
948.112 .0241235
948.741 .0241034
949.369 .0240840
949.996 .0240658
950.624 .0240483
951.251 .0240323
951.878 .0240174
952.504 .0240033
953.130 .0239896
953.755 .0239760
954.380 .0239621
955.005 .0239478
955.629 .0239333
956.253 .0239186
956.877 .0239044
957.500 .0238907
958.123 .0238778
958.746 .0238661
959.368 .0238556
959.990 .0238466
960.611 .0238384
961.232 .0238306
961.853 .0238231
962.473 .0238156
963.093 .0238078
963.712 .0238006
964.331 .0237943
964.950 .0237892
965.569 .0237860
966.187 .0237849
966.804 .0237861
967.422 .0237893
968.039 .0237946
968.655 .0238007
969.272 .0238075
969.887 .0238141
970.503 .0238199
971.118 .0238253
971.733 .0238308
972.347 .0238361
972.961 .0238419
973.575 .0238486
974.188 .0238563
974.801 .0238642
975.414 .0238725
976.026 .0238806
976.638 .0238882
977.250 .0238949
977.861 .0239009
978.472 .0239058
979.083 .0239102
979.693 .0239138
980.303 .0239169
980.912 .0239199
981.521 .0239220
982.130 .0239236
982.738 .0239249
983.346 .0239260
983.954 .0239270
984.562 .0239280
985.169 .0239296
985.775 .0239316
986.382 .0239338
986.988 .0239362
987.594 .0239393
988.199 .0239435
988.804 .0239489
989.409 .0239563
990.013 .0239659
990.617 .0239784
991.221 .0239932
991.824 .0240105
992.427 .0240299
993.030 .0240511
993.632 .0240733
994.234 .0240961
994.836 .0241188
995.438 .0241412
996.039 .0241633
996.640 .0241852
997.240 .0242073
997.840 .0242300
998.440 .0242524
999.040 .0242751
999.639 .0242972
1000.238 .0243184
1000.836 .0243381
1001.435 .0243567
1002.033 .0243741
1002.630 .0243902
1003.228 .0244058
1003.825 .0244212
1004.422 .0244364
1005.018 .0244528
1005.614 .0244693
1006.210 .0244867
1006.806 .0245047
1007.401 .0245226
1007.996 .0245398
1008.591 .0245565
1009.186 .0245728
1009.780 .0245882
1010.374 .0246029
1010.967 .0246170
1011.561 .0246306
1012.154 .0246438
1012.746 .0246565
1013.339 .0246690
1013.931 .0246812
1014.523 .0246938
1015.115 .0247058
1015.706 .0247183
1016.298 .0247311
1016.888 .0247446
1017.479 .0247593
1018.069 .0247745
1018.660 .0247903
1019.250 .0248062
1019.839 .0248218
1020.429 .0248370
1021.018 .0248514
1021.607 .0248651
1022.195 .0248785
1022.784 .0248918
1023.372 .0249050
1023.960 .0249185
1024.547 .0249324
1025.135 .0249464
1025.722 .0249600
1026.309 .0249726
1026.896 .0249840
1027.483 .0249935
1028.069 .0250023
1028.655 .0250098
1029.241 .0250165
1029.827 .0250234
1030.412 .0250301
1030.997 .0250370
1031.582 .0250438
1032.167 .0250503
1032.752 .0250568
1033.336 .0250627
1033.921 .0250683
1034.505 .0250736
1035.089 .0250794
1035.672 .0250853
1036.256 .0250904
1036.839 .0250943
1037.422 .0250972
1038.005 .0250982
1038.588 .0250972
1039.171 .0250945
1039.753 .0250903
1040.335 .0250849
1040.918 .0250788
1041.500 .0250714
1042.081 .0250625
1042.663 .0250516
1043.244 .0250388
1043.826 .0250220
1044.407 .0250013
1044.988 .0249770
1045.569 .0249496
1046.150 .0249208
1046.730 .0248916
1047.311 .0248622
1047.891 .0248355
1048.471 .0248122
1049.052 .0247919
1049.632 .0247748
1050.211 .0247619
1050.791 .0247517
1051.371 .0247433
1051.950 .0247367
1052.530 .0247312
1053.109 .0247254
1053.688 .0247209
1054.268 .0247163
1054.847 .0247113
1055.426 .0247071
1056.005 .0247025
1056.583 .0246976
1057.162 .0246926
1057.741 .0246854
1058.319 .0246752
1058.898 .0246623
1059.476 .0246457
1060.055 .0246254
1060.633 .0246026
1061.211 .0245790
1061.790 .0245554
1062.368 .0245339
1062.946 .0245159
1063.524 .0245011
1064.102 .0244891
1064.680 .0244786
1065.258 .0244667
1065.836 .0244536
1066.414 .0244374
1066.992 .0244183
1067.570 .0243973
1068.148 .0243752
1068.726 .0243528
1069.304 .0243323
1069.882 .0243130
1070.460 .0242943
1071.038 .0242756
1071.616 .0242567
1072.194 .0242354
1072.772 .0242109
1073.350 .0241845
1073.928 .0241563
1074.506 .0241284
1075.084 .0241017
1075.662 .0240771
1076.240 .0240562
1076.819 .0240388
1077.397 .0240241
1077.976 .0240119
1078.554 .0240020
1079.133 .0239923
1079.711 .0239813
1080.290 .0239710
1080.869 .0239591
1081.448 .0239455
1082.027 .0239308
1082.606 .0239161
1083.185 .0239006
1083.764 .0238862
1084.343 .0238716
1084.923 .0238592
1085.502 .0238486
1086.082 .0238405
1086.662 .0238336
1087.242 .0238284
1087.822 .0238243
1088.402 .0238199
1088.983 .0238152
1089.563 .0238103
1090.144 .0238044
1090.725 .0237985
1091.306 .0237908
1091.887 .0237840
1092.469 .0237775
1093.050 .0237727
1093.632 .0237694
1094.214 .0237690
1094.796 .0237713
1095.379 .0237770
1095.961 .0237859
1096.544 .0237961
1097.127 .0238087
1097.710 .0238222
1098.294 .0238349
1098.877 .0238467
1099.461 .0238599
1100.046 .0238732
1100.630 .0238889
1101.215 .0239088
1101.800 .0239307
1102.385 .0239541
1102.970 .0239784
1103.556 .0240004
1104.142 .0240190
1104.728 .0240342
1105.315 .0240458
1105.902 .0240509
1106.489 .0240558
1107.077 .0240588
1107.664 .0240620
1108.253 .0240703
1108.841 .0240822
1109.430 .0240971
1110.019 .0241165
1110.609 .0241378
1111.198 .0241601
1111.789 .0241823
1112.379 .0242075
1112.970 .0242328
1113.561 .0242596
1114.153 .0242890
1114.745 .0243219
1115.338 .0243580
1115.931 .0244015
1116.524 .0244477
1117.117 .0245001
1117.712 .0245563
1118.306 .0246166
1118.901 .0246814
1119.496 .0247479
1120.092 .0248159
1120.689 .0248847
1121.285 .0249528
1121.882 .0250234
1122.480 .0250921
1123.078 .0251613
1123.677 .0252317
1124.276 .0253041
1124.875 .0253771
1125.476 .0254483
1126.076 .0255187
1126.677 .0255895
1127.279 .0256566
1127.881 .0257226
1128.484 .0257845
1129.087 .0258437
1129.691 .0259046
1130.295 .0259644
1130.900 .0260261
1131.505 .0260906
1132.111 .0261621
1132.718 .0262415
1133.325 .0263288
1133.933 .0264236
1134.541 .0265225
1135.150 .0266239
1135.760 .0267258
1136.370 .0268245
1136.981 .0269198
1137.592 .0270090
1138.204 .0270982
1138.817 .0271861
1139.431 .0272757
1140.045 .0273592
1140.660 .0274389
1141.275 .0275151
1141.891 .0275928
1142.508 .0277858
1143.126 .0276776
1143.744 .0276487
1144.363 .0278081
1144.983 .0280730
