Measurement Sequence started on: 15-12-46-377
Integration time: 28
Scans to Average: 2 
>>>>>Begin Spectral Data<<<<<
432.689 .0000100
433.621 .0000100
434.552 .0000100
435.482 .0000100
436.410 .0000100
437.337 .0000100
438.262 .0284241
439.187 .0600543
440.110 .0993452
441.031 .1435707
441.952 .1863834
442.871 .2199399
443.789 .2381119
444.705 .2388552
445.621 .2248122
446.535 .2016824
447.447 .1756504
448.359 .1358884
449.269 .1163831
450.178 .1040837
451.086 .0953982
451.993 .0887382
452.898 .0834070
453.803 .0790180
454.706 .0753702
455.608 .0722802
456.508 .0696441
457.408 .0673928
458.306 .0654420
459.204 .0637416
460.100 .0622270
460.995 .0608804
461.888 .0596431
462.781 .0584864
463.673 .0573942
464.563 .0563581
465.452 .0553731
466.340 .0544361
467.228 .0535652
468.114 .0527633
468.999 .0520320
469.882 .0513653
470.765 .0507592
471.647 .0502181
472.528 .0497352
473.407 .0492985
474.286 .0489124
475.163 .0485765
476.040 .0482800
476.915 .0480262
477.790 .0478224
478.663 .0476608
479.535 .0475441
480.407 .0474663
481.277 .0474169
482.147 .0473910
483.015 .0473819
483.883 .0473793
484.749 .0473779
485.615 .0473853
486.479 .0473940
487.343 .0474110
488.206 .0474342
489.067 .0474608
489.928 .0474866
490.788 .0475142
491.647 .0475374
492.505 .0475614
493.362 .0475919
494.218 .0476333
495.073 .0476858
495.928 .0477703
496.781 .0478808
497.634 .0480306
498.486 .0482140
499.337 .0484370
500.187 .0486848
501.036 .0489584
501.884 .0492539
502.731 .0495844
503.578 .0499529
504.424 .0503683
505.268 .0508356
506.113 .0513748
506.956 .0519746
507.798 .0526412
508.640 .0533736
509.480 .0541740
510.320 .0550299
511.160 .0559473
511.998 .0569265
512.836 .0579963
513.672 .0591626
514.508 .0604400
515.344 .0618377
516.178 .0633879
517.012 .0651073
517.845 .0670130
518.677 .0691611
519.508 .0715531
520.339 .0742149
521.169 .0771909
521.998 .0805109
522.826 .0842304
523.654 .0884255
524.481 .0931577
525.307 .0984934
526.133 .1044136
526.958 .1108894
527.782 .1178648
528.605 .1251146
529.428 .1325355
530.250 .1395887
531.072 .1459730
531.892 .1513500
532.712 .1553983
533.532 .1579253
534.350 .1587454
535.168 .1578223
535.986 .1552264
536.802 .1510463
537.618 .1456200
538.434 .1391205
539.249 .1320492
540.063 .1246782
540.876 .1172892
541.689 .1101260
542.501 .1034298
543.313 .0973077
544.124 .0918223
544.934 .0869298
545.744 .0825765
546.553 .0786905
547.361 .0752406
548.169 .0721902
548.976 .0694626
549.783 .0670551
550.589 .0649480
551.395 .0630402
552.200 .0613428
553.004 .0598016
553.808 .0583774
554.611 .0570789
555.414 .0558825
556.216 .0547719
557.018 .0537710
557.819 .0528517
558.619 .0519878
559.419 .0511828
560.218 .0504241
561.017 .0496955
561.815 .0489852
562.613 .0482871
563.410 .0475861
564.207 .0468842
565.003 .0461953
565.799 .0455184
566.594 .0448533
567.388 .0442082
568.182 .0435690
568.976 .0429448
569.769 .0423392
570.562 .0417452
571.354 .0411705
572.145 .0406327
572.936 .0401222
573.727 .0396379
574.517 .0391748
575.307 .0387351
576.096 .0383189
576.885 .0379208
577.673 .0375436
578.461 .0371898
579.248 .0368611
580.035 .0365620
580.821 .0362849
581.607 .0360317
582.392 .0357973
583.177 .0355806
583.962 .0353774
584.746 .0351868
585.529 .0350053
586.313 .0348357
587.095 .0346772
587.878 .0345310
588.660 .0343963
589.441 .0342727
590.222 .0341617
591.003 .0340617
591.783 .0339705
592.563 .0338864
593.342 .0338079
594.121 .0337348
594.899 .0336669
595.678 .0336010
596.455 .0335378
597.233 .0334767
598.009 .0334169
598.786 .0333586
599.562 .0333023
600.338 .0332476
601.113 .0331962
601.888 .0331475
602.663 .0331017
603.437 .0330573
604.211 .0330137
604.984 .0329708
605.757 .0329284
606.530 .0328860
607.302 .0328433
608.074 .0328007
608.845 .0327590
609.616 .0327184
610.387 .0326800
611.158 .0326436
611.928 .0326100
612.697 .0325791
613.467 .0325499
614.236 .0325208
615.004 .0324929
615.773 .0324655
616.541 .0324389
617.308 .0324134
618.076 .0323888
618.843 .0323649
619.609 .0323427
620.375 .0323223
621.141 .0323045
621.907 .0322892
622.672 .0322756
623.437 .0322625
624.202 .0322504
624.966 .0322378
625.730 .0322240
626.493 .0322084
627.257 .0321918
628.020 .0321727
628.782 .0321514
629.545 .0321269
630.307 .0321001
631.068 .0320713
631.830 .0320401
632.591 .0320055
633.352 .0319680
634.112 .0319270
634.872 .0318835
635.632 .0318380
636.392 .0317915
637.151 .0317440
637.910 .0316973
638.668 .0316510
639.427 .0316063
640.185 .0315629
640.943 .0315221
641.700 .0314836
642.457 .0314486
643.214 .0314162
643.971 .0313865
644.727 .0313598
645.483 .0313360
646.239 .0313144
646.994 .0312948
647.750 .0312757
648.505 .0312570
649.259 .0312381
650.014 .0312190
650.768 .0311990
651.521 .0311788
652.275 .0311584
653.028 .0311387
653.781 .0311191
654.534 .0310995
655.286 .0310801
656.039 .0310603
656.791 .0310410
657.542 .0310205
658.294 .0309999
659.045 .0309791
659.796 .0309577
660.546 .0309361
661.297 .0309142
662.047 .0308917
662.796 .0308684
663.546 .0308443
664.295 .0308193
665.044 .0307932
665.793 .0307667
666.542 .0307393
667.290 .0307118
668.038 .0306839
668.786 .0306566
669.533 .0306284
670.281 .0306009
671.028 .0305737
671.774 .0305475
672.521 .0305229
673.267 .0305003
674.013 .0304804
674.759 .0304631
675.505 .0304480
676.250 .0304346
676.995 .0304221
677.740 .0304101
678.484 .0303976
679.229 .0303848
679.973 .0303712
680.717 .0303572
681.460 .0303421
682.204 .0303267
682.947 .0303105
683.690 .0302935
684.433 .0302752
685.175 .0302554
685.917 .0302340
686.659 .0302114
687.401 .0301881
688.142 .0301642
688.884 .0301400
689.625 .0301158
690.365 .0300916
691.106 .0300674
691.846 .0300425
692.586 .0300169
693.326 .0299910
694.066 .0299651
694.805 .0299390
695.545 .0299140
696.284 .0298903
697.022 .0298684
697.761 .0298484
698.499 .0298299
699.237 .0298126
699.975 .0297962
700.713 .0297805
701.450 .0297646
702.187 .0297485
702.924 .0297323
703.661 .0297159
704.397 .0297001
705.133 .0296851
705.869 .0296703
706.605 .0296561
707.341 .0296428
708.076 .0296295
708.811 .0296156
709.546 .0296007
710.281 .0295843
711.015 .0295662
711.749 .0295461
712.483 .0295239
713.217 .0294999
713.950 .0294755
714.684 .0294508
715.417 .0294256
716.150 .0294009
716.882 .0293763
717.615 .0293520
718.347 .0293284
719.079 .0293051
719.811 .0292826
720.542 .0292610
721.273 .0292401
722.005 .0292198
722.735 .0292003
723.466 .0291817
724.196 .0291634
724.927 .0291454
725.656 .0291274
726.386 .0291090
727.116 .0290906
727.845 .0290726
728.574 .0290547
729.303 .0290372
730.031 .0290202
730.760 .0290036
731.488 .0289873
732.216 .0289709
732.944 .0289542
733.671 .0289379
734.398 .0289216
735.125 .0289056
735.852 .0288900
736.579 .0288749
737.305 .0288610
738.031 .0288487
738.757 .0288376
739.483 .0288278
740.208 .0288192
740.933 .0288108
741.658 .0288024
742.383 .0287935
743.108 .0287836
743.832 .0287730
744.556 .0287620
745.280 .0287504
746.004 .0287381
746.727 .0287262
747.450 .0287147
748.173 .0287035
748.896 .0286927
749.618 .0286813
750.340 .0286691
751.062 .0286558
751.784 .0286412
752.506 .0286255
753.227 .0286094
753.948 .0285934
754.669 .0285777
755.389 .0285627
756.110 .0285484
756.830 .0285349
757.550 .0285217
758.269 .0285091
758.989 .0284963
759.708 .0284828
760.427 .0284689
761.146 .0284548
761.864 .0284407
762.582 .0284269
763.300 .0284137
764.018 .0284014
764.736 .0283896
765.453 .0283781
766.170 .0283667
766.887 .0283557
767.603 .0283451
768.320 .0283343
769.036 .0283230
769.751 .0283121
770.467 .0283010
771.182 .0282896
771.897 .0282784
772.612 .0282673
773.327 .0282561
774.041 .0282450
774.755 .0282338
775.469 .0282230
776.183 .0282128
776.896 .0282037
777.609 .0281958
778.322 .0281892
779.035 .0281840
779.747 .0281793
780.459 .0281755
781.171 .0281722
781.882 .0281683
782.594 .0281645
783.305 .0281606
784.016 .0281570
784.726 .0281538
785.436 .0281507
786.147 .0281484
786.856 .0281468
787.566 .0281456
788.275 .0281443
788.984 .0281424
789.693 .0281398
790.401 .0281358
791.110 .0281304
791.818 .0281237
792.525 .0281156
793.233 .0281072
793.940 .0280981
794.647 .0280884
795.353 .0280787
796.060 .0280689
796.766 .0280587
797.472 .0280480
798.177 .0280367
798.883 .0280245
799.588 .0280113
800.292 .0279976
800.997 .0279834
801.701 .0279688
802.405 .0279544
803.109 .0279398
803.812 .0279254
804.515 .0279110
805.218 .0278959
805.921 .0278805
806.623 .0278643
807.325 .0278476
808.027 .0278301
808.728 .0278119
809.429 .0277934
810.130 .0277745
810.831 .0277555
811.531 .0277364
812.231 .0277169
812.931 .0276970
813.630 .0276761
814.330 .0276548
815.029 .0276326
815.727 .0276100
816.426 .0275872
817.124 .0275645
817.821 .0275419
818.519 .0275203
819.216 .0274992
819.913 .0274789
820.609 .0274600
821.306 .0274424
822.002 .0274262
822.697 .0274118
823.393 .0273987
824.088 .0273872
824.783 .0273767
825.477 .0273674
826.171 .0273582
826.865 .0273501
827.559 .0273427
828.252 .0273359
828.945 .0273300
829.638 .0273248
830.330 .0273201
831.023 .0273155
831.714 .0273102
832.406 .0273042
833.097 .0272968
833.788 .0272881
834.479 .0272780
835.169 .0272672
835.859 .0272563
836.548 .0272460
837.238 .0272369
837.927 .0272289
838.615 .0272217
839.304 .0272151
839.992 .0272086
840.680 .0272017
841.367 .0271943
842.054 .0271866
842.741 .0271791
843.428 .0271724
844.114 .0271663
844.800 .0271613
845.485 .0271572
846.170 .0271538
846.855 .0271501
847.540 .0271452
848.224 .0271390
848.908 .0271314
849.592 .0271223
850.275 .0271121
850.958 .0271010
851.641 .0270896
852.323 .0270780
853.005 .0270662
853.687 .0270540
854.368 .0270410
855.049 .0270272
855.730 .0270123
856.410 .0269959
857.090 .0269781
857.769 .0269590
858.449 .0269390
859.128 .0269188
859.806 .0268989
860.485 .0268791
861.163 .0268601
861.840 .0268422
862.518 .0268249
863.195 .0268080
863.871 .0267910
864.548 .0267741
865.224 .0267572
865.899 .0267404
866.574 .0267240
867.249 .0267082
867.924 .0266939
868.598 .0266813
869.272 .0266703
869.946 .0266610
870.619 .0266533
871.292 .0266469
871.964 .0266410
872.636 .0266356
873.308 .0266299
873.979 .0266246
874.651 .0266197
875.321 .0266152
875.992 .0266118
876.662 .0266094
877.331 .0266080
878.001 .0266073
878.670 .0266074
879.338 .0266080
880.007 .0266086
880.675 .0266094
881.342 .0266097
882.009 .0266095
882.676 .0266088
883.343 .0266075
884.009 .0266060
884.675 .0266044
885.340 .0266022
886.005 .0265999
886.670 .0265975
887.334 .0265951
887.998 .0265926
888.662 .0265903
889.325 .0265888
889.988 .0265878
890.650 .0265876
891.312 .0265880
891.974 .0265891
892.636 .0265915
893.297 .0265946
893.957 .0265979
894.618 .0266017
895.278 .0266060
895.937 .0266105
896.596 .0266154
897.255 .0266208
897.914 .0266269
898.572 .0266337
899.230 .0266406
899.887 .0266472
900.544 .0266531
901.201 .0266582
901.857 .0266615
902.513 .0266633
903.168 .0266633
903.823 .0266613
904.478 .0266582
905.132 .0266535
905.786 .0266478
906.440 .0266411
907.093 .0266335
907.746 .0266251
908.399 .0266154
909.051 .0266049
909.703 .0265928
910.354 .0265796
911.005 .0265654
911.656 .0265500
912.306 .0265340
912.956 .0265172
913.605 .0264997
914.254 .0264821
914.903 .0264642
915.551 .0264460
916.199 .0264285
916.847 .0264115
917.494 .0263948
918.141 .0263789
918.788 .0263632
919.434 .0263481
920.079 .0263330
920.725 .0263182
921.370 .0263034
922.014 .0262888
922.658 .0262742
923.302 .0262589
923.946 .0262433
924.589 .0262274
925.231 .0262104
925.873 .0261932
926.515 .0261754
927.157 .0261566
927.798 .0261366
928.439 .0261156
929.079 .0260933
929.719 .0260699
930.359 .0260452
930.998 .0260191
931.637 .0259920
932.275 .0259647
932.913 .0259372
933.551 .0259103
934.188 .0258851
934.825 .0258613
935.462 .0258392
936.098 .0258180
936.733 .0257974
937.369 .0257776
938.004 .0257584
938.638 .0257398
939.273 .0257218
939.907 .0257050
940.540 .0256899
941.173 .0256766
941.806 .0256652
942.438 .0256554
943.070 .0256468
943.702 .0256388
944.333 .0256304
944.964 .0256214
945.594 .0256119
946.224 .0256021
946.854 .0255928
947.483 .0255845
948.112 .0255770
948.741 .0255704
949.369 .0255645
949.996 .0255587
950.624 .0255523
951.251 .0255450
951.878 .0255367
952.504 .0255276
953.130 .0255180
953.755 .0255081
954.380 .0254983
955.005 .0254891
955.629 .0254801
956.253 .0254708
956.877 .0254610
957.500 .0254504
958.123 .0254386
958.746 .0254257
959.368 .0254119
959.990 .0253975
960.611 .0253831
961.232 .0253689
961.853 .0253548
962.473 .0253414
963.093 .0253281
963.712 .0253144
964.331 .0253001
964.950 .0252853
965.569 .0252696
966.187 .0252533
966.804 .0252372
967.422 .0252216
968.039 .0252074
968.655 .0251943
969.272 .0251820
969.887 .0251704
970.503 .0251593
971.118 .0251479
971.733 .0251358
972.347 .0251231
972.961 .0251094
973.575 .0250951
974.188 .0250804
974.801 .0250651
975.414 .0250498
976.026 .0250346
976.638 .0250193
977.250 .0250037
977.861 .0249882
978.472 .0249721
979.083 .0249558
979.693 .0249388
980.303 .0249211
980.912 .0249026
981.521 .0248831
982.130 .0248636
982.738 .0248439
983.346 .0248242
983.954 .0248047
984.562 .0247854
985.169 .0247665
985.775 .0247469
986.382 .0247269
986.988 .0247064
987.594 .0246863
988.199 .0246662
988.804 .0246465
989.409 .0246276
990.013 .0246105
990.617 .0245944
991.221 .0245792
991.824 .0245652
992.427 .0245518
993.030 .0245394
993.632 .0245278
994.234 .0245169
994.836 .0245079
995.438 .0245005
996.039 .0244950
996.640 .0244913
997.240 .0244893
997.840 .0244881
998.440 .0244875
999.040 .0244873
999.639 .0244870
1000.238 .0244865
1000.836 .0244857
1001.435 .0244845
1002.033 .0244833
1002.630 .0244823
1003.228 .0244809
1003.825 .0244797
1004.422 .0244793
1005.018 .0244788
1005.614 .0244787
1006.210 .0244789
1006.806 .0244798
1007.401 .0244813
1007.996 .0244832
1008.591 .0244850
1009.186 .0244867
1009.780 .0244885
1010.374 .0244892
1010.967 .0244896
1011.561 .0244901
1012.154 .0244905
1012.746 .0244908
1013.339 .0244914
1013.931 .0244927
1014.523 .0244944
1015.115 .0244969
1015.706 .0244996
1016.298 .0245024
1016.888 .0245054
1017.479 .0245076
1018.069 .0245086
1018.660 .0245087
1019.250 .0245080
1019.839 .0245066
1020.429 .0245055
1021.018 .0245050
1021.607 .0245059
1022.195 .0245092
1022.784 .0245151
1023.372 .0245229
1023.960 .0245326
1024.547 .0245435
1025.135 .0245545
1025.722 .0245654
1026.309 .0245757
1026.896 .0245857
1027.483 .0245961
1028.069 .0246075
1028.655 .0246205
1029.241 .0246354
1029.827 .0246522
1030.412 .0246712
1030.997 .0246923
1031.582 .0247143
1032.167 .0247366
1032.752 .0247591
1033.336 .0247814
1033.921 .0248035
1034.505 .0248251
1035.089 .0248468
1035.672 .0248676
1036.256 .0248887
1036.839 .0249088
1037.422 .0249284
1038.005 .0249482
1038.588 .0249669
1039.171 .0249850
1039.753 .0250025
1040.335 .0250187
1040.918 .0250337
1041.500 .0250468
1042.081 .0250581
1042.663 .0250668
1043.244 .0250736
1043.826 .0250787
1044.407 .0250826
1044.988 .0250862
1045.569 .0250899
1046.150 .0250929
1046.730 .0250958
1047.311 .0250980
1047.891 .0250997
1048.471 .0251017
1049.052 .0251036
1049.632 .0251049
1050.211 .0251072
1050.791 .0251107
1051.371 .0251167
1051.950 .0251248
1052.530 .0251356
1053.109 .0251485
1053.688 .0251616
1054.268 .0251744
1054.847 .0251859
1055.426 .0251957
1056.005 .0252049
1056.583 .0252126
1057.162 .0252199
1057.741 .0252259
1058.319 .0252319
1058.898 .0252378
1059.476 .0252432
1060.055 .0252477
1060.633 .0252515
1061.211 .0252525
1061.790 .0252525
1062.368 .0252516
1062.946 .0252509
1063.524 .0252516
1064.102 .0252545
1064.680 .0252604
1065.258 .0252699
1065.836 .0252822
1066.414 .0252969
1066.992 .0253126
1067.570 .0253301
1068.148 .0253461
1068.726 .0253605
1069.304 .0253744
1069.882 .0253874
1070.460 .0253994
1071.038 .0254114
1071.616 .0254234
1072.194 .0254358
1072.772 .0254477
1073.350 .0254589
1073.928 .0254684
1074.506 .0254762
1075.084 .0254811
1075.662 .0254832
1076.240 .0254838
1076.819 .0254832
1077.397 .0254805
1077.976 .0254788
1078.554 .0254776
1079.133 .0254780
1079.711 .0254787
1080.290 .0254803
1080.869 .0254815
1081.448 .0254818
1082.027 .0254811
1082.606 .0254792
1083.185 .0254774
1083.764 .0254783
1084.343 .0254812
1084.923 .0254880
1085.502 .0254985
1086.082 .0255126
1086.662 .0255293
1087.242 .0255495
1087.822 .0255709
1088.402 .0255937
1088.983 .0256167
1089.563 .0256414
1090.144 .0256660
1090.725 .0256922
1091.306 .0257188
1091.887 .0257450
1092.469 .0257699
1093.050 .0257923
1093.632 .0258120
1094.214 .0258303
1094.796 .0258476
1095.379 .0258642
1095.961 .0258805
1096.544 .0258995
1097.127 .0259192
1097.710 .0259401
1098.294 .0259611
1098.877 .0259836
1099.461 .0260061
1100.046 .0260294
1100.630 .0260537
1101.215 .0260807
1101.800 .0261109
1102.385 .0261430
1102.970 .0261761
1103.556 .0262082
1104.142 .0262375
1104.728 .0262609
1105.315 .0262797
1105.902 .0262936
1106.489 .0263011
1107.077 .0263070
1107.664 .0263144
1108.253 .0263237
1108.841 .0263342
1109.430 .0263476
1110.019 .0263632
1110.609 .0263793
1111.198 .0263938
1111.789 .0264058
1112.379 .0264196
1112.970 .0264368
1113.561 .0264574
1114.153 .0264818
1114.745 .0265167
1115.338 .0265585
1115.931 .0266048
1116.524 .0266547
1117.117 .0267067
1117.712 .0267569
1118.306 .0268064
1118.901 .0268563
1119.496 .0269049
1120.092 .0269555
1120.689 .0270091
1121.285 .0270648
1121.882 .0271228
1122.480 .0271822
1123.078 .0272442
1123.677 .0273058
1124.276 .0273715
1124.875 .0274357
1125.476 .0275025
1126.076 .0275776
1126.677 .0276569
1127.279 .0277398
1127.881 .0278275
1128.484 .0279167
1129.087 .0280067
1129.691 .0280981
1130.295 .0281909
1130.900 .0282840
1131.505 .0283800
1132.111 .0284766
1132.718 .0285751
1133.325 .0286731
1133.933 .0287692
1134.541 .0288600
1135.150 .0289510
1135.760 .0290396
1136.370 .0291267
1136.981 .0292215
1137.592 .0293222
1138.204 .0294340
1138.817 .0295478
1139.431 .0296640
1140.045 .0297945
1140.660 .0299294
1141.275 .0300831
1141.891 .0302549
1142.508 .0302031
1143.126 .0306658
1143.744 .0307227
1144.363 .0312497
1144.983 .0315065
