Measurement Sequence started on: 15-12-46-377
Integration time: 28
Scans to Average: 2 
>>>>>Begin Spectral Data<<<<<
432.689 .0000100
433.621 .0000100
434.552 .0000100
435.482 .0000100
436.410 .0000100
437.337 .0000100
438.262 .0259864
439.187 .0549920
440.110 .0910866
441.031 .1317973
441.952 .1713380
442.871 .2024866
443.789 .2196007
444.705 .2207284
445.621 .2082694
446.535 .1873920
447.447 .1637574
448.359 .1274938
449.269 .1096923
450.178 .0985048
451.086 .0906973
451.993 .0848059
452.898 .0802126
453.803 .0764959
454.706 .0734532
455.608 .0708465
456.508 .0685903
457.408 .0666041
458.306 .0648307
459.204 .0632181
460.100 .0617479
460.995 .0604040
461.888 .0591669
462.781 .0580199
463.673 .0569632
464.563 .0559811
465.452 .0550604
466.340 .0541836
467.228 .0533640
468.114 .0525882
468.999 .0518594
469.882 .0511770
470.765 .0505428
471.647 .0499671
472.528 .0494528
473.407 .0490081
474.286 .0486282
475.163 .0483175
476.040 .0480513
476.915 .0478189
477.790 .0476127
478.663 .0474262
479.535 .0472516
480.407 .0470957
481.277 .0469588
482.147 .0468439
483.015 .0467473
483.883 .0466721
484.749 .0466145
485.615 .0465759
486.479 .0465454
487.343 .0465314
488.206 .0465281
489.067 .0465388
489.928 .0465557
490.788 .0465938
491.647 .0466490
492.505 .0467211
493.362 .0468058
494.218 .0469016
495.073 .0470118
495.928 .0471446
496.781 .0472885
497.634 .0474692
498.486 .0476907
499.337 .0479542
500.187 .0482557
501.036 .0485948
501.884 .0489635
502.731 .0493503
503.578 .0497488
504.424 .0501644
505.268 .0505797
506.113 .0510196
506.956 .0514782
507.798 .0519765
508.640 .0525295
509.480 .0531355
510.320 .0538093
511.160 .0545660
511.998 .0553984
512.836 .0563043
513.672 .0572915
514.508 .0583830
515.344 .0595907
516.178 .0609331
517.012 .0624367
517.845 .0641596
518.677 .0661375
519.508 .0684020
520.339 .0709909
521.169 .0739866
521.998 .0773931
522.826 .0812497
523.654 .0856185
524.481 .0904943
525.307 .0959767
526.133 .1020321
526.958 .1086492
527.782 .1157328
528.605 .1230175
529.428 .1303553
530.250 .1372128
531.072 .1433150
531.892 .1482762
532.712 .1518356
533.532 .1539006
534.350 .1543095
535.168 .1530555
535.986 .1502547
536.802 .1461039
537.618 .1408679
538.434 .1346669
539.249 .1278881
540.063 .1207624
540.876 .1136059
541.689 .1066402
542.501 .1000971
543.313 .0941342
544.124 .0888450
544.934 .0841675
545.744 .0800300
546.553 .0763621
547.361 .0731180
548.169 .0702583
548.976 .0676603
549.783 .0652921
550.589 .0631373
551.395 .0611499
552.200 .0593627
553.004 .0577601
553.808 .0562971
554.611 .0549898
555.414 .0538333
556.216 .0527869
557.018 .0518448
557.819 .0509962
558.619 .0502063
559.419 .0494720
560.218 .0487747
561.017 .0481084
561.815 .0474636
562.613 .0468607
563.410 .0462871
564.207 .0457358
565.003 .0452121
565.799 .0447022
566.594 .0441897
567.388 .0436886
568.182 .0431770
568.976 .0426562
569.769 .0421282
570.562 .0415996
571.354 .0410729
572.145 .0405643
572.936 .0400733
573.727 .0396050
574.517 .0391575
575.307 .0387324
576.096 .0383155
576.885 .0379140
577.673 .0375299
578.461 .0371625
579.248 .0368115
580.035 .0364817
580.821 .0361711
581.607 .0358828
582.392 .0356144
583.177 .0353653
583.962 .0351323
584.746 .0349178
585.529 .0347187
586.313 .0345338
587.095 .0343610
587.878 .0342030
588.660 .0340566
589.441 .0339257
590.222 .0338062
591.003 .0337000
591.783 .0336043
592.563 .0335182
593.342 .0334402
594.121 .0333664
594.899 .0332970
595.678 .0332320
596.455 .0331687
597.233 .0331090
598.009 .0330520
598.786 .0329975
599.562 .0329448
600.338 .0328950
601.113 .0328466
601.888 .0327992
602.663 .0327523
603.437 .0327052
604.211 .0326569
604.984 .0326083
605.757 .0325607
606.530 .0325133
607.302 .0324678
608.074 .0324243
608.845 .0323820
609.616 .0323421
610.387 .0323036
611.158 .0322660
611.928 .0322292
612.697 .0321938
613.467 .0321585
614.236 .0321239
615.004 .0320919
615.773 .0320620
616.541 .0320343
617.308 .0320099
618.076 .0319875
618.843 .0319659
619.609 .0319459
620.375 .0319268
621.141 .0319076
621.907 .0318894
622.672 .0318716
623.437 .0318540
624.202 .0318375
624.966 .0318220
625.730 .0318064
626.493 .0317911
627.257 .0317756
628.020 .0317578
628.782 .0317382
629.545 .0317168
630.307 .0316924
631.068 .0316661
631.830 .0316383
632.591 .0316093
633.352 .0315792
634.112 .0315488
634.872 .0315174
635.632 .0314852
636.392 .0314520
637.151 .0314179
637.910 .0313822
638.668 .0313466
639.427 .0313115
640.185 .0312773
640.943 .0312444
641.700 .0312142
642.457 .0311863
643.214 .0311608
643.971 .0311364
644.727 .0311133
645.483 .0310908
646.239 .0310693
646.994 .0310486
647.750 .0310292
648.505 .0310113
649.259 .0309952
650.014 .0309802
650.768 .0309666
651.521 .0309533
652.275 .0309397
653.028 .0309255
653.781 .0309106
654.534 .0308937
655.286 .0308754
656.039 .0308564
656.791 .0308377
657.542 .0308189
658.294 .0308003
659.045 .0307818
659.796 .0307635
660.546 .0307443
661.297 .0307238
662.047 .0307015
662.796 .0306780
663.546 .0306533
664.295 .0306275
665.044 .0306010
665.793 .0305753
666.542 .0305503
667.290 .0305268
668.038 .0305046
668.786 .0304834
669.533 .0304621
670.281 .0304406
671.028 .0304186
671.774 .0303953
672.521 .0303715
673.267 .0303480
674.013 .0303247
674.759 .0303027
675.505 .0302819
676.250 .0302622
676.995 .0302439
677.740 .0302270
678.484 .0302096
679.229 .0301919
679.973 .0301736
680.717 .0301540
681.460 .0301337
682.204 .0301129
682.947 .0300919
683.690 .0300708
684.433 .0300504
685.175 .0300301
685.917 .0300101
686.659 .0299914
687.401 .0299731
688.142 .0299550
688.884 .0299373
689.625 .0299193
690.365 .0299009
691.106 .0298820
691.846 .0298621
692.586 .0298411
693.326 .0298193
694.066 .0297964
694.805 .0297734
695.545 .0297499
696.284 .0297268
697.022 .0297040
697.761 .0296813
698.499 .0296586
699.237 .0296358
699.975 .0296128
700.713 .0295899
701.450 .0295669
702.187 .0295441
702.924 .0295217
703.661 .0295008
704.397 .0294810
705.133 .0294625
705.869 .0294453
706.605 .0294289
707.341 .0294130
708.076 .0293979
708.811 .0293822
709.546 .0293668
710.281 .0293518
711.015 .0293369
711.749 .0293214
712.483 .0293062
713.217 .0292905
713.950 .0292741
714.684 .0292565
715.417 .0292370
716.150 .0292154
716.882 .0291924
717.615 .0291678
718.347 .0291423
719.079 .0291170
719.811 .0290927
720.542 .0290693
721.273 .0290481
722.005 .0290281
722.735 .0290090
723.466 .0289907
724.196 .0289727
724.927 .0289542
725.656 .0289356
726.386 .0289174
727.116 .0289000
727.845 .0288846
728.574 .0288707
729.303 .0288587
730.031 .0288490
730.760 .0288410
731.488 .0288338
732.216 .0288270
732.944 .0288205
733.671 .0288139
734.398 .0288070
735.125 .0288002
735.852 .0287936
736.579 .0287876
737.305 .0287820
738.031 .0287773
738.757 .0287732
739.483 .0287691
740.208 .0287653
740.933 .0287619
741.658 .0287581
742.383 .0287543
743.108 .0287503
743.832 .0287458
744.556 .0287409
745.280 .0287350
746.004 .0287281
746.727 .0287203
747.450 .0287118
748.173 .0287020
748.896 .0286918
749.618 .0286816
750.340 .0286710
751.062 .0286607
751.784 .0286507
752.506 .0286405
753.227 .0286305
753.948 .0286205
754.669 .0286103
755.389 .0286002
756.110 .0285903
756.830 .0285805
757.550 .0285717
758.269 .0285631
758.989 .0285542
759.708 .0285448
760.427 .0285347
761.146 .0285227
761.864 .0285089
762.582 .0284941
763.300 .0284780
764.018 .0284614
764.736 .0284449
765.453 .0284287
766.170 .0284133
766.887 .0283982
767.603 .0283831
768.320 .0283676
769.036 .0283508
769.751 .0283327
770.467 .0283135
771.182 .0282944
771.897 .0282755
772.612 .0282576
773.327 .0282415
774.041 .0282273
774.755 .0282142
775.469 .0282020
776.183 .0281899
776.896 .0281779
777.609 .0281648
778.322 .0281505
779.035 .0281354
779.747 .0281199
780.459 .0281042
781.171 .0280891
781.882 .0280749
782.594 .0280617
783.305 .0280492
784.016 .0280375
784.726 .0280265
785.436 .0280162
786.147 .0280060
786.856 .0279961
787.566 .0279860
788.275 .0279756
788.984 .0279644
789.693 .0279527
790.401 .0279405
791.110 .0279282
791.818 .0279153
792.525 .0279028
793.233 .0278903
793.940 .0278780
794.647 .0278650
795.353 .0278514
796.060 .0278368
796.766 .0278207
797.472 .0278028
798.177 .0277836
798.883 .0277633
799.588 .0277430
800.292 .0277227
800.997 .0277031
801.701 .0276840
802.405 .0276656
803.109 .0276470
803.812 .0276286
804.515 .0276095
805.218 .0275900
805.921 .0275698
806.623 .0275495
807.325 .0275290
808.027 .0275089
808.728 .0274892
809.429 .0274695
810.130 .0274501
810.831 .0274307
811.531 .0274106
812.231 .0273905
812.931 .0273700
813.630 .0273493
814.330 .0273288
815.029 .0273091
815.727 .0272900
816.426 .0272720
817.124 .0272554
817.821 .0272394
818.519 .0272245
819.216 .0272105
819.913 .0271975
820.609 .0271855
821.306 .0271751
822.002 .0271659
822.697 .0271582
823.393 .0271517
824.088 .0271464
824.783 .0271416
825.477 .0271371
826.171 .0271324
826.865 .0271278
827.559 .0271227
828.252 .0271177
828.945 .0271123
829.638 .0271071
830.330 .0271018
831.023 .0270963
831.714 .0270902
832.406 .0270838
833.097 .0270772
833.788 .0270700
834.479 .0270626
835.169 .0270554
835.859 .0270484
836.548 .0270423
837.238 .0270370
837.927 .0270321
838.615 .0270276
839.304 .0270238
839.992 .0270202
840.680 .0270170
841.367 .0270146
842.054 .0270132
842.741 .0270130
843.428 .0270142
844.114 .0270162
844.800 .0270187
845.485 .0270216
846.170 .0270243
846.855 .0270263
847.540 .0270273
848.224 .0270275
848.908 .0270274
849.592 .0270267
850.275 .0270259
850.958 .0270243
851.641 .0270220
852.323 .0270184
853.005 .0270125
853.687 .0270045
854.368 .0269943
855.049 .0269826
855.730 .0269697
856.410 .0269562
857.090 .0269427
857.769 .0269295
858.449 .0269170
859.128 .0269054
859.806 .0268944
860.485 .0268840
861.163 .0268740
861.840 .0268639
862.518 .0268539
863.195 .0268439
863.871 .0268337
864.548 .0268240
865.224 .0268143
865.899 .0268051
866.574 .0267962
867.249 .0267885
867.924 .0267821
868.598 .0267769
869.272 .0267734
869.946 .0267711
870.619 .0267696
871.292 .0267688
871.964 .0267679
872.636 .0267672
873.308 .0267663
873.979 .0267655
874.651 .0267649
875.321 .0267649
875.992 .0267658
876.662 .0267679
877.331 .0267710
878.001 .0267749
878.670 .0267784
879.338 .0267810
880.007 .0267825
880.675 .0267822
881.342 .0267799
882.009 .0267761
882.676 .0267710
883.343 .0267653
884.009 .0267593
884.675 .0267537
885.340 .0267494
886.005 .0267461
886.670 .0267443
887.334 .0267434
887.998 .0267434
888.662 .0267438
889.325 .0267440
889.988 .0267442
890.650 .0267443
891.312 .0267442
891.974 .0267446
892.636 .0267458
893.297 .0267484
893.957 .0267523
894.618 .0267571
895.278 .0267631
895.937 .0267694
896.596 .0267754
897.255 .0267801
897.914 .0267827
898.572 .0267837
899.230 .0267824
899.887 .0267791
900.544 .0267747
901.201 .0267690
901.857 .0267622
902.513 .0267546
903.168 .0267460
903.823 .0267360
904.478 .0267245
905.132 .0267111
905.786 .0266961
906.440 .0266792
907.093 .0266607
907.746 .0266402
908.399 .0266190
909.051 .0265969
909.703 .0265736
910.354 .0265499
911.005 .0265260
911.656 .0265022
912.306 .0264785
912.956 .0264548
913.605 .0264312
914.254 .0264076
914.903 .0263837
915.551 .0263588
916.199 .0263335
916.847 .0263079
917.494 .0262824
918.141 .0262575
918.788 .0262337
919.434 .0262112
920.079 .0261901
920.725 .0261702
921.370 .0261512
922.014 .0261327
922.658 .0261137
923.302 .0260941
923.946 .0260740
924.589 .0260525
925.231 .0260301
925.873 .0260072
926.515 .0259839
927.157 .0259603
927.798 .0259359
928.439 .0259105
929.079 .0258843
929.719 .0258571
930.359 .0258285
930.998 .0257984
931.637 .0257675
932.275 .0257356
932.913 .0257031
933.551 .0256708
934.188 .0256384
934.825 .0256068
935.462 .0255764
936.098 .0255472
936.733 .0255191
937.369 .0254930
938.004 .0254687
938.638 .0254461
939.273 .0254253
939.907 .0254060
940.540 .0253883
941.173 .0253726
941.806 .0253588
942.438 .0253467
943.070 .0253360
943.702 .0253267
944.333 .0253179
944.964 .0253097
945.594 .0253017
946.224 .0252932
946.854 .0252847
947.483 .0252762
948.112 .0252673
948.741 .0252578
949.369 .0252478
949.996 .0252371
950.624 .0252252
951.251 .0252113
951.878 .0251954
952.504 .0251779
953.130 .0251589
953.755 .0251389
954.380 .0251182
955.005 .0250973
955.629 .0250767
956.253 .0250560
956.877 .0250353
957.500 .0250146
958.123 .0249938
958.746 .0249724
959.368 .0249509
959.990 .0249298
960.611 .0249087
961.232 .0248885
961.853 .0248699
962.473 .0248529
963.093 .0248380
963.712 .0248242
964.331 .0248112
964.950 .0247992
965.569 .0247877
966.187 .0247763
966.804 .0247658
967.422 .0247566
968.039 .0247485
968.655 .0247416
969.272 .0247363
969.887 .0247318
970.503 .0247282
971.118 .0247250
971.733 .0247214
972.347 .0247172
972.961 .0247122
973.575 .0247057
974.188 .0246986
974.801 .0246909
975.414 .0246815
976.026 .0246707
976.638 .0246588
977.250 .0246457
977.861 .0246319
978.472 .0246173
979.083 .0246028
979.693 .0245879
980.303 .0245730
980.912 .0245574
981.521 .0245414
982.130 .0245256
982.738 .0245094
983.346 .0244930
983.954 .0244766
984.562 .0244606
985.169 .0244457
985.775 .0244323
986.382 .0244204
986.988 .0244097
987.594 .0243998
988.199 .0243902
988.804 .0243808
989.409 .0243715
990.013 .0243624
990.617 .0243541
991.221 .0243465
991.824 .0243403
992.427 .0243357
993.030 .0243332
993.632 .0243331
994.234 .0243350
994.836 .0243381
995.438 .0243419
996.039 .0243464
996.640 .0243514
997.240 .0243565
997.840 .0243621
998.440 .0243681
999.040 .0243742
999.639 .0243800
1000.238 .0243847
1000.836 .0243882
1001.435 .0243909
1002.033 .0243921
1002.630 .0243919
1003.228 .0243912
1003.825 .0243901
1004.422 .0243896
1005.018 .0243904
1005.614 .0243925
1006.210 .0243960
1006.806 .0244006
1007.401 .0244064
1007.996 .0244126
1008.591 .0244200
1009.186 .0244285
1009.780 .0244378
1010.374 .0244490
1010.967 .0244613
1011.561 .0244743
1012.154 .0244885
1012.746 .0245039
1013.339 .0245197
1013.931 .0245355
1014.523 .0245517
1015.115 .0245674
1015.706 .0245827
1016.298 .0245973
1016.888 .0246109
1017.479 .0246236
1018.069 .0246356
1018.660 .0246462
1019.250 .0246562
1019.839 .0246659
1020.429 .0246758
1021.018 .0246858
1021.607 .0246969
1022.195 .0247087
1022.784 .0247212
1023.372 .0247343
1023.960 .0247478
1024.547 .0247616
1025.135 .0247754
1025.722 .0247899
1026.309 .0248053
1026.896 .0248222
1027.483 .0248412
1028.069 .0248621
1028.655 .0248846
1029.241 .0249080
1029.827 .0249326
1030.412 .0249572
1030.997 .0249822
1031.582 .0250074
1032.167 .0250320
1032.752 .0250567
1033.336 .0250808
1033.921 .0251052
1034.505 .0251298
1035.089 .0251549
1035.672 .0251800
1036.256 .0252048
1036.839 .0252289
1037.422 .0252516
1038.005 .0252729
1038.588 .0252921
1039.171 .0253092
1039.753 .0253239
1040.335 .0253360
1040.918 .0253460
1041.500 .0253543
1042.081 .0253618
1042.663 .0253677
1043.244 .0253733
1043.826 .0253775
1044.407 .0253801
1044.988 .0253813
1045.569 .0253805
1046.150 .0253784
1046.730 .0253757
1047.311 .0253723
1047.891 .0253699
1048.471 .0253691
1049.052 .0253717
1049.632 .0253781
1050.211 .0253892
1050.791 .0254051
1051.371 .0254245
1051.950 .0254474
1052.530 .0254728
1053.109 .0254981
1053.688 .0255236
1054.268 .0255466
1054.847 .0255675
1055.426 .0255857
1056.005 .0256020
1056.583 .0256172
1057.162 .0256315
1057.741 .0256447
1058.319 .0256569
1058.898 .0256668
1059.476 .0256735
1060.055 .0256762
1060.633 .0256749
1061.211 .0256705
1061.790 .0256636
1062.368 .0256560
1062.946 .0256497
1063.524 .0256456
1064.102 .0256446
1064.680 .0256461
1065.258 .0256498
1065.836 .0256554
1066.414 .0256610
1066.992 .0256674
1067.570 .0256747
1068.148 .0256834
1068.726 .0256928
1069.304 .0257038
1069.882 .0257153
1070.460 .0257272
1071.038 .0257370
1071.616 .0257442
1072.194 .0257485
1072.772 .0257498
1073.350 .0257487
1073.928 .0257463
1074.506 .0257450
1075.084 .0257460
1075.662 .0257497
1076.240 .0257564
1076.819 .0257652
1077.397 .0257749
1077.976 .0257839
1078.554 .0257911
1079.133 .0257960
1079.711 .0257988
1080.290 .0257993
1080.869 .0257976
1081.448 .0257950
1082.027 .0257900
1082.606 .0257844
1083.185 .0257777
1083.764 .0257711
1084.343 .0257653
1084.923 .0257591
1085.502 .0257521
1086.082 .0257449
1086.662 .0257375
1087.242 .0257301
1087.822 .0257222
1088.402 .0257155
1088.983 .0257095
1089.563 .0257045
1090.144 .0257011
1090.725 .0257020
1091.306 .0257064
1091.887 .0257150
1092.469 .0257269
1093.050 .0257431
1093.632 .0257623
1094.214 .0257834
1094.796 .0258047
1095.379 .0258255
1095.961 .0258447
1096.544 .0258591
1097.127 .0258682
1097.710 .0258754
1098.294 .0258813
1098.877 .0258878
1099.461 .0258981
1100.046 .0259141
1100.630 .0259340
1101.215 .0259582
1101.800 .0259859
1102.385 .0260150
1102.970 .0260429
1103.556 .0260674
1104.142 .0260875
1104.728 .0261063
1105.315 .0261236
1105.902 .0261406
1106.489 .0261640
1107.077 .0261959
1107.664 .0262343
1108.253 .0262776
1108.841 .0263238
1109.430 .0263709
1110.019 .0264133
1110.609 .0264504
1111.198 .0264806
1111.789 .0265074
1112.379 .0265321
1112.970 .0265553
1113.561 .0265818
1114.153 .0266137
1114.745 .0266497
1115.338 .0266900
1115.931 .0267340
1116.524 .0267764
1117.117 .0268164
1117.712 .0268538
1118.306 .0268874
1118.901 .0269213
1119.496 .0269531
1120.092 .0269842
1120.689 .0270171
1121.285 .0270524
1121.882 .0270871
1122.480 .0271229
1123.078 .0271613
1123.677 .0271997
1124.276 .0272365
1124.875 .0272770
1125.476 .0273181
1126.076 .0273613
1126.677 .0274116
1127.279 .0274638
1127.881 .0275188
1128.484 .0275796
1129.087 .0276377
1129.691 .0276982
1130.295 .0277605
1130.900 .0278227
1131.505 .0278838
1132.111 .0279514
1132.718 .0280206
1133.325 .0280922
1133.933 .0281697
1134.541 .0282544
1135.150 .0283384
1135.760 .0284275
1136.370 .0285172
1136.981 .0286045
1137.592 .0286910
1138.204 .0287763
1138.817 .0288612
1139.431 .0289567
1140.045 .0290548
1140.660 .0291679
1141.275 .0292772
1141.891 .0294026
1142.508 .0296115
1143.126 .0296654
1143.744 .0299551
1144.363 .0296572
1144.983 .0300996
