Measurement Sequence started on: 15-12-46-377
Integration time: 28
Scans to Average: 2 
>>>>>Begin Spectral Data<<<<<
432.689 .0000100
433.621 .0000100
434.552 .0000100
435.482 .0000100
436.410 .0000100
437.337 .0000100
438.262 .0263750
439.187 .0560853
440.110 .0930292
441.031 .1347250
441.952 .1752530
442.871 .2072379
443.789 .2248689
444.705 .2261454
445.621 .2134871
446.535 .1921653
447.447 .1679940
448.359 .1310024
449.269 .1125997
450.178 .1010682
451.086 .0929847
451.993 .0868121
452.898 .0818816
453.803 .0778088
454.706 .0743567
455.608 .0713466
456.508 .0687042
457.408 .0663660
458.306 .0642776
459.204 .0624155
460.100 .0607407
460.995 .0592409
461.888 .0579027
462.781 .0566978
463.673 .0555920
464.563 .0545895
465.452 .0536521
466.340 .0527607
467.228 .0519151
468.114 .0511213
468.999 .0503686
469.882 .0496700
470.765 .0490284
471.647 .0484467
472.528 .0479272
473.407 .0474706
474.286 .0470636
475.163 .0467058
476.040 .0463859
476.915 .0460898
477.790 .0458132
478.663 .0455582
479.535 .0453160
480.407 .0450952
481.277 .0448979
482.147 .0447223
483.015 .0445717
483.883 .0444473
484.749 .0443428
485.615 .0442595
486.479 .0441937
487.343 .0441446
488.206 .0441153
489.067 .0441097
489.928 .0441194
490.788 .0441531
491.647 .0442145
492.505 .0443042
493.362 .0444207
494.218 .0445652
495.073 .0447278
495.928 .0449145
496.781 .0451237
497.634 .0453552
498.486 .0456076
499.337 .0458828
500.187 .0461754
501.036 .0464905
501.884 .0468296
502.731 .0471931
503.578 .0475730
504.424 .0479858
505.268 .0484081
506.113 .0488457
506.956 .0492919
507.798 .0497652
508.640 .0502616
509.480 .0507957
510.320 .0513778
511.160 .0520338
511.998 .0527790
512.836 .0536402
513.672 .0546309
514.508 .0557727
515.344 .0570699
516.178 .0585333
517.012 .0601877
517.845 .0620670
518.677 .0642010
519.508 .0666385
520.339 .0694098
521.169 .0725927
521.998 .0761813
522.826 .0802783
523.654 .0849442
524.481 .0901741
525.307 .0960168
526.133 .1024372
526.958 .1093695
527.782 .1167090
528.605 .1242703
529.428 .1318916
530.250 .1390861
531.072 .1456005
531.892 .1510425
532.712 .1551268
533.532 .1576999
534.350 .1585287
535.168 .1575762
535.986 .1549629
536.802 .1507826
537.618 .1453104
538.434 .1388240
539.249 .1317316
540.063 .1242604
540.876 .1167170
541.689 .1093703
542.501 .1024127
543.313 .0960255
544.124 .0902580
544.934 .0850812
545.744 .0804998
546.553 .0764264
547.361 .0728092
548.169 .0696564
548.976 .0668759
549.783 .0644114
550.589 .0622313
551.395 .0602727
552.200 .0585042
553.004 .0568904
553.808 .0554094
554.611 .0540468
555.414 .0527972
556.216 .0516594
557.018 .0506312
557.819 .0497165
558.619 .0488917
559.419 .0481358
560.218 .0474380
561.017 .0467762
561.815 .0461296
562.613 .0454893
563.410 .0448607
564.207 .0442444
565.003 .0436577
565.799 .0431015
566.594 .0425776
567.388 .0420764
568.182 .0415973
568.976 .0411355
569.769 .0406892
570.562 .0402507
571.354 .0398176
572.145 .0393957
572.936 .0389824
573.727 .0385733
574.517 .0381748
575.307 .0377870
576.096 .0374144
576.885 .0370431
577.673 .0366774
578.461 .0363155
579.248 .0359660
580.035 .0356317
580.821 .0353162
581.607 .0350210
582.392 .0347472
583.177 .0344980
583.962 .0342705
584.746 .0340643
585.529 .0338782
586.313 .0337108
587.095 .0335617
587.878 .0334287
588.660 .0333089
589.441 .0332011
590.222 .0331050
591.003 .0330199
591.783 .0329432
592.563 .0328727
593.342 .0328062
594.121 .0327422
594.899 .0326805
595.678 .0326194
596.455 .0325587
597.233 .0324988
598.009 .0324388
598.786 .0323784
599.562 .0323172
600.338 .0322558
601.113 .0321939
601.888 .0321319
602.663 .0320701
603.437 .0320094
604.211 .0319511
604.984 .0318956
605.757 .0318436
606.530 .0317943
607.302 .0317486
608.074 .0317053
608.845 .0316645
609.616 .0316256
610.387 .0315886
611.158 .0315539
611.928 .0315212
612.697 .0314907
613.467 .0314631
614.236 .0314384
615.004 .0314167
615.773 .0313968
616.541 .0313791
617.308 .0313620
618.076 .0313461
618.843 .0313310
619.609 .0313173
620.375 .0313047
621.141 .0312938
621.907 .0312841
622.672 .0312755
623.437 .0312676
624.202 .0312599
624.966 .0312521
625.730 .0312441
626.493 .0312346
627.257 .0312233
628.020 .0312098
628.782 .0311952
629.545 .0311781
630.307 .0311590
631.068 .0311384
631.830 .0311163
632.591 .0310933
633.352 .0310701
634.112 .0310471
634.872 .0310249
635.632 .0310038
636.392 .0309835
637.151 .0309632
637.910 .0309428
638.668 .0309220
639.427 .0309004
640.185 .0308784
640.943 .0308566
641.700 .0308346
642.457 .0308144
643.214 .0307962
643.971 .0307793
644.727 .0307631
645.483 .0307465
646.239 .0307287
646.994 .0307081
647.750 .0306849
648.505 .0306587
649.259 .0306311
650.014 .0306039
650.768 .0305780
651.521 .0305543
652.275 .0305332
653.028 .0305149
653.781 .0304979
654.534 .0304810
655.286 .0304627
656.039 .0304427
656.791 .0304202
657.542 .0303951
658.294 .0303685
659.045 .0303410
659.796 .0303138
660.546 .0302869
661.297 .0302603
662.047 .0302334
662.796 .0302057
663.546 .0301770
664.295 .0301464
665.044 .0301146
665.793 .0300818
666.542 .0300485
667.290 .0300153
668.038 .0299833
668.786 .0299518
669.533 .0299213
670.281 .0298918
671.028 .0298629
671.774 .0298348
672.521 .0298076
673.267 .0297815
674.013 .0297572
674.759 .0297344
675.505 .0297134
676.250 .0296925
676.995 .0296726
677.740 .0296530
678.484 .0296334
679.229 .0296138
679.973 .0295950
680.717 .0295765
681.460 .0295592
682.204 .0295427
682.947 .0295273
683.690 .0295128
684.433 .0294990
685.175 .0294849
685.917 .0294704
686.659 .0294553
687.401 .0294401
688.142 .0294246
688.884 .0294098
689.625 .0293956
690.365 .0293821
691.106 .0293693
691.846 .0293575
692.586 .0293460
693.326 .0293346
694.066 .0293231
694.805 .0293115
695.545 .0292996
696.284 .0292878
697.022 .0292761
697.761 .0292650
698.499 .0292542
699.237 .0292440
699.975 .0292342
700.713 .0292248
701.450 .0292156
702.187 .0292066
702.924 .0291981
703.661 .0291893
704.397 .0291806
705.133 .0291721
705.869 .0291631
706.605 .0291542
707.341 .0291452
708.076 .0291362
708.811 .0291276
709.546 .0291192
710.281 .0291113
711.015 .0291040
711.749 .0290967
712.483 .0290891
713.217 .0290807
713.950 .0290715
714.684 .0290612
715.417 .0290491
716.150 .0290363
716.882 .0290225
717.615 .0290086
718.347 .0289947
719.079 .0289813
719.811 .0289683
720.542 .0289556
721.273 .0289427
722.005 .0289290
722.735 .0289142
723.466 .0288989
724.196 .0288824
724.927 .0288649
725.656 .0288470
726.386 .0288289
727.116 .0288108
727.845 .0287929
728.574 .0287747
729.303 .0287566
730.031 .0287382
730.760 .0287197
731.488 .0287007
732.216 .0286819
732.944 .0286639
733.671 .0286462
734.398 .0286295
735.125 .0286135
735.852 .0285979
736.579 .0285827
737.305 .0285676
738.031 .0285528
738.757 .0285377
739.483 .0285226
740.208 .0285078
740.933 .0284935
741.658 .0284799
742.383 .0284667
743.108 .0284543
743.832 .0284425
744.556 .0284312
745.280 .0284190
746.004 .0284063
746.727 .0283927
747.450 .0283780
748.173 .0283618
748.896 .0283442
749.618 .0283256
750.340 .0283064
751.062 .0282868
751.784 .0282669
752.506 .0282466
753.227 .0282268
753.948 .0282066
754.669 .0281860
755.389 .0281648
756.110 .0281433
756.830 .0281214
757.550 .0281000
758.269 .0280790
758.989 .0280586
759.708 .0280389
760.427 .0280205
761.146 .0280027
761.864 .0279856
762.582 .0279689
763.300 .0279521
764.018 .0279350
764.736 .0279179
765.453 .0279001
766.170 .0278823
766.887 .0278647
767.603 .0278474
768.320 .0278299
769.036 .0278125
769.751 .0277949
770.467 .0277776
771.182 .0277606
771.897 .0277440
772.612 .0277274
773.327 .0277122
774.041 .0276980
774.755 .0276852
775.469 .0276744
776.183 .0276658
776.896 .0276591
777.609 .0276540
778.322 .0276504
779.035 .0276479
779.747 .0276463
780.459 .0276460
781.171 .0276462
781.882 .0276472
782.594 .0276488
783.305 .0276511
784.016 .0276541
784.726 .0276577
785.436 .0276613
786.147 .0276649
786.856 .0276677
787.566 .0276700
788.275 .0276715
788.984 .0276727
789.693 .0276740
790.401 .0276749
791.110 .0276756
791.818 .0276764
792.525 .0276770
793.233 .0276778
793.940 .0276784
794.647 .0276791
795.353 .0276797
796.060 .0276802
796.766 .0276808
797.472 .0276816
798.177 .0276821
798.883 .0276824
799.588 .0276820
800.292 .0276813
800.997 .0276798
801.701 .0276772
802.405 .0276746
803.109 .0276715
803.812 .0276678
804.515 .0276636
805.218 .0276587
805.921 .0276529
806.623 .0276461
807.325 .0276378
808.027 .0276288
808.728 .0276190
809.429 .0276088
810.130 .0275981
810.831 .0275878
811.531 .0275779
812.231 .0275676
812.931 .0275569
813.630 .0275460
814.330 .0275343
815.029 .0275219
815.727 .0275088
816.426 .0274956
817.124 .0274823
817.821 .0274688
818.519 .0274557
819.216 .0274433
819.913 .0274315
820.609 .0274204
821.306 .0274104
822.002 .0274016
822.697 .0273939
823.393 .0273871
824.088 .0273811
824.783 .0273756
825.477 .0273702
826.171 .0273646
826.865 .0273589
827.559 .0273533
828.252 .0273478
828.945 .0273422
829.638 .0273371
830.330 .0273319
831.023 .0273269
831.714 .0273221
832.406 .0273168
833.097 .0273105
833.788 .0273031
834.479 .0272947
835.169 .0272854
835.859 .0272757
836.548 .0272656
837.238 .0272551
837.927 .0272445
838.615 .0272333
839.304 .0272217
839.992 .0272097
840.680 .0271973
841.367 .0271840
842.054 .0271703
842.741 .0271564
843.428 .0271419
844.114 .0271272
844.800 .0271123
845.485 .0270968
846.170 .0270803
846.855 .0270625
847.540 .0270438
848.224 .0270243
848.908 .0270046
849.592 .0269843
850.275 .0269644
850.958 .0269446
851.641 .0269247
852.323 .0269046
853.005 .0268840
853.687 .0268629
854.368 .0268407
855.049 .0268177
855.730 .0267942
856.410 .0267703
857.090 .0267463
857.769 .0267223
858.449 .0266984
859.128 .0266748
859.806 .0266512
860.485 .0266275
861.163 .0266042
861.840 .0265816
862.518 .0265595
863.195 .0265382
863.871 .0265178
864.548 .0264984
865.224 .0264797
865.899 .0264617
866.574 .0264441
867.249 .0264268
867.924 .0264101
868.598 .0263938
869.272 .0263786
869.946 .0263646
870.619 .0263513
871.292 .0263390
871.964 .0263277
872.636 .0263166
873.308 .0263055
873.979 .0262944
874.651 .0262829
875.321 .0262713
875.992 .0262598
876.662 .0262487
877.331 .0262385
878.001 .0262296
878.670 .0262215
879.338 .0262141
880.007 .0262076
880.675 .0262016
881.342 .0261954
882.009 .0261894
882.676 .0261834
883.343 .0261775
884.009 .0261722
884.675 .0261677
885.340 .0261634
886.005 .0261599
886.670 .0261574
887.334 .0261558
887.998 .0261548
888.662 .0261546
889.325 .0261552
889.988 .0261565
890.650 .0261588
891.312 .0261616
891.974 .0261652
892.636 .0261700
893.297 .0261755
893.957 .0261818
894.618 .0261889
895.278 .0261969
895.937 .0262055
896.596 .0262152
897.255 .0262259
897.914 .0262364
898.572 .0262471
899.230 .0262577
899.887 .0262671
900.544 .0262753
901.201 .0262820
901.857 .0262875
902.513 .0262916
903.168 .0262942
903.823 .0262956
904.478 .0262961
905.132 .0262959
905.786 .0262944
906.440 .0262913
907.093 .0262872
907.746 .0262810
908.399 .0262730
909.051 .0262640
909.703 .0262538
910.354 .0262430
911.005 .0262321
911.656 .0262213
912.306 .0262108
912.956 .0262007
913.605 .0261912
914.254 .0261829
914.903 .0261753
915.551 .0261685
916.199 .0261623
916.847 .0261571
917.494 .0261528
918.141 .0261490
918.788 .0261461
919.434 .0261441
920.079 .0261420
920.725 .0261397
921.370 .0261370
922.014 .0261337
922.658 .0261291
923.302 .0261232
923.946 .0261160
924.589 .0261071
925.231 .0260960
925.873 .0260836
926.515 .0260698
927.157 .0260551
927.798 .0260390
928.439 .0260217
929.079 .0260036
929.719 .0259844
930.359 .0259638
930.998 .0259425
931.637 .0259210
932.275 .0258999
932.913 .0258790
933.551 .0258593
934.188 .0258416
934.825 .0258256
935.462 .0258117
936.098 .0258001
936.733 .0257898
937.369 .0257809
938.004 .0257733
938.638 .0257667
939.273 .0257612
939.907 .0257569
940.540 .0257541
941.173 .0257528
941.806 .0257532
942.438 .0257547
943.070 .0257564
943.702 .0257585
944.333 .0257595
944.964 .0257590
945.594 .0257566
946.224 .0257526
946.854 .0257471
947.483 .0257404
948.112 .0257326
948.741 .0257239
949.369 .0257149
949.996 .0257050
950.624 .0256940
951.251 .0256818
951.878 .0256684
952.504 .0256538
953.130 .0256380
953.755 .0256215
954.380 .0256045
955.005 .0255877
955.629 .0255707
956.253 .0255535
956.877 .0255367
957.500 .0255198
958.123 .0255034
958.746 .0254869
959.368 .0254704
959.990 .0254537
960.611 .0254371
961.232 .0254207
961.853 .0254043
962.473 .0253881
963.093 .0253721
963.712 .0253560
964.331 .0253403
964.950 .0253249
965.569 .0253103
966.187 .0252970
966.804 .0252850
967.422 .0252740
968.039 .0252639
968.655 .0252545
969.272 .0252456
969.887 .0252365
970.503 .0252273
971.118 .0252173
971.733 .0252069
972.347 .0251963
972.961 .0251854
973.575 .0251742
974.188 .0251629
974.801 .0251511
975.414 .0251385
976.026 .0251249
976.638 .0251103
977.250 .0250946
977.861 .0250778
978.472 .0250603
979.083 .0250418
979.693 .0250224
980.303 .0250020
980.912 .0249802
981.521 .0249574
982.130 .0249334
982.738 .0249086
983.346 .0248836
983.954 .0248588
984.562 .0248345
985.169 .0248106
985.775 .0247875
986.382 .0247650
986.988 .0247424
987.594 .0247196
988.199 .0246968
988.804 .0246739
989.409 .0246513
990.013 .0246299
990.617 .0246102
991.221 .0245933
991.824 .0245791
992.427 .0245679
993.030 .0245594
993.632 .0245535
994.234 .0245491
994.836 .0245456
995.438 .0245422
996.039 .0245381
996.640 .0245328
997.240 .0245269
997.840 .0245202
998.440 .0245134
999.040 .0245069
999.639 .0245006
1000.238 .0244943
1000.836 .0244887
1001.435 .0244824
1002.033 .0244757
1002.630 .0244684
1003.228 .0244603
1003.825 .0244515
1004.422 .0244432
1005.018 .0244355
1005.614 .0244295
1006.210 .0244255
1006.806 .0244234
1007.401 .0244228
1007.996 .0244242
1008.591 .0244268
1009.186 .0244298
1009.780 .0244336
1010.374 .0244377
1010.967 .0244412
1011.561 .0244452
1012.154 .0244492
1012.746 .0244530
1013.339 .0244570
1013.931 .0244607
1014.523 .0244638
1015.115 .0244663
1015.706 .0244684
1016.298 .0244694
1016.888 .0244701
1017.479 .0244710
1018.069 .0244712
1018.660 .0244713
1019.250 .0244723
1019.839 .0244738
1020.429 .0244768
1021.018 .0244814
1021.607 .0244877
1022.195 .0244950
1022.784 .0245035
1023.372 .0245129
1023.960 .0245231
1024.547 .0245343
1025.135 .0245466
1025.722 .0245597
1026.309 .0245749
1026.896 .0245924
1027.483 .0246118
1028.069 .0246332
1028.655 .0246569
1029.241 .0246811
1029.827 .0247050
1030.412 .0247280
1030.997 .0247500
1031.582 .0247702
1032.167 .0247890
1032.752 .0248062
1033.336 .0248215
1033.921 .0248360
1034.505 .0248499
1035.089 .0248625
1035.672 .0248747
1036.256 .0248863
1036.839 .0248966
1037.422 .0249058
1038.005 .0249152
1038.588 .0249234
1039.171 .0249304
1039.753 .0249383
1040.335 .0249449
1040.918 .0249507
1041.500 .0249564
1042.081 .0249612
1042.663 .0249655
1043.244 .0249694
1043.826 .0249726
1044.407 .0249747
1044.988 .0249777
1045.569 .0249807
1046.150 .0249826
1046.730 .0249850
1047.311 .0249875
1047.891 .0249899
1048.471 .0249931
1049.052 .0249978
1049.632 .0250032
1050.211 .0250108
1050.791 .0250194
1051.371 .0250291
1051.950 .0250410
1052.530 .0250537
1053.109 .0250669
1053.688 .0250798
1054.268 .0250923
1054.847 .0251045
1055.426 .0251159
1056.005 .0251281
1056.583 .0251394
1057.162 .0251496
1057.741 .0251577
1058.319 .0251628
1058.898 .0251655
1059.476 .0251653
1060.055 .0251632
1060.633 .0251602
1061.211 .0251562
1061.790 .0251537
1062.368 .0251529
1062.946 .0251549
1063.524 .0251597
1064.102 .0251673
1064.680 .0251751
1065.258 .0251823
1065.836 .0251895
1066.414 .0251969
1066.992 .0252057
1067.570 .0252169
1068.148 .0252296
1068.726 .0252445
1069.304 .0252627
1069.882 .0252824
1070.460 .0253028
1071.038 .0253242
1071.616 .0253437
1072.194 .0253611
1072.772 .0253765
1073.350 .0253906
1073.928 .0254037
1074.506 .0254175
1075.084 .0254327
1075.662 .0254476
1076.240 .0254637
1076.819 .0254797
1077.397 .0254946
1077.976 .0255100
1078.554 .0255234
1079.133 .0255341
1079.711 .0255421
1080.290 .0255486
1080.869 .0255530
1081.448 .0255559
1082.027 .0255588
1082.606 .0255610
1083.185 .0255639
1083.764 .0255680
1084.343 .0255746
1084.923 .0255837
1085.502 .0255961
1086.082 .0256106
1086.662 .0256257
1087.242 .0256422
1087.822 .0256603
1088.402 .0256802
1088.983 .0257016
1089.563 .0257243
1090.144 .0257483
1090.725 .0257734
1091.306 .0257983
1091.887 .0258236
1092.469 .0258494
1093.050 .0258743
1093.632 .0258975
1094.214 .0259171
1094.796 .0259334
1095.379 .0259481
1095.961 .0259597
1096.544 .0259698
1097.127 .0259784
1097.710 .0259856
1098.294 .0259921
1098.877 .0259991
1099.461 .0260074
1100.046 .0260167
1100.630 .0260273
1101.215 .0260407
1101.800 .0260548
1102.385 .0260704
1102.970 .0260860
1103.556 .0261012
1104.142 .0261182
1104.728 .0261341
1105.315 .0261473
1105.902 .0261602
1106.489 .0261738
1107.077 .0261886
1107.664 .0262060
1108.253 .0262280
1108.841 .0262545
1109.430 .0262840
1110.019 .0263145
1110.609 .0263433
1111.198 .0263685
1111.789 .0263904
1112.379 .0264079
1112.970 .0264228
1113.561 .0264390
1114.153 .0264575
1114.745 .0264813
1115.338 .0265118
1115.931 .0265484
1116.524 .0265890
1117.117 .0266306
1117.712 .0266707
1118.306 .0267073
1118.901 .0267416
1119.496 .0267776
1120.092 .0268201
1120.689 .0268701
1121.285 .0269307
1121.882 .0270003
1122.480 .0270759
1123.078 .0271529
1123.677 .0272270
1124.276 .0272926
1124.875 .0273497
1125.476 .0273967
1126.076 .0274351
1126.677 .0274658
1127.279 .0274945
1127.881 .0275275
1128.484 .0275653
1129.087 .0276061
1129.691 .0276488
1130.295 .0276886
1130.900 .0277266
1131.505 .0277589
1132.111 .0277858
1132.718 .0278091
1133.325 .0278328
1133.933 .0278582
1134.541 .0278830
1135.150 .0279187
1135.760 .0279638
1136.370 .0280251
1136.981 .0281053
1137.592 .0281999
1138.204 .0283002
1138.817 .0284116
1139.431 .0285374
1140.045 .0286706
1140.660 .0288130
1141.275 .0289866
1141.891 .0292058
1142.508 .0293198
1143.126 .0294841
1143.744 .0296844
1144.363 .0304681
1144.983 .0313461
