Measurement Sequence started on: 15-12-46-377
Integration time: 28
Scans to Average: 2 
>>>>>Begin Spectral Data<<<<<
432.689 .0000100
433.621 .0000100
434.552 .0000100
435.482 .0000100
436.410 .0000100
437.337 .0000100
438.262 .0278059
439.187 .0587858
440.110 .0972879
441.031 .1407213
441.952 .1828614
442.871 .2159731
443.789 .2340684
444.705 .2350969
445.621 .2216489
446.535 .1992589
447.447 .1739810
448.359 .1352446
449.269 .1162990
450.178 .1044187
451.086 .0960590
451.993 .0897034
452.898 .0846808
453.803 .0805477
454.706 .0770884
455.608 .0740923
456.508 .0714856
457.408 .0692000
458.306 .0671653
459.204 .0653382
460.100 .0636793
460.995 .0621646
461.888 .0607719
462.781 .0594937
463.673 .0583046
464.563 .0572193
465.452 .0562293
466.340 .0553195
467.228 .0544868
468.114 .0537233
468.999 .0530301
469.882 .0523963
470.765 .0518228
471.647 .0513024
472.528 .0508393
473.407 .0504380
474.286 .0500932
475.163 .0497977
476.040 .0495511
476.915 .0493399
477.790 .0491548
478.663 .0489885
479.535 .0488341
480.407 .0487000
481.277 .0485860
482.147 .0484918
483.015 .0484242
483.883 .0483755
484.749 .0483457
485.615 .0483317
486.479 .0483319
487.343 .0483373
488.206 .0483449
489.067 .0483513
489.928 .0483532
490.788 .0483592
491.647 .0483812
492.505 .0484200
493.362 .0484872
494.218 .0485850
495.073 .0487053
495.928 .0488490
496.781 .0490047
497.634 .0491708
498.486 .0493471
499.337 .0495292
500.187 .0497217
501.036 .0499248
501.884 .0501577
502.731 .0504246
503.578 .0507434
504.424 .0511256
505.268 .0515645
506.113 .0520564
506.956 .0525895
507.798 .0531657
508.640 .0537770
509.480 .0544224
510.320 .0551214
511.160 .0558945
511.998 .0567527
512.836 .0577119
513.672 .0588057
514.508 .0600220
515.344 .0613833
516.178 .0628860
517.012 .0645318
517.845 .0663462
518.677 .0683632
519.508 .0705779
520.339 .0730572
521.169 .0758761
521.998 .0790292
522.826 .0825914
523.654 .0866546
524.481 .0912041
525.307 .0963094
526.133 .1020068
526.958 .1083091
527.782 .1151249
528.605 .1224167
529.428 .1300266
530.250 .1374508
531.072 .1444804
531.892 .1506581
532.712 .1556344
533.532 .1592382
534.350 .1611370
535.168 .1612110
535.986 .1595596
536.802 .1563086
537.618 .1516228
538.434 .1457446
539.249 .1391556
540.063 .1320102
540.876 .1246642
541.689 .1173680
542.501 .1103185
543.313 .1037806
544.124 .0978284
544.934 .0924109
545.744 .0875568
546.553 .0832037
547.361 .0793181
548.169 .0758605
548.976 .0727752
549.783 .0700062
550.589 .0675266
551.395 .0652842
552.200 .0632698
553.004 .0614420
553.808 .0597761
554.611 .0582683
555.414 .0569227
556.216 .0557019
557.018 .0545986
557.819 .0536121
558.619 .0527230
559.419 .0519035
560.218 .0511431
561.017 .0504085
561.815 .0496937
562.613 .0489862
563.410 .0482706
564.207 .0475508
565.003 .0468410
565.799 .0461341
566.594 .0454366
567.388 .0447730
568.182 .0441429
568.976 .0435336
569.769 .0429561
570.562 .0424050
571.354 .0418735
572.145 .0413604
572.936 .0408588
573.727 .0403677
574.517 .0398940
575.307 .0394310
576.096 .0389858
576.885 .0385697
577.673 .0381903
578.461 .0378433
579.248 .0375292
580.035 .0372483
580.821 .0369897
581.607 .0367470
582.392 .0365209
583.177 .0363061
583.962 .0361038
584.746 .0359113
585.529 .0357293
586.313 .0355601
587.095 .0354044
587.878 .0352611
588.660 .0351297
589.441 .0350116
590.222 .0349035
591.003 .0348049
591.783 .0347134
592.563 .0346295
593.342 .0345514
594.121 .0344774
594.899 .0344083
595.678 .0343426
596.455 .0342798
597.233 .0342193
598.009 .0341607
598.786 .0341038
599.562 .0340492
600.338 .0339977
601.113 .0339485
601.888 .0339001
602.663 .0338519
603.437 .0338029
604.211 .0337508
604.984 .0336972
605.757 .0336409
606.530 .0335818
607.302 .0335226
608.074 .0334629
608.845 .0334039
609.616 .0333459
610.387 .0332892
611.158 .0332336
611.928 .0331791
612.697 .0331250
613.467 .0330717
614.236 .0330195
615.004 .0329701
615.773 .0329226
616.541 .0328785
617.308 .0328378
618.076 .0327999
618.843 .0327649
619.609 .0327327
620.375 .0327017
621.141 .0326718
621.907 .0326421
622.672 .0326128
623.437 .0325832
624.202 .0325530
624.966 .0325227
625.730 .0324923
626.493 .0324619
627.257 .0324313
628.020 .0323998
628.782 .0323686
629.545 .0323365
630.307 .0323032
631.068 .0322688
631.830 .0322332
632.591 .0321964
633.352 .0321591
634.112 .0321218
634.872 .0320847
635.632 .0320490
636.392 .0320153
637.151 .0319843
637.910 .0319556
638.668 .0319288
639.427 .0319029
640.185 .0318778
640.943 .0318538
641.700 .0318293
642.457 .0318057
643.214 .0317838
643.971 .0317634
644.727 .0317451
645.483 .0317294
646.239 .0317163
646.994 .0317056
647.750 .0316971
648.505 .0316897
649.259 .0316833
650.014 .0316777
650.768 .0316719
651.521 .0316667
652.275 .0316610
653.028 .0316550
653.781 .0316478
654.534 .0316397
655.286 .0316301
656.039 .0316183
656.791 .0316050
657.542 .0315895
658.294 .0315723
659.045 .0315535
659.796 .0315331
660.546 .0315119
661.297 .0314895
662.047 .0314661
662.796 .0314413
663.546 .0314156
664.295 .0313883
665.044 .0313603
665.793 .0313318
666.542 .0313040
667.290 .0312764
668.038 .0312495
668.786 .0312233
669.533 .0311970
670.281 .0311710
671.028 .0311446
671.774 .0311175
672.521 .0310903
673.267 .0310623
674.013 .0310344
674.759 .0310063
675.505 .0309790
676.250 .0309521
676.995 .0309255
677.740 .0308989
678.484 .0308719
679.229 .0308441
679.973 .0308159
680.717 .0307873
681.460 .0307583
682.204 .0307293
682.947 .0307003
683.690 .0306713
684.433 .0306425
685.175 .0306135
685.917 .0305840
686.659 .0305537
687.401 .0305227
688.142 .0304904
688.884 .0304572
689.625 .0304236
690.365 .0303899
691.106 .0303563
691.846 .0303233
692.586 .0302908
693.326 .0302588
694.066 .0302283
694.805 .0301984
695.545 .0301690
696.284 .0301405
697.022 .0301125
697.761 .0300849
698.499 .0300580
699.237 .0300317
699.975 .0300062
700.713 .0299820
701.450 .0299591
702.187 .0299371
702.924 .0299167
703.661 .0298976
704.397 .0298789
705.133 .0298609
705.869 .0298436
706.605 .0298259
707.341 .0298085
708.076 .0297914
708.811 .0297744
709.546 .0297580
710.281 .0297419
711.015 .0297265
711.749 .0297117
712.483 .0296972
713.217 .0296826
713.950 .0296674
714.684 .0296515
715.417 .0296346
716.150 .0296167
716.882 .0295984
717.615 .0295798
718.347 .0295615
719.079 .0295433
719.811 .0295258
720.542 .0295089
721.273 .0294926
722.005 .0294760
722.735 .0294599
723.466 .0294440
724.196 .0294284
724.927 .0294129
725.656 .0293982
726.386 .0293849
727.116 .0293734
727.845 .0293635
728.574 .0293548
729.303 .0293473
730.031 .0293412
730.760 .0293353
731.488 .0293298
732.216 .0293248
732.944 .0293204
733.671 .0293163
734.398 .0293129
735.125 .0293102
735.852 .0293079
736.579 .0293061
737.305 .0293047
738.031 .0293032
738.757 .0293013
739.483 .0292986
740.208 .0292949
740.933 .0292910
741.658 .0292865
742.383 .0292814
743.108 .0292761
743.832 .0292712
744.556 .0292666
745.280 .0292620
746.004 .0292577
746.727 .0292540
747.450 .0292502
748.173 .0292466
748.896 .0292425
749.618 .0292378
750.340 .0292326
751.062 .0292268
751.784 .0292201
752.506 .0292126
753.227 .0292045
753.948 .0291956
754.669 .0291854
755.389 .0291743
756.110 .0291614
756.830 .0291468
757.550 .0291311
758.269 .0291137
758.989 .0290944
759.708 .0290740
760.427 .0290524
761.146 .0290296
761.864 .0290064
762.582 .0289827
763.300 .0289587
764.018 .0289350
764.736 .0289115
765.453 .0288880
766.170 .0288652
766.887 .0288430
767.603 .0288209
768.320 .0287990
769.036 .0287769
769.751 .0287544
770.467 .0287318
771.182 .0287094
771.897 .0286870
772.612 .0286651
773.327 .0286441
774.041 .0286235
774.755 .0286037
775.469 .0285845
776.183 .0285655
776.896 .0285469
777.609 .0285289
778.322 .0285106
779.035 .0284924
779.747 .0284745
780.459 .0284572
781.171 .0284406
781.882 .0284248
782.594 .0284096
783.305 .0283952
784.016 .0283812
784.726 .0283678
785.436 .0283541
786.147 .0283404
786.856 .0283263
787.566 .0283118
788.275 .0282969
788.984 .0282816
789.693 .0282660
790.401 .0282499
791.110 .0282335
791.818 .0282167
792.525 .0281992
793.233 .0281814
793.940 .0281632
794.647 .0281449
795.353 .0281264
796.060 .0281079
796.766 .0280893
797.472 .0280706
798.177 .0280520
798.883 .0280329
799.588 .0280138
800.292 .0279946
800.997 .0279755
801.701 .0279564
802.405 .0279379
803.109 .0279201
803.812 .0279028
804.515 .0278863
805.218 .0278696
805.921 .0278526
806.623 .0278352
807.325 .0278167
808.027 .0277978
808.728 .0277780
809.429 .0277579
810.130 .0277373
810.831 .0277172
811.531 .0276974
812.231 .0276778
812.931 .0276585
813.630 .0276392
814.330 .0276200
815.029 .0276015
815.727 .0275836
816.426 .0275677
817.124 .0275542
817.821 .0275434
818.519 .0275350
819.216 .0275297
819.913 .0275265
820.609 .0275251
821.306 .0275249
822.002 .0275260
822.697 .0275281
823.393 .0275313
824.088 .0275361
824.783 .0275425
825.477 .0275510
826.171 .0275610
826.865 .0275720
827.559 .0275839
828.252 .0275951
828.945 .0276055
829.638 .0276143
830.330 .0276220
831.023 .0276286
831.714 .0276343
832.406 .0276399
833.097 .0276454
833.788 .0276513
834.479 .0276575
835.169 .0276636
835.859 .0276700
836.548 .0276762
837.238 .0276822
837.927 .0276878
838.615 .0276937
839.304 .0277001
839.992 .0277069
840.680 .0277140
841.367 .0277213
842.054 .0277286
842.741 .0277355
843.428 .0277419
844.114 .0277476
844.800 .0277529
845.485 .0277576
846.170 .0277615
846.855 .0277650
847.540 .0277678
848.224 .0277700
848.908 .0277714
849.592 .0277717
850.275 .0277706
850.958 .0277675
851.641 .0277632
852.323 .0277574
853.005 .0277510
853.687 .0277441
854.368 .0277372
855.049 .0277305
855.730 .0277239
856.410 .0277174
857.090 .0277106
857.769 .0277032
858.449 .0276945
859.128 .0276844
859.806 .0276729
860.485 .0276600
861.163 .0276463
861.840 .0276322
862.518 .0276182
863.195 .0276037
863.871 .0275889
864.548 .0275737
865.224 .0275578
865.899 .0275413
866.574 .0275236
867.249 .0275052
867.924 .0274864
868.598 .0274673
869.272 .0274484
869.946 .0274307
870.619 .0274137
871.292 .0273976
871.964 .0273823
872.636 .0273674
873.308 .0273524
873.979 .0273374
874.651 .0273222
875.321 .0273070
875.992 .0272915
876.662 .0272758
877.331 .0272597
878.001 .0272443
878.670 .0272287
879.338 .0272133
880.007 .0271987
880.675 .0271847
881.342 .0271711
882.009 .0271581
882.676 .0271456
883.343 .0271333
884.009 .0271210
884.675 .0271085
885.340 .0270955
886.005 .0270826
886.670 .0270696
887.334 .0270570
887.998 .0270452
888.662 .0270343
889.325 .0270241
889.988 .0270144
890.650 .0270051
891.312 .0269953
891.974 .0269850
892.636 .0269741
893.297 .0269623
893.957 .0269495
894.618 .0269357
895.278 .0269214
895.937 .0269068
896.596 .0268923
897.255 .0268775
897.914 .0268626
898.572 .0268476
899.230 .0268318
899.887 .0268150
900.544 .0267972
901.201 .0267782
901.857 .0267579
902.513 .0267364
903.168 .0267136
903.823 .0266893
904.478 .0266641
905.132 .0266373
905.786 .0266093
906.440 .0265802
907.093 .0265496
907.746 .0265178
908.399 .0264852
909.051 .0264521
909.703 .0264184
910.354 .0263847
911.005 .0263511
911.656 .0263176
912.306 .0262843
912.956 .0262510
913.605 .0262175
914.254 .0261843
914.903 .0261513
915.551 .0261181
916.199 .0260861
916.847 .0260553
917.494 .0260260
918.141 .0259983
918.788 .0259721
919.434 .0259474
920.079 .0259232
920.725 .0258995
921.370 .0258757
922.014 .0258518
922.658 .0258275
923.302 .0258024
923.946 .0257773
924.589 .0257528
925.231 .0257281
925.873 .0257035
926.515 .0256793
927.157 .0256550
927.798 .0256305
928.439 .0256058
929.079 .0255807
929.719 .0255551
930.359 .0255285
930.998 .0255014
931.637 .0254736
932.275 .0254456
932.913 .0254178
933.551 .0253908
934.188 .0253654
934.825 .0253415
935.462 .0253192
936.098 .0252993
936.733 .0252815
937.369 .0252659
938.004 .0252518
938.638 .0252392
939.273 .0252280
939.907 .0252180
940.540 .0252090
941.173 .0252017
941.806 .0251964
942.438 .0251934
943.070 .0251921
943.702 .0251928
944.333 .0251948
944.964 .0251976
945.594 .0252008
946.224 .0252040
946.854 .0252066
947.483 .0252089
948.112 .0252109
948.741 .0252126
949.369 .0252143
949.996 .0252163
950.624 .0252188
951.251 .0252223
951.878 .0252263
952.504 .0252304
953.130 .0252344
953.755 .0252384
954.380 .0252418
955.005 .0252444
955.629 .0252459
956.253 .0252463
956.877 .0252459
957.500 .0252457
958.123 .0252456
958.746 .0252467
959.368 .0252493
959.990 .0252533
960.611 .0252582
961.232 .0252641
961.853 .0252701
962.473 .0252762
963.093 .0252822
963.712 .0252879
964.331 .0252928
964.950 .0252980
965.569 .0253032
966.187 .0253091
966.804 .0253157
967.422 .0253235
968.039 .0253316
968.655 .0253407
969.272 .0253500
969.887 .0253591
970.503 .0253676
971.118 .0253760
971.733 .0253834
972.347 .0253907
972.961 .0253973
973.575 .0254034
974.188 .0254094
974.801 .0254151
975.414 .0254200
976.026 .0254245
976.638 .0254286
977.250 .0254326
977.861 .0254362
978.472 .0254403
979.083 .0254443
979.693 .0254485
980.303 .0254528
980.912 .0254570
981.521 .0254612
982.130 .0254651
982.738 .0254686
983.346 .0254723
983.954 .0254767
984.562 .0254813
985.169 .0254861
985.775 .0254916
986.382 .0254975
986.988 .0255033
987.594 .0255089
988.199 .0255143
988.804 .0255192
989.409 .0255232
990.013 .0255264
990.617 .0255290
991.221 .0255312
991.824 .0255335
992.427 .0255364
993.030 .0255407
993.632 .0255465
994.234 .0255540
994.836 .0255630
995.438 .0255736
996.039 .0255848
996.640 .0255959
997.240 .0256071
997.840 .0256181
998.440 .0256288
999.040 .0256389
999.639 .0256485
1000.238 .0256580
1000.836 .0256669
1001.435 .0256755
1002.033 .0256832
1002.630 .0256898
1003.228 .0256953
1003.825 .0256993
1004.422 .0257031
1005.018 .0257063
1005.614 .0257106
1006.210 .0257163
1006.806 .0257237
1007.401 .0257323
1007.996 .0257423
1008.591 .0257532
1009.186 .0257643
1009.780 .0257754
1010.374 .0257857
1010.967 .0257946
1011.561 .0258028
1012.154 .0258092
1012.746 .0258147
1013.339 .0258188
1013.931 .0258218
1014.523 .0258233
1015.115 .0258236
1015.706 .0258228
1016.298 .0258206
1016.888 .0258173
1017.479 .0258140
1018.069 .0258100
1018.660 .0258056
1019.250 .0258009
1019.839 .0257965
1020.429 .0257922
1021.018 .0257885
1021.607 .0257855
1022.195 .0257842
1022.784 .0257839
1023.372 .0257853
1023.960 .0257876
1024.547 .0257906
1025.135 .0257940
1025.722 .0257971
1026.309 .0257994
1026.896 .0258014
1027.483 .0258029
1028.069 .0258046
1028.655 .0258069
1029.241 .0258105
1029.827 .0258153
1030.412 .0258213
1030.997 .0258287
1031.582 .0258367
1032.167 .0258437
1032.752 .0258503
1033.336 .0258549
1033.921 .0258580
1034.505 .0258600
1035.089 .0258607
1035.672 .0258605
1036.256 .0258601
1036.839 .0258590
1037.422 .0258566
1038.005 .0258535
1038.588 .0258495
1039.171 .0258435
1039.753 .0258364
1040.335 .0258278
1040.918 .0258175
1041.500 .0258063
1042.081 .0257954
1042.663 .0257840
1043.244 .0257737
1043.826 .0257641
1044.407 .0257541
1044.988 .0257448
1045.569 .0257360
1046.150 .0257274
1046.730 .0257188
1047.311 .0257104
1047.891 .0257008
1048.471 .0256901
1049.052 .0256783
1049.632 .0256640
1050.211 .0256483
1050.791 .0256316
1051.371 .0256133
1051.950 .0255936
1052.530 .0255730
1053.109 .0255516
1053.688 .0255294
1054.268 .0255071
1054.847 .0254833
1055.426 .0254583
1056.005 .0254324
1056.583 .0254060
1057.162 .0253780
1057.741 .0253502
1058.319 .0253231
1058.898 .0252979
1059.476 .0252751
1060.055 .0252551
1060.633 .0252375
1061.211 .0252223
1061.790 .0252093
1062.368 .0251977
1062.946 .0251862
1063.524 .0251761
1064.102 .0251652
1064.680 .0251547
1065.258 .0251443
1065.836 .0251335
1066.414 .0251221
1066.992 .0251110
1067.570 .0250995
1068.148 .0250871
1068.726 .0250741
1069.304 .0250610
1069.882 .0250459
1070.460 .0250312
1071.038 .0250154
1071.616 .0249980
1072.194 .0249804
1072.772 .0249623
1073.350 .0249430
1073.928 .0249251
1074.506 .0249090
1075.084 .0248944
1075.662 .0248826
1076.240 .0248746
1076.819 .0248686
1077.397 .0248647
1077.976 .0248624
1078.554 .0248591
1079.133 .0248553
1079.711 .0248514
1080.290 .0248451
1080.869 .0248391
1081.448 .0248344
1082.027 .0248299
1082.606 .0248253
1083.185 .0248210
1083.764 .0248161
1084.343 .0248093
1084.923 .0248013
1085.502 .0247909
1086.082 .0247790
1086.662 .0247689
1087.242 .0247604
1087.822 .0247555
1088.402 .0247542
1088.983 .0247557
1089.563 .0247574
1090.144 .0247590
1090.725 .0247582
1091.306 .0247552
1091.887 .0247513
1092.469 .0247478
1093.050 .0247457
1093.632 .0247469
1094.214 .0247526
1094.796 .0247632
1095.379 .0247769
1095.961 .0247926
1096.544 .0248070
1097.127 .0248206
1097.710 .0248300
1098.294 .0248365
1098.877 .0248403
1099.461 .0248435
1100.046 .0248461
1100.630 .0248494
1101.215 .0248552
1101.800 .0248628
1102.385 .0248730
1102.970 .0248856
1103.556 .0248991
1104.142 .0249146
1104.728 .0249309
1105.315 .0249480
1105.902 .0249652
1106.489 .0249829
1107.077 .0249999
1107.664 .0250171
1108.253 .0250368
1108.841 .0250586
1109.430 .0250838
1110.019 .0251137
1110.609 .0251489
1111.198 .0251853
1111.789 .0252249
1112.379 .0252642
1112.970 .0253010
1113.561 .0253336
1114.153 .0253613
1114.745 .0253838
1115.338 .0254060
1115.931 .0254289
1116.524 .0254541
1117.117 .0254862
1117.712 .0255261
1118.306 .0255716
1118.901 .0256211
1119.496 .0256734
1120.092 .0257281
1120.689 .0257824
1121.285 .0258406
1121.882 .0258994
1122.480 .0259629
1123.078 .0260344
1123.677 .0261120
1124.276 .0261996
1124.875 .0262936
1125.476 .0263904
1126.076 .0264859
1126.677 .0265785
1127.279 .0266628
1127.881 .0267427
1128.484 .0268203
1129.087 .0268954
1129.691 .0269695
1130.295 .0270441
1130.900 .0271161
1131.505 .0271856
1132.111 .0272522
1132.718 .0273143
1133.325 .0273672
1133.933 .0274217
1134.541 .0274688
1135.150 .0275206
1135.760 .0275812
1136.370 .0276518
1136.981 .0277373
1137.592 .0278357
1138.204 .0279375
1138.817 .0280479
1139.431 .0281695
1140.045 .0283050
1140.660 .0284580
1141.275 .0286346
1141.891 .0288262
1142.508 .0289579
1143.126 .0292630
1143.744 .0296531
1144.363 .0298756
1144.983 .0299174
