Measurement Sequence started on: 15-12-46-377
Integration time: 28
Scans to Average: 2 
>>>>>Begin Spectral Data<<<<<
432.689 .0000100
433.621 .0000100
434.552 .0000100
435.482 .0000100
436.410 .0000100
437.337 .0000100
438.262 .0273858
439.187 .0579202
440.110 .0959352
441.031 .1387875
441.952 .1803827
442.871 .2130642
443.789 .2309379
444.705 .2319472
445.621 .2186154
446.535 .1964232
447.447 .1713347
448.359 .1329511
449.269 .1140377
450.178 .1020841
451.086 .0936827
451.993 .0872799
452.898 .0822488
453.803 .0781085
454.706 .0746698
455.608 .0717117
456.508 .0691177
457.408 .0668386
458.306 .0648094
459.204 .0629843
460.100 .0613268
460.995 .0598525
461.888 .0585271
462.781 .0573334
463.673 .0562548
464.563 .0552672
465.452 .0543489
466.340 .0534815
467.228 .0526491
468.114 .0518529
468.999 .0510957
469.882 .0503817
470.765 .0497188
471.647 .0491200
472.528 .0485841
473.407 .0481203
474.286 .0477231
475.163 .0473825
476.040 .0470803
476.915 .0468172
477.790 .0465771
478.663 .0463617
479.535 .0461641
480.407 .0459884
481.277 .0458285
482.147 .0456962
483.015 .0455833
483.883 .0454972
484.749 .0454292
485.615 .0453848
486.479 .0453536
487.343 .0453373
488.206 .0453284
489.067 .0453268
489.928 .0453326
490.788 .0453504
491.647 .0453679
492.505 .0453979
493.362 .0454363
494.218 .0454904
495.073 .0455576
495.928 .0456516
496.781 .0457666
497.634 .0459023
498.486 .0460565
499.337 .0462284
500.187 .0464084
501.036 .0466048
501.884 .0468190
502.731 .0470604
503.578 .0473337
504.424 .0476405
505.268 .0479855
506.113 .0483808
506.956 .0488166
507.798 .0493064
508.640 .0498566
509.480 .0504818
510.320 .0511836
511.160 .0519782
511.998 .0528792
512.836 .0539082
513.672 .0550724
514.508 .0563727
515.344 .0578131
516.178 .0594156
517.012 .0611907
517.845 .0631699
518.677 .0654022
519.508 .0678921
520.339 .0706728
521.169 .0738204
521.998 .0773203
522.826 .0812243
523.654 .0855931
524.481 .0904650
525.307 .0958847
526.133 .1018741
526.958 .1083747
527.782 .1153291
528.605 .1225971
529.428 .1300256
530.250 .1371170
531.072 .1436413
531.892 .1492009
532.712 .1534654
533.532 .1562769
534.350 .1574602
535.168 .1568863
535.986 .1546439
536.802 .1508390
537.618 .1457087
538.434 .1394567
539.249 .1325206
540.063 .1251271
540.876 .1176187
541.689 .1102836
542.501 .1033213
543.313 .0969258
544.124 .0912181
544.934 .0861491
545.744 .0816577
546.553 .0776729
547.361 .0741582
548.169 .0710578
548.976 .0683054
549.783 .0658560
550.589 .0636590
551.395 .0616617
552.200 .0598569
553.004 .0582206
553.808 .0567317
554.611 .0553765
555.414 .0541454
556.216 .0530261
557.018 .0520328
557.819 .0511380
558.619 .0503173
559.419 .0495559
560.218 .0488498
561.017 .0481640
561.815 .0474925
562.613 .0468200
563.410 .0461551
564.207 .0455027
565.003 .0448625
565.799 .0442266
566.594 .0436037
567.388 .0430064
568.182 .0424336
568.976 .0418775
569.769 .0413521
570.562 .0408420
571.354 .0403495
572.145 .0398731
572.936 .0394111
573.727 .0389602
574.517 .0385278
575.307 .0381073
576.096 .0377053
576.885 .0373201
577.673 .0369605
578.461 .0366235
579.248 .0363146
580.035 .0360318
580.821 .0357670
581.607 .0355200
582.392 .0352890
583.177 .0350696
583.962 .0348631
584.746 .0346651
585.529 .0344775
586.313 .0343020
587.095 .0341391
587.878 .0339896
588.660 .0338534
589.441 .0337300
590.222 .0336189
591.003 .0335179
591.783 .0334254
592.563 .0333371
593.342 .0332535
594.121 .0331734
594.899 .0330974
595.678 .0330260
596.455 .0329594
597.233 .0328976
598.009 .0328408
598.786 .0327892
599.562 .0327401
600.338 .0326935
601.113 .0326477
601.888 .0326024
602.663 .0325569
603.437 .0325115
604.211 .0324664
604.984 .0324231
605.757 .0323831
606.530 .0323462
607.302 .0323130
608.074 .0322833
608.845 .0322550
609.616 .0322277
610.387 .0322016
611.158 .0321768
611.928 .0321517
612.697 .0321281
613.467 .0321064
614.236 .0320874
615.004 .0320701
615.773 .0320553
616.541 .0320422
617.308 .0320308
618.076 .0320196
618.843 .0320082
619.609 .0319970
620.375 .0319863
621.141 .0319757
621.907 .0319658
622.672 .0319562
623.437 .0319457
624.202 .0319330
624.966 .0319191
625.730 .0319029
626.493 .0318845
627.257 .0318643
628.020 .0318434
628.782 .0318218
629.545 .0317999
630.307 .0317766
631.068 .0317524
631.830 .0317267
632.591 .0316980
633.352 .0316663
634.112 .0316320
634.872 .0315957
635.632 .0315586
636.392 .0315211
637.151 .0314852
637.910 .0314503
638.668 .0314167
639.427 .0313829
640.185 .0313487
640.943 .0313143
641.700 .0312794
642.457 .0312446
643.214 .0312106
643.971 .0311778
644.727 .0311474
645.483 .0311194
646.239 .0310932
646.994 .0310684
647.750 .0310449
648.505 .0310214
649.259 .0309988
650.014 .0309766
650.768 .0309555
651.521 .0309364
652.275 .0309199
653.028 .0309054
653.781 .0308915
654.534 .0308782
655.286 .0308644
656.039 .0308492
656.791 .0308328
657.542 .0308142
658.294 .0307948
659.045 .0307758
659.796 .0307569
660.546 .0307382
661.297 .0307209
662.047 .0307043
662.796 .0306876
663.546 .0306705
664.295 .0306526
665.044 .0306339
665.793 .0306146
666.542 .0305959
667.290 .0305780
668.038 .0305617
668.786 .0305475
669.533 .0305348
670.281 .0305239
671.028 .0305140
671.774 .0305039
672.521 .0304940
673.267 .0304839
674.013 .0304733
674.759 .0304621
675.505 .0304509
676.250 .0304401
676.995 .0304293
677.740 .0304186
678.484 .0304080
679.229 .0303971
679.973 .0303857
680.717 .0303735
681.460 .0303608
682.204 .0303475
682.947 .0303337
683.690 .0303193
684.433 .0303045
685.175 .0302893
685.917 .0302739
686.659 .0302581
687.401 .0302419
688.142 .0302251
688.884 .0302077
689.625 .0301894
690.365 .0301702
691.106 .0301498
691.846 .0301286
692.586 .0301068
693.326 .0300846
694.066 .0300624
694.805 .0300406
695.545 .0300191
696.284 .0299980
697.022 .0299771
697.761 .0299559
698.499 .0299343
699.237 .0299121
699.975 .0298892
700.713 .0298662
701.450 .0298432
702.187 .0298209
702.924 .0297997
703.661 .0297800
704.397 .0297612
705.133 .0297434
705.869 .0297259
706.605 .0297077
707.341 .0296890
708.076 .0296695
708.811 .0296491
709.546 .0296282
710.281 .0296072
711.015 .0295861
711.749 .0295658
712.483 .0295461
713.217 .0295271
713.950 .0295086
714.684 .0294903
715.417 .0294718
716.150 .0294530
716.882 .0294338
717.615 .0294143
718.347 .0293940
719.079 .0293738
719.811 .0293530
720.542 .0293326
721.273 .0293123
722.005 .0292926
722.735 .0292734
723.466 .0292551
724.196 .0292369
724.927 .0292187
725.656 .0292005
726.386 .0291822
727.116 .0291636
727.845 .0291448
728.574 .0291260
729.303 .0291081
730.031 .0290917
730.760 .0290770
731.488 .0290637
732.216 .0290525
732.944 .0290425
733.671 .0290333
734.398 .0290250
735.125 .0290171
735.852 .0290098
736.579 .0290031
737.305 .0289976
738.031 .0289927
738.757 .0289891
739.483 .0289866
740.208 .0289847
740.933 .0289831
741.658 .0289810
742.383 .0289776
743.108 .0289737
743.832 .0289691
744.556 .0289642
745.280 .0289586
746.004 .0289534
746.727 .0289480
747.450 .0289427
748.173 .0289370
748.896 .0289310
749.618 .0289243
750.340 .0289168
751.062 .0289086
751.784 .0289002
752.506 .0288923
753.227 .0288852
753.948 .0288791
754.669 .0288739
755.389 .0288689
756.110 .0288639
756.830 .0288574
757.550 .0288497
758.269 .0288405
758.989 .0288302
759.708 .0288187
760.427 .0288069
761.146 .0287958
761.864 .0287850
762.582 .0287747
763.300 .0287641
764.018 .0287527
764.736 .0287399
765.453 .0287253
766.170 .0287087
766.887 .0286904
767.603 .0286714
768.320 .0286519
769.036 .0286329
769.751 .0286147
770.467 .0285966
771.182 .0285788
771.897 .0285611
772.612 .0285430
773.327 .0285237
774.041 .0285036
774.755 .0284830
775.469 .0284620
776.183 .0284416
776.896 .0284216
777.609 .0284027
778.322 .0283855
779.035 .0283695
779.747 .0283545
780.459 .0283402
781.171 .0283266
781.882 .0283137
782.594 .0283015
783.305 .0282897
784.016 .0282781
784.726 .0282669
785.436 .0282560
786.147 .0282453
786.856 .0282345
787.566 .0282237
788.275 .0282123
788.984 .0282006
789.693 .0281882
790.401 .0281747
791.110 .0281607
791.818 .0281459
792.525 .0281305
793.233 .0281141
793.940 .0280969
794.647 .0280790
795.353 .0280607
796.060 .0280417
796.766 .0280223
797.472 .0280022
798.177 .0279820
798.883 .0279618
799.588 .0279419
800.292 .0279225
800.997 .0279037
801.701 .0278853
802.405 .0278675
803.109 .0278498
803.812 .0278324
804.515 .0278150
805.218 .0277981
805.921 .0277813
806.623 .0277648
807.325 .0277487
808.027 .0277333
808.728 .0277181
809.429 .0277029
810.130 .0276872
810.831 .0276711
811.531 .0276541
812.231 .0276367
812.931 .0276188
813.630 .0276009
814.330 .0275833
815.029 .0275662
815.727 .0275500
816.426 .0275348
817.124 .0275204
817.821 .0275066
818.519 .0274936
819.216 .0274816
819.913 .0274703
820.609 .0274603
821.306 .0274520
822.002 .0274453
822.697 .0274403
823.393 .0274370
824.088 .0274350
824.783 .0274341
825.477 .0274338
826.171 .0274336
826.865 .0274340
827.559 .0274346
828.252 .0274358
828.945 .0274376
829.638 .0274403
830.330 .0274438
831.023 .0274475
831.714 .0274517
832.406 .0274559
833.097 .0274599
833.788 .0274634
834.479 .0274665
835.169 .0274697
835.859 .0274732
836.548 .0274772
837.238 .0274817
837.927 .0274863
838.615 .0274910
839.304 .0274954
839.992 .0274990
840.680 .0275021
841.367 .0275046
842.054 .0275066
842.741 .0275086
843.428 .0275106
844.114 .0275125
844.800 .0275147
845.485 .0275165
846.170 .0275175
846.855 .0275170
847.540 .0275147
848.224 .0275106
848.908 .0275051
849.592 .0274982
850.275 .0274899
850.958 .0274808
851.641 .0274715
852.323 .0274617
853.005 .0274520
853.687 .0274420
854.368 .0274320
855.049 .0274221
855.730 .0274121
856.410 .0274013
857.090 .0273905
857.769 .0273791
858.449 .0273675
859.128 .0273549
859.806 .0273414
860.485 .0273271
861.163 .0273121
861.840 .0272966
862.518 .0272808
863.195 .0272641
863.871 .0272473
864.548 .0272294
865.224 .0272110
865.899 .0271915
866.574 .0271714
867.249 .0271508
867.924 .0271302
868.598 .0271097
869.272 .0270896
869.946 .0270700
870.619 .0270520
871.292 .0270351
871.964 .0270193
872.636 .0270045
873.308 .0269904
873.979 .0269768
874.651 .0269639
875.321 .0269508
875.992 .0269378
876.662 .0269247
877.331 .0269118
878.001 .0268985
878.670 .0268854
879.338 .0268724
880.007 .0268599
880.675 .0268476
881.342 .0268352
882.009 .0268225
882.676 .0268091
883.343 .0267951
884.009 .0267802
884.675 .0267646
885.340 .0267486
886.005 .0267321
886.670 .0267157
887.334 .0266998
887.998 .0266842
888.662 .0266689
889.325 .0266537
889.988 .0266384
890.650 .0266228
891.312 .0266065
891.974 .0265901
892.636 .0265740
893.297 .0265584
893.957 .0265435
894.618 .0265293
895.278 .0265163
895.937 .0265040
896.596 .0264922
897.255 .0264808
897.914 .0264691
898.572 .0264570
899.230 .0264444
899.887 .0264313
900.544 .0264177
901.201 .0264033
901.857 .0263881
902.513 .0263724
903.168 .0263558
903.823 .0263384
904.478 .0263202
905.132 .0263014
905.786 .0262823
906.440 .0262622
907.093 .0262414
907.746 .0262202
908.399 .0261983
909.051 .0261757
909.703 .0261527
910.354 .0261296
911.005 .0261063
911.656 .0260832
912.306 .0260603
912.956 .0260377
913.605 .0260152
914.254 .0259932
914.903 .0259710
915.551 .0259493
916.199 .0259280
916.847 .0259069
917.494 .0258865
918.141 .0258672
918.788 .0258485
919.434 .0258311
920.079 .0258146
920.725 .0257990
921.370 .0257840
922.014 .0257697
922.658 .0257554
923.302 .0257412
923.946 .0257274
924.589 .0257137
925.231 .0256996
925.873 .0256862
926.515 .0256728
927.157 .0256597
927.798 .0256465
928.439 .0256334
929.079 .0256200
929.719 .0256066
930.359 .0255928
930.998 .0255792
931.637 .0255659
932.275 .0255533
932.913 .0255414
933.551 .0255309
934.188 .0255221
934.825 .0255146
935.462 .0255086
936.098 .0255043
936.733 .0255016
937.369 .0255004
938.004 .0255002
938.638 .0255011
939.273 .0255028
939.907 .0255049
940.540 .0255074
941.173 .0255101
941.806 .0255133
942.438 .0255166
943.070 .0255198
943.702 .0255230
944.333 .0255259
944.964 .0255286
945.594 .0255311
946.224 .0255339
946.854 .0255366
947.483 .0255393
948.112 .0255422
948.741 .0255450
949.369 .0255480
949.996 .0255516
950.624 .0255557
951.251 .0255601
951.878 .0255655
952.504 .0255714
953.130 .0255780
953.755 .0255853
954.380 .0255930
955.005 .0256010
955.629 .0256089
956.253 .0256167
956.877 .0256240
957.500 .0256313
958.123 .0256387
958.746 .0256455
959.368 .0256523
959.990 .0256590
960.611 .0256654
961.232 .0256714
961.853 .0256773
962.473 .0256831
963.093 .0256884
963.712 .0256935
964.331 .0256980
964.950 .0257024
965.569 .0257068
966.187 .0257115
966.804 .0257166
967.422 .0257226
968.039 .0257290
968.655 .0257352
969.272 .0257414
969.887 .0257471
970.503 .0257519
971.118 .0257559
971.733 .0257589
972.347 .0257608
972.961 .0257614
973.575 .0257608
974.188 .0257586
974.801 .0257551
975.414 .0257500
976.026 .0257431
976.638 .0257350
977.250 .0257261
977.861 .0257165
978.472 .0257065
979.083 .0256965
979.693 .0256863
980.303 .0256759
980.912 .0256650
981.521 .0256535
982.130 .0256413
982.738 .0256285
983.346 .0256152
983.954 .0256018
984.562 .0255878
985.169 .0255735
985.775 .0255588
986.382 .0255438
986.988 .0255280
987.594 .0255112
988.199 .0254937
988.804 .0254760
989.409 .0254585
990.013 .0254412
990.617 .0254244
991.221 .0254089
991.824 .0253945
992.427 .0253811
993.030 .0253697
993.632 .0253605
994.234 .0253538
994.836 .0253495
995.438 .0253478
996.039 .0253482
996.640 .0253499
997.240 .0253524
997.840 .0253543
998.440 .0253555
999.040 .0253553
999.639 .0253533
1000.238 .0253507
1000.836 .0253478
1001.435 .0253446
1002.033 .0253412
1002.630 .0253376
1003.228 .0253332
1003.825 .0253271
1004.422 .0253190
1005.018 .0253086
1005.614 .0252960
1006.210 .0252810
1006.806 .0252638
1007.401 .0252451
1007.996 .0252258
1008.591 .0252061
1009.186 .0251866
1009.780 .0251678
1010.374 .0251495
1010.967 .0251313
1011.561 .0251134
1012.154 .0250956
1012.746 .0250774
1013.339 .0250591
1013.931 .0250410
1014.523 .0250234
1015.115 .0250067
1015.706 .0249913
1016.298 .0249778
1016.888 .0249664
1017.479 .0249567
1018.069 .0249481
1018.660 .0249404
1019.250 .0249331
1019.839 .0249262
1020.429 .0249192
1021.018 .0249123
1021.607 .0249052
1022.195 .0248986
1022.784 .0248928
1023.372 .0248876
1023.960 .0248832
1024.547 .0248791
1025.135 .0248758
1025.722 .0248729
1026.309 .0248701
1026.896 .0248687
1027.483 .0248678
1028.069 .0248686
1028.655 .0248700
1029.241 .0248721
1029.827 .0248741
1030.412 .0248763
1030.997 .0248785
1031.582 .0248798
1032.167 .0248797
1032.752 .0248786
1033.336 .0248762
1033.921 .0248732
1034.505 .0248690
1035.089 .0248635
1035.672 .0248567
1036.256 .0248492
1036.839 .0248394
1037.422 .0248287
1038.005 .0248172
1038.588 .0248055
1039.171 .0247931
1039.753 .0247809
1040.335 .0247686
1040.918 .0247563
1041.500 .0247450
1042.081 .0247345
1042.663 .0247238
1043.244 .0247135
1043.826 .0247027
1044.407 .0246920
1044.988 .0246817
1045.569 .0246716
1046.150 .0246615
1046.730 .0246523
1047.311 .0246434
1047.891 .0246339
1048.471 .0246239
1049.052 .0246140
1049.632 .0246034
1050.211 .0245918
1050.791 .0245790
1051.371 .0245652
1051.950 .0245513
1052.530 .0245381
1053.109 .0245256
1053.688 .0245144
1054.268 .0245055
1054.847 .0244983
1055.426 .0244929
1056.005 .0244901
1056.583 .0244891
1057.162 .0244898
1057.741 .0244924
1058.319 .0244964
1058.898 .0245015
1059.476 .0245069
1060.055 .0245132
1060.633 .0245197
1061.211 .0245273
1061.790 .0245352
1062.368 .0245444
1062.946 .0245552
1063.524 .0245680
1064.102 .0245809
1064.680 .0245947
1065.258 .0246079
1065.836 .0246195
1066.414 .0246291
1066.992 .0246378
1067.570 .0246448
1068.148 .0246511
1068.726 .0246565
1069.304 .0246629
1069.882 .0246691
1070.460 .0246758
1071.038 .0246803
1071.616 .0246828
1072.194 .0246828
1072.772 .0246791
1073.350 .0246715
1073.928 .0246630
1074.506 .0246538
1075.084 .0246448
1075.662 .0246362
1076.240 .0246295
1076.819 .0246242
1077.397 .0246222
1077.976 .0246231
1078.554 .0246263
1079.133 .0246315
1079.711 .0246394
1080.290 .0246494
1080.869 .0246617
1081.448 .0246773
1082.027 .0246943
1082.606 .0247121
1083.185 .0247309
1083.764 .0247502
1084.343 .0247698
1084.923 .0247904
1085.502 .0248138
1086.082 .0248380
1086.662 .0248630
1087.242 .0248872
1087.822 .0249089
1088.402 .0249306
1088.983 .0249511
1089.563 .0249709
1090.144 .0249911
1090.725 .0250148
1091.306 .0250421
1091.887 .0250742
1092.469 .0251120
1093.050 .0251547
1093.632 .0251993
1094.214 .0252444
1094.796 .0252875
1095.379 .0253269
1095.961 .0253632
1096.544 .0253961
1097.127 .0254267
1097.710 .0254577
1098.294 .0254883
1098.877 .0255200
1099.461 .0255534
1100.046 .0255875
1100.630 .0256203
1101.215 .0256521
1101.800 .0256808
1102.385 .0257073
1102.970 .0257325
1103.556 .0257567
1104.142 .0257803
1104.728 .0258055
1105.315 .0258325
1105.902 .0258624
1106.489 .0258967
1107.077 .0259340
1107.664 .0259725
1108.253 .0260156
1108.841 .0260606
1109.430 .0261045
1110.019 .0261478
1110.609 .0261893
1111.198 .0262261
1111.789 .0262623
1112.379 .0262953
1112.970 .0263271
1113.561 .0263611
1114.153 .0263992
1114.745 .0264390
1115.338 .0264826
1115.931 .0265292
1116.524 .0265773
1117.117 .0266268
1117.712 .0266788
1118.306 .0267275
1118.901 .0267779
1119.496 .0268310
1120.092 .0268850
1120.689 .0269437
1121.285 .0270065
1121.882 .0270711
1122.480 .0271408
1123.078 .0272119
1123.677 .0272791
1124.276 .0273428
1124.875 .0274066
1125.476 .0274673
1126.076 .0275275
1126.677 .0275889
1127.279 .0276519
1127.881 .0277214
1128.484 .0277956
1129.087 .0278707
1129.691 .0279488
1130.295 .0280320
1130.900 .0281122
1131.505 .0281915
1132.111 .0282699
1132.718 .0283460
1133.325 .0284214
1133.933 .0284970
1134.541 .0285710
1135.150 .0286452
1135.760 .0287193
1136.370 .0287923
1136.981 .0288650
1137.592 .0289362
1138.204 .0290042
1138.817 .0290687
1139.431 .0291348
1140.045 .0292026
1140.660 .0292723
1141.275 .0293589
1141.891 .0294741
1142.508 .0295386
1143.126 .0296431
1143.744 .0297095
1144.363 .0301060
1144.983 .0306266
