Measurement Sequence started on: 15-12-46-377
Integration time: 28
Scans to Average: 2 
>>>>>Begin Spectral Data<<<<<
432.689 .0000100
433.621 .0000100
434.552 .0000100
435.482 .0000100
436.410 .0000100
437.337 .0000100
438.262 .0275936
439.187 .0585283
440.110 .0970518
441.031 .1405614
441.952 .1828762
442.871 .2162833
443.789 .2347333
444.705 .2361417
445.621 .2230253
446.535 .2008653
447.447 .1756468
448.359 .1369274
449.269 .1176524
450.178 .1053757
451.086 .0966304
451.993 .0898831
452.898 .0844937
453.803 .0800546
454.706 .0763392
455.608 .0731588
456.508 .0704404
457.408 .0681190
458.306 .0660856
459.204 .0642785
460.100 .0626583
460.995 .0611914
461.888 .0598580
462.781 .0586432
463.673 .0575376
464.563 .0565373
465.452 .0556248
466.340 .0547772
467.228 .0540019
468.114 .0532906
468.999 .0526313
469.882 .0520211
470.765 .0514517
471.647 .0509192
472.528 .0504244
473.407 .0499740
474.286 .0495719
475.163 .0492152
476.040 .0489091
476.915 .0486444
477.790 .0484052
478.663 .0481927
479.535 .0480051
480.407 .0478382
481.277 .0476904
482.147 .0475563
483.015 .0474331
483.883 .0473288
484.749 .0472432
485.615 .0471758
486.479 .0471248
487.343 .0470977
488.206 .0470894
489.067 .0470905
489.928 .0471080
490.788 .0471342
491.647 .0471714
492.505 .0472306
493.362 .0473015
494.218 .0473888
495.073 .0474987
495.928 .0476393
496.781 .0478054
497.634 .0480100
498.486 .0482504
499.337 .0485239
500.187 .0488358
501.036 .0491854
501.884 .0495558
502.731 .0499511
503.578 .0503761
504.424 .0508206
505.268 .0512858
506.113 .0517789
506.956 .0523035
507.798 .0528762
508.640 .0534962
509.480 .0541682
510.320 .0549046
511.160 .0557216
511.998 .0566025
512.836 .0575581
513.672 .0586025
514.508 .0597409
515.344 .0609728
516.178 .0623528
517.012 .0639110
517.845 .0656991
518.677 .0677665
519.508 .0701395
520.339 .0728839
521.169 .0760678
521.998 .0796530
522.826 .0836919
523.654 .0882114
524.481 .0931899
525.307 .0987117
526.133 .1047700
526.958 .1113264
527.782 .1183735
528.605 .1257628
529.428 .1333864
530.250 .1406610
531.072 .1473494
531.892 .1529724
532.712 .1572713
533.532 .1599801
534.350 .1608203
535.168 .1597920
535.986 .1571099
536.802 .1529074
537.618 .1475142
538.434 .1411663
539.249 .1343746
540.063 .1273167
540.876 .1202935
541.689 .1133961
542.501 .1068735
543.313 .1008327
544.124 .0953139
544.934 .0902402
545.744 .0856238
546.553 .0814352
547.361 .0776927
548.169 .0743918
548.976 .0714394
549.783 .0688058
550.589 .0664926
551.395 .0644104
552.200 .0625314
553.004 .0608204
553.808 .0592358
554.611 .0577909
555.414 .0564739
556.216 .0552508
557.018 .0541348
557.819 .0531226
558.619 .0521985
559.419 .0513513
560.218 .0505614
561.017 .0498179
561.815 .0490990
562.613 .0484048
563.410 .0477267
564.207 .0470575
565.003 .0463958
565.799 .0457501
566.594 .0451113
567.388 .0444952
568.182 .0438892
568.976 .0433082
569.769 .0427433
570.562 .0422031
571.354 .0416782
572.145 .0411690
572.936 .0406765
573.727 .0401992
574.517 .0397290
575.307 .0392713
576.096 .0388205
576.885 .0383875
577.673 .0379736
578.461 .0375822
579.248 .0372124
580.035 .0368725
580.821 .0365576
581.607 .0362644
582.392 .0359899
583.177 .0357369
583.962 .0355058
584.746 .0352991
585.529 .0351130
586.313 .0349480
587.095 .0348045
587.878 .0346741
588.660 .0345572
589.441 .0344501
590.222 .0343498
591.003 .0342560
591.783 .0341663
592.563 .0340817
593.342 .0340029
594.121 .0339281
594.899 .0338589
595.678 .0337944
596.455 .0337351
597.233 .0336771
598.009 .0336210
598.786 .0335664
599.562 .0335118
600.338 .0334582
601.113 .0334063
601.888 .0333549
602.663 .0333060
603.437 .0332591
604.211 .0332143
604.984 .0331717
605.757 .0331305
606.530 .0330902
607.302 .0330512
608.074 .0330132
608.845 .0329761
609.616 .0329391
610.387 .0329042
611.158 .0328705
611.928 .0328375
612.697 .0328056
613.467 .0327744
614.236 .0327442
615.004 .0327150
615.773 .0326865
616.541 .0326593
617.308 .0326322
618.076 .0326069
618.843 .0325822
619.609 .0325586
620.375 .0325358
621.141 .0325138
621.907 .0324925
622.672 .0324718
623.437 .0324505
624.202 .0324283
624.966 .0324054
625.730 .0323815
626.493 .0323557
627.257 .0323287
628.020 .0323013
628.782 .0322738
629.545 .0322461
630.307 .0322188
631.068 .0321910
631.830 .0321635
632.591 .0321351
633.352 .0321059
634.112 .0320754
634.872 .0320440
635.632 .0320118
636.392 .0319786
637.151 .0319457
637.910 .0319132
638.668 .0318821
639.427 .0318526
640.185 .0318250
640.943 .0317980
641.700 .0317714
642.457 .0317449
643.214 .0317184
643.971 .0316915
644.727 .0316649
645.483 .0316384
646.239 .0316118
646.994 .0315854
647.750 .0315587
648.505 .0315312
649.259 .0315038
650.014 .0314749
650.768 .0314449
651.521 .0314133
652.275 .0313812
653.028 .0313480
653.781 .0313150
654.534 .0312832
655.286 .0312521
656.039 .0312218
656.791 .0311930
657.542 .0311642
658.294 .0311356
659.045 .0311071
659.796 .0310775
660.546 .0310475
661.297 .0310173
662.047 .0309869
662.796 .0309567
663.546 .0309274
664.295 .0308997
665.044 .0308726
665.793 .0308467
666.542 .0308214
667.290 .0307959
668.038 .0307708
668.786 .0307457
669.533 .0307204
670.281 .0306956
671.028 .0306710
671.774 .0306473
672.521 .0306248
673.267 .0306037
674.013 .0305843
674.759 .0305668
675.505 .0305509
676.250 .0305362
676.995 .0305219
677.740 .0305076
678.484 .0304926
679.229 .0304766
679.973 .0304592
680.717 .0304406
681.460 .0304207
682.204 .0303999
682.947 .0303787
683.690 .0303575
684.433 .0303363
685.175 .0303151
685.917 .0302940
686.659 .0302729
687.401 .0302518
688.142 .0302311
688.884 .0302101
689.625 .0301896
690.365 .0301694
691.106 .0301490
691.846 .0301289
692.586 .0301095
693.326 .0300904
694.066 .0300720
694.805 .0300541
695.545 .0300363
696.284 .0300184
697.022 .0300008
697.761 .0299833
698.499 .0299653
699.237 .0299472
699.975 .0299285
700.713 .0299098
701.450 .0298914
702.187 .0298731
702.924 .0298550
703.661 .0298378
704.397 .0298214
705.133 .0298057
705.869 .0297908
706.605 .0297769
707.341 .0297639
708.076 .0297518
708.811 .0297396
709.546 .0297272
710.281 .0297139
711.015 .0296995
711.749 .0296832
712.483 .0296652
713.217 .0296454
713.950 .0296244
714.684 .0296022
715.417 .0295792
716.150 .0295557
716.882 .0295317
717.615 .0295070
718.347 .0294816
719.079 .0294555
719.811 .0294285
720.542 .0294012
721.273 .0293744
722.005 .0293481
722.735 .0293234
723.466 .0293003
724.196 .0292788
724.927 .0292587
725.656 .0292393
726.386 .0292203
727.116 .0292011
727.845 .0291821
728.574 .0291628
729.303 .0291435
730.031 .0291249
730.760 .0291068
731.488 .0290889
732.216 .0290717
732.944 .0290547
733.671 .0290374
734.398 .0290198
735.125 .0290014
735.852 .0289828
736.579 .0289644
737.305 .0289465
738.031 .0289298
738.757 .0289141
739.483 .0289003
740.208 .0288882
740.933 .0288772
741.658 .0288672
742.383 .0288577
743.108 .0288482
743.832 .0288379
744.556 .0288272
745.280 .0288157
746.004 .0288040
746.727 .0287921
747.450 .0287805
748.173 .0287690
748.896 .0287589
749.618 .0287494
750.340 .0287400
751.062 .0287313
751.784 .0287218
752.506 .0287108
753.227 .0286985
753.948 .0286846
754.669 .0286693
755.389 .0286525
756.110 .0286352
756.830 .0286176
757.550 .0286007
758.269 .0285839
758.989 .0285676
759.708 .0285519
760.427 .0285362
761.146 .0285197
761.864 .0285025
762.582 .0284848
763.300 .0284663
764.018 .0284479
764.736 .0284306
765.453 .0284145
766.170 .0284005
766.887 .0283880
767.603 .0283775
768.320 .0283684
769.036 .0283599
769.751 .0283514
770.467 .0283428
771.182 .0283336
771.897 .0283237
772.612 .0283131
773.327 .0283027
774.041 .0282928
774.755 .0282832
775.469 .0282743
776.183 .0282663
776.896 .0282591
777.609 .0282527
778.322 .0282467
779.035 .0282413
779.747 .0282363
780.459 .0282321
781.171 .0282283
781.882 .0282251
782.594 .0282234
783.305 .0282229
784.016 .0282239
784.726 .0282267
785.436 .0282304
786.147 .0282345
786.856 .0282392
787.566 .0282437
788.275 .0282476
788.984 .0282505
789.693 .0282528
790.401 .0282538
791.110 .0282540
791.818 .0282536
792.525 .0282520
793.233 .0282498
793.940 .0282470
794.647 .0282430
795.353 .0282381
796.060 .0282321
796.766 .0282254
797.472 .0282173
798.177 .0282084
798.883 .0281983
799.588 .0281873
800.292 .0281755
800.997 .0281626
801.701 .0281486
802.405 .0281339
803.109 .0281188
803.812 .0281034
804.515 .0280884
805.218 .0280739
805.921 .0280599
806.623 .0280466
807.325 .0280336
808.027 .0280209
808.728 .0280081
809.429 .0279945
810.130 .0279799
810.831 .0279645
811.531 .0279481
812.231 .0279309
812.931 .0279135
813.630 .0278957
814.330 .0278780
815.029 .0278600
815.727 .0278418
816.426 .0278235
817.124 .0278050
817.821 .0277864
818.519 .0277675
819.216 .0277491
819.913 .0277311
820.609 .0277137
821.306 .0276979
822.002 .0276833
822.697 .0276702
823.393 .0276586
824.088 .0276480
824.783 .0276376
825.477 .0276275
826.171 .0276173
826.865 .0276070
827.559 .0275970
828.252 .0275874
828.945 .0275784
829.638 .0275702
830.330 .0275628
831.023 .0275557
831.714 .0275484
832.406 .0275407
833.097 .0275318
833.788 .0275219
834.479 .0275107
835.169 .0274984
835.859 .0274861
836.548 .0274743
837.238 .0274634
837.927 .0274534
838.615 .0274442
839.304 .0274358
839.992 .0274276
840.680 .0274185
841.367 .0274084
842.054 .0273972
842.741 .0273851
843.428 .0273723
844.114 .0273591
844.800 .0273464
845.485 .0273338
846.170 .0273215
846.855 .0273095
847.540 .0272968
848.224 .0272833
848.908 .0272687
849.592 .0272533
850.275 .0272374
850.958 .0272206
851.641 .0272039
852.323 .0271871
853.005 .0271702
853.687 .0271530
854.368 .0271350
855.049 .0271167
855.730 .0270980
856.410 .0270786
857.090 .0270589
857.769 .0270390
858.449 .0270188
859.128 .0269988
859.806 .0269789
860.485 .0269593
861.163 .0269396
861.840 .0269196
862.518 .0268993
863.195 .0268786
863.871 .0268575
864.548 .0268362
865.224 .0268151
865.899 .0267944
866.574 .0267741
867.249 .0267545
867.924 .0267360
868.598 .0267190
869.272 .0267037
869.946 .0266902
870.619 .0266779
871.292 .0266671
871.964 .0266571
872.636 .0266480
873.308 .0266394
873.979 .0266311
874.651 .0266224
875.321 .0266140
875.992 .0266057
876.662 .0265979
877.331 .0265908
878.001 .0265848
878.670 .0265793
879.338 .0265743
880.007 .0265696
880.675 .0265649
881.342 .0265600
882.009 .0265559
882.676 .0265518
883.343 .0265482
884.009 .0265455
884.675 .0265435
885.340 .0265422
886.005 .0265420
886.670 .0265428
887.334 .0265444
887.998 .0265469
888.662 .0265505
889.325 .0265541
889.988 .0265583
890.650 .0265630
891.312 .0265675
891.974 .0265717
892.636 .0265760
893.297 .0265801
893.957 .0265843
894.618 .0265891
895.278 .0265947
895.937 .0266007
896.596 .0266082
897.255 .0266164
897.914 .0266248
898.572 .0266336
899.230 .0266424
899.887 .0266502
900.544 .0266575
901.201 .0266637
901.857 .0266686
902.513 .0266723
903.168 .0266752
903.823 .0266765
904.478 .0266761
905.132 .0266741
905.786 .0266700
906.440 .0266637
907.093 .0266554
907.746 .0266448
908.399 .0266327
909.051 .0266196
909.703 .0266051
910.354 .0265895
911.005 .0265736
911.656 .0265576
912.306 .0265410
912.956 .0265246
913.605 .0265088
914.254 .0264937
914.903 .0264797
915.551 .0264671
916.199 .0264559
916.847 .0264462
917.494 .0264379
918.141 .0264310
918.788 .0264253
919.434 .0264211
920.079 .0264173
920.725 .0264141
921.370 .0264114
922.014 .0264084
922.658 .0264049
923.302 .0264010
923.946 .0263962
924.589 .0263899
925.231 .0263820
925.873 .0263725
926.515 .0263612
927.157 .0263480
927.798 .0263328
928.439 .0263155
929.079 .0262969
929.719 .0262768
930.359 .0262553
930.998 .0262334
931.637 .0262116
932.275 .0261898
932.913 .0261685
933.551 .0261480
934.188 .0261284
934.825 .0261097
935.462 .0260926
936.098 .0260766
936.733 .0260618
937.369 .0260486
938.004 .0260367
938.638 .0260257
939.273 .0260158
939.907 .0260066
940.540 .0259979
941.173 .0259899
941.806 .0259830
942.438 .0259768
943.070 .0259719
943.702 .0259680
944.333 .0259650
944.964 .0259624
945.594 .0259598
946.224 .0259567
946.854 .0259534
947.483 .0259504
948.112 .0259477
948.741 .0259458
949.369 .0259455
949.996 .0259465
950.624 .0259480
951.251 .0259495
951.878 .0259501
952.504 .0259485
953.130 .0259444
953.755 .0259370
954.380 .0259271
955.005 .0259152
955.629 .0259027
956.253 .0258897
956.877 .0258780
957.500 .0258675
958.123 .0258572
958.746 .0258471
959.368 .0258368
959.990 .0258250
960.611 .0258117
961.232 .0257969
961.853 .0257813
962.473 .0257652
963.093 .0257494
963.712 .0257339
964.331 .0257195
964.950 .0257059
965.569 .0256929
966.187 .0256801
966.804 .0256681
967.422 .0256559
968.039 .0256433
968.655 .0256308
969.272 .0256175
969.887 .0256033
970.503 .0255879
971.118 .0255718
971.733 .0255552
972.347 .0255380
972.961 .0255206
973.575 .0255031
974.188 .0254858
974.801 .0254682
975.414 .0254501
976.026 .0254317
976.638 .0254123
977.250 .0253917
977.861 .0253701
978.472 .0253477
979.083 .0253246
979.693 .0253004
980.303 .0252759
980.912 .0252514
981.521 .0252267
982.130 .0252022
982.738 .0251780
983.346 .0251543
983.954 .0251313
984.562 .0251093
985.169 .0250879
985.775 .0250666
986.382 .0250452
986.988 .0250232
987.594 .0250010
988.199 .0249784
988.804 .0249558
989.409 .0249335
990.013 .0249127
990.617 .0248929
991.221 .0248743
991.824 .0248579
992.427 .0248433
993.030 .0248300
993.632 .0248182
994.234 .0248067
994.836 .0247963
995.438 .0247860
996.039 .0247762
996.640 .0247662
997.240 .0247570
997.840 .0247479
998.440 .0247391
999.040 .0247302
999.639 .0247218
1000.238 .0247128
1000.836 .0247037
1001.435 .0246937
1002.033 .0246826
1002.630 .0246704
1003.228 .0246571
1003.825 .0246427
1004.422 .0246285
1005.018 .0246143
1005.614 .0246012
1006.210 .0245887
1006.806 .0245769
1007.401 .0245654
1007.996 .0245546
1008.591 .0245444
1009.186 .0245347
1009.780 .0245259
1010.374 .0245185
1010.967 .0245129
1011.561 .0245097
1012.154 .0245085
1012.746 .0245091
1013.339 .0245110
1013.931 .0245138
1014.523 .0245162
1015.115 .0245176
1015.706 .0245189
1016.298 .0245206
1016.888 .0245234
1017.479 .0245275
1018.069 .0245327
1018.660 .0245392
1019.250 .0245468
1019.839 .0245539
1020.429 .0245598
1021.018 .0245647
1021.607 .0245688
1022.195 .0245715
1022.784 .0245739
1023.372 .0245765
1023.960 .0245799
1024.547 .0245847
1025.135 .0245908
1025.722 .0245969
1026.309 .0246035
1026.896 .0246093
1027.483 .0246142
1028.069 .0246188
1028.655 .0246228
1029.241 .0246267
1029.827 .0246311
1030.412 .0246361
1030.997 .0246414
1031.582 .0246466
1032.167 .0246524
1032.752 .0246582
1033.336 .0246646
1033.921 .0246712
1034.505 .0246789
1035.089 .0246882
1035.672 .0246990
1036.256 .0247114
1036.839 .0247254
1037.422 .0247402
1038.005 .0247555
1038.588 .0247705
1039.171 .0247854
1039.753 .0248003
1040.335 .0248152
1040.918 .0248299
1041.500 .0248443
1042.081 .0248581
1042.663 .0248706
1043.244 .0248813
1043.826 .0248895
1044.407 .0248944
1044.988 .0248966
1045.569 .0248960
1046.150 .0248935
1046.730 .0248901
1047.311 .0248865
1047.891 .0248826
1048.471 .0248789
1049.052 .0248751
1049.632 .0248713
1050.211 .0248683
1050.791 .0248661
1051.371 .0248651
1051.950 .0248660
1052.530 .0248700
1053.109 .0248770
1053.688 .0248867
1054.268 .0248997
1054.847 .0249146
1055.426 .0249312
1056.005 .0249483
1056.583 .0249649
1057.162 .0249812
1057.741 .0249977
1058.319 .0250149
1058.898 .0250318
1059.476 .0250488
1060.055 .0250650
1060.633 .0250799
1061.211 .0250939
1061.790 .0251073
1062.368 .0251192
1062.946 .0251307
1063.524 .0251422
1064.102 .0251536
1064.680 .0251654
1065.258 .0251768
1065.836 .0251882
1066.414 .0251989
1066.992 .0252077
1067.570 .0252146
1068.148 .0252186
1068.726 .0252221
1069.304 .0252246
1069.882 .0252269
1070.460 .0252298
1071.038 .0252334
1071.616 .0252372
1072.194 .0252416
1072.772 .0252465
1073.350 .0252514
1073.928 .0252562
1074.506 .0252615
1075.084 .0252674
1075.662 .0252733
1076.240 .0252796
1076.819 .0252862
1077.397 .0252932
1077.976 .0253024
1078.554 .0253113
1079.133 .0253209
1079.711 .0253317
1080.290 .0253433
1080.869 .0253546
1081.448 .0253664
1082.027 .0253775
1082.606 .0253889
1083.185 .0254000
1083.764 .0254121
1084.343 .0254253
1084.923 .0254414
1085.502 .0254613
1086.082 .0254842
1086.662 .0255119
1087.242 .0255428
1087.822 .0255734
1088.402 .0256048
1088.983 .0256346
1089.563 .0256627
1090.144 .0256875
1090.725 .0257112
1091.306 .0257329
1091.887 .0257548
1092.469 .0257773
1093.050 .0257998
1093.632 .0258232
1094.214 .0258473
1094.796 .0258701
1095.379 .0258902
1095.961 .0259105
1096.544 .0259293
1097.127 .0259466
1097.710 .0259655
1098.294 .0259850
1098.877 .0260084
1099.461 .0260350
1100.046 .0260661
1100.630 .0261003
1101.215 .0261382
1101.800 .0261776
1102.385 .0262154
1102.970 .0262527
1103.556 .0262848
1104.142 .0263122
1104.728 .0263352
1105.315 .0263551
1105.902 .0263725
1106.489 .0263899
1107.077 .0264102
1107.664 .0264342
1108.253 .0264634
1108.841 .0264955
1109.430 .0265293
1110.019 .0265662
1110.609 .0266038
1111.198 .0266422
1111.789 .0266818
1112.379 .0267247
1112.970 .0267701
1113.561 .0268206
1114.153 .0268754
1114.745 .0269336
1115.338 .0269953
1115.931 .0270568
1116.524 .0271141
1117.117 .0271655
1117.712 .0272125
1118.306 .0272554
1118.901 .0272985
1119.496 .0273420
1120.092 .0273867
1120.689 .0274347
1121.285 .0274837
1121.882 .0275297
1122.480 .0275739
1123.078 .0276158
1123.677 .0276570
1124.276 .0276959
1124.875 .0277378
1125.476 .0277819
1126.076 .0278341
1126.677 .0278956
1127.279 .0279649
1127.881 .0280385
1128.484 .0281126
1129.087 .0281785
1129.691 .0282382
1130.295 .0282887
1130.900 .0283296
1131.505 .0283614
1132.111 .0283910
1132.718 .0284169
1133.325 .0284464
1133.933 .0284817
1134.541 .0285303
1135.150 .0285894
1135.760 .0286612
1136.370 .0287405
1136.981 .0288289
1137.592 .0289243
1138.204 .0290301
1138.817 .0291494
1139.431 .0292856
1140.045 .0294452
1140.660 .0296255
1141.275 .0298182
1141.891 .0300476
1142.508 .0302521
1143.126 .0306909
1143.744 .0307744
1144.363 .0307960
1144.983 .0316160
