Measurement Sequence started on: 15-12-46-377
Integration time: 28
Scans to Average: 2 
>>>>>Begin Spectral Data<<<<<
432.689 .0000100
433.621 .0000100
434.552 .0000100
435.482 .0000100
436.410 .0000100
437.337 .0000100
438.262 .0257082
439.187 .0544325
440.110 .0901635
441.031 .1304179
441.952 .1695156
442.871 .2002663
443.789 .2171128
444.705 .2181315
445.621 .2056980
446.535 .1849510
447.447 .1614762
448.359 .1255298
449.269 .1078211
450.178 .0966645
451.086 .0888353
451.993 .0828287
452.898 .0780764
453.803 .0741636
454.706 .0708891
455.608 .0680558
456.508 .0655767
457.408 .0634017
458.306 .0614612
459.204 .0597243
460.100 .0581640
460.995 .0567633
461.888 .0554849
462.781 .0543078
463.673 .0532046
464.563 .0521881
465.452 .0512358
466.340 .0503431
467.228 .0495287
468.114 .0487815
468.999 .0481178
469.882 .0475285
470.765 .0470008
471.647 .0465227
472.528 .0460796
473.407 .0456633
474.286 .0452664
475.163 .0448985
476.040 .0445525
476.915 .0442388
477.790 .0439736
478.663 .0437538
479.535 .0435803
480.407 .0434646
481.277 .0433942
482.147 .0433614
483.015 .0433593
483.883 .0433685
484.749 .0433848
485.615 .0434186
486.479 .0434567
487.343 .0434981
488.206 .0435451
489.067 .0435996
489.928 .0436529
490.788 .0437168
491.647 .0437894
492.505 .0438674
493.362 .0439590
494.218 .0440571
495.073 .0441543
495.928 .0442701
496.781 .0443917
497.634 .0445332
498.486 .0446901
499.337 .0448719
500.187 .0450679
501.036 .0452948
501.884 .0455635
502.731 .0458662
503.578 .0462060
504.424 .0465824
505.268 .0469772
506.113 .0473960
506.956 .0478345
507.798 .0483017
508.640 .0487930
509.480 .0493291
510.320 .0498969
511.160 .0505212
511.998 .0512118
512.836 .0519881
513.672 .0528421
514.508 .0537942
515.344 .0548636
516.178 .0560587
517.012 .0574311
517.845 .0590266
518.677 .0608956
519.508 .0630858
520.339 .0656342
521.169 .0685878
521.998 .0719365
522.826 .0757418
523.654 .0799568
524.481 .0845791
525.307 .0896570
526.133 .0951572
526.958 .1010517
527.782 .1073438
528.605 .1139871
529.428 .1208733
530.250 .1275523
531.072 .1338434
531.892 .1393206
532.712 .1436715
533.532 .1466836
534.350 .1480526
535.168 .1476415
535.986 .1456000
536.802 .1420348
537.618 .1372040
538.434 .1313928
539.249 .1250655
540.063 .1183865
540.876 .1116687
541.689 .1051358
542.501 .0988857
543.313 .0931033
544.124 .0878696
544.934 .0830708
545.744 .0787139
546.553 .0747903
547.361 .0712941
548.169 .0682111
548.976 .0654860
549.783 .0630796
550.589 .0609361
551.395 .0590124
552.200 .0572874
553.004 .0557165
553.808 .0542839
554.611 .0529937
555.414 .0518252
556.216 .0507733
557.018 .0498268
557.819 .0489714
558.619 .0481971
559.419 .0474794
560.218 .0468062
561.017 .0461521
561.815 .0455160
562.613 .0448859
563.410 .0442627
564.207 .0436564
565.003 .0430699
565.799 .0425056
566.594 .0419651
567.388 .0414588
568.182 .0409843
568.976 .0405358
569.769 .0401118
570.562 .0396971
571.354 .0392916
572.145 .0388876
572.936 .0384851
573.727 .0380808
574.517 .0376779
575.307 .0372764
576.096 .0368778
576.885 .0364861
577.673 .0361015
578.461 .0357263
579.248 .0353612
580.035 .0350073
580.821 .0346659
581.607 .0343370
582.392 .0340254
583.177 .0337335
583.962 .0334648
584.746 .0332215
585.529 .0330015
586.313 .0328064
587.095 .0326347
587.878 .0324854
588.660 .0323562
589.441 .0322442
590.222 .0321436
591.003 .0320544
591.783 .0319737
592.563 .0318998
593.342 .0318311
594.121 .0317663
594.899 .0317048
595.678 .0316442
596.455 .0315853
597.233 .0315264
598.009 .0314689
598.786 .0314128
599.562 .0313572
600.338 .0313027
601.113 .0312500
601.888 .0311985
602.663 .0311484
603.437 .0311006
604.211 .0310543
604.984 .0310088
605.757 .0309651
606.530 .0309220
607.302 .0308797
608.074 .0308387
608.845 .0307998
609.616 .0307625
610.387 .0307289
611.158 .0306973
611.928 .0306676
612.697 .0306394
613.467 .0306120
614.236 .0305850
615.004 .0305580
615.773 .0305322
616.541 .0305083
617.308 .0304873
618.076 .0304703
618.843 .0304572
619.609 .0304489
620.375 .0304443
621.141 .0304425
621.907 .0304412
622.672 .0304395
623.437 .0304366
624.202 .0304316
624.966 .0304252
625.730 .0304180
626.493 .0304105
627.257 .0304026
628.020 .0303955
628.782 .0303885
629.545 .0303797
630.307 .0303691
631.068 .0303561
631.830 .0303403
632.591 .0303215
633.352 .0303004
634.112 .0302776
634.872 .0302546
635.632 .0302322
636.392 .0302098
637.151 .0301883
637.910 .0301677
638.668 .0301476
639.427 .0301265
640.185 .0301049
640.943 .0300820
641.700 .0300581
642.457 .0300341
643.214 .0300100
643.971 .0299855
644.727 .0299611
645.483 .0299371
646.239 .0299134
646.994 .0298900
647.750 .0298672
648.505 .0298448
649.259 .0298232
650.014 .0298020
650.768 .0297809
651.521 .0297593
652.275 .0297383
653.028 .0297164
653.781 .0296934
654.534 .0296691
655.286 .0296436
656.039 .0296168
656.791 .0295897
657.542 .0295618
658.294 .0295342
659.045 .0295064
659.796 .0294780
660.546 .0294487
661.297 .0294190
662.047 .0293882
662.796 .0293566
663.546 .0293244
664.295 .0292934
665.044 .0292622
665.793 .0292328
666.542 .0292048
667.290 .0291787
668.038 .0291539
668.786 .0291296
669.533 .0291057
670.281 .0290821
671.028 .0290586
671.774 .0290349
672.521 .0290122
673.267 .0289915
674.013 .0289719
674.759 .0289539
675.505 .0289375
676.250 .0289225
676.995 .0289076
677.740 .0288936
678.484 .0288797
679.229 .0288665
679.973 .0288538
680.717 .0288412
681.460 .0288295
682.204 .0288183
682.947 .0288079
683.690 .0287976
684.433 .0287874
685.175 .0287771
685.917 .0287661
686.659 .0287558
687.401 .0287462
688.142 .0287374
688.884 .0287296
689.625 .0287225
690.365 .0287163
691.106 .0287099
691.846 .0287034
692.586 .0286964
693.326 .0286894
694.066 .0286821
694.805 .0286746
695.545 .0286670
696.284 .0286597
697.022 .0286528
697.761 .0286460
698.499 .0286391
699.237 .0286315
699.975 .0286230
700.713 .0286137
701.450 .0286033
702.187 .0285923
702.924 .0285803
703.661 .0285683
704.397 .0285561
705.133 .0285440
705.869 .0285319
706.605 .0285201
707.341 .0285086
708.076 .0284971
708.811 .0284856
709.546 .0284735
710.281 .0284613
711.015 .0284485
711.749 .0284349
712.483 .0284208
713.217 .0284061
713.950 .0283909
714.684 .0283746
715.417 .0283579
716.150 .0283405
716.882 .0283225
717.615 .0283040
718.347 .0282848
719.079 .0282657
719.811 .0282464
720.542 .0282272
721.273 .0282078
722.005 .0281884
722.735 .0281688
723.466 .0281489
724.196 .0281283
724.927 .0281066
725.656 .0280843
726.386 .0280611
727.116 .0280374
727.845 .0280137
728.574 .0279898
729.303 .0279660
730.031 .0279426
730.760 .0279194
731.488 .0278958
732.216 .0278722
732.944 .0278485
733.671 .0278247
734.398 .0278010
735.125 .0277772
735.852 .0277532
736.579 .0277296
737.305 .0277067
738.031 .0276840
738.757 .0276620
739.483 .0276411
740.208 .0276207
740.933 .0276011
741.658 .0275821
742.383 .0275636
743.108 .0275454
743.832 .0275273
744.556 .0275091
745.280 .0274905
746.004 .0274718
746.727 .0274529
747.450 .0274343
748.173 .0274160
748.896 .0273983
749.618 .0273805
750.340 .0273630
751.062 .0273455
751.784 .0273273
752.506 .0273086
753.227 .0272892
753.948 .0272688
754.669 .0272474
755.389 .0272256
756.110 .0272038
756.830 .0271821
757.550 .0271615
758.269 .0271418
758.989 .0271236
759.708 .0271069
760.427 .0270919
761.146 .0270785
761.864 .0270668
762.582 .0270563
763.300 .0270468
764.018 .0270383
764.736 .0270303
765.453 .0270227
766.170 .0270159
766.887 .0270095
767.603 .0270034
768.320 .0269972
769.036 .0269913
769.751 .0269853
770.467 .0269795
771.182 .0269735
771.897 .0269676
772.612 .0269616
773.327 .0269555
774.041 .0269497
774.755 .0269443
775.469 .0269391
776.183 .0269350
776.896 .0269322
777.609 .0269302
778.322 .0269294
779.035 .0269298
779.747 .0269314
780.459 .0269345
781.171 .0269384
781.882 .0269428
782.594 .0269480
783.305 .0269537
784.016 .0269594
784.726 .0269656
785.436 .0269722
786.147 .0269784
786.856 .0269843
787.566 .0269898
788.275 .0269944
788.984 .0269983
789.693 .0270013
790.401 .0270031
791.110 .0270041
791.818 .0270044
792.525 .0270037
793.233 .0270033
793.940 .0270031
794.647 .0270027
795.353 .0270022
796.060 .0270018
796.766 .0270007
797.472 .0269989
798.177 .0269968
798.883 .0269939
799.588 .0269907
800.292 .0269874
800.997 .0269837
801.701 .0269803
802.405 .0269769
803.109 .0269735
803.812 .0269695
804.515 .0269645
805.218 .0269576
805.921 .0269485
806.623 .0269375
807.325 .0269245
808.027 .0269099
808.728 .0268941
809.429 .0268774
810.130 .0268599
810.831 .0268423
811.531 .0268243
812.231 .0268061
812.931 .0267874
813.630 .0267677
814.330 .0267474
815.029 .0267266
815.727 .0267056
816.426 .0266850
817.124 .0266650
817.821 .0266459
818.519 .0266272
819.216 .0266094
819.913 .0265923
820.609 .0265755
821.306 .0265590
822.002 .0265426
822.697 .0265263
823.393 .0265107
824.088 .0264955
824.783 .0264804
825.477 .0264656
826.171 .0264509
826.865 .0264359
827.559 .0264202
828.252 .0264043
828.945 .0263881
829.638 .0263712
830.330 .0263547
831.023 .0263377
831.714 .0263207
832.406 .0263038
833.097 .0262863
833.788 .0262679
834.479 .0262485
835.169 .0262279
835.859 .0262065
836.548 .0261848
837.238 .0261633
837.927 .0261417
838.615 .0261207
839.304 .0261007
839.992 .0260807
840.680 .0260614
841.367 .0260421
842.054 .0260227
842.741 .0260033
843.428 .0259839
844.114 .0259647
844.800 .0259462
845.485 .0259285
846.170 .0259114
846.855 .0258945
847.540 .0258778
848.224 .0258605
848.908 .0258430
849.592 .0258248
850.275 .0258059
850.958 .0257863
851.641 .0257667
852.323 .0257469
853.005 .0257272
853.687 .0257075
854.368 .0256879
855.049 .0256681
855.730 .0256481
856.410 .0256273
857.090 .0256064
857.769 .0255848
858.449 .0255636
859.128 .0255425
859.806 .0255220
860.485 .0255026
861.163 .0254841
861.840 .0254668
862.518 .0254503
863.195 .0254341
863.871 .0254184
864.548 .0254026
865.224 .0253873
865.899 .0253720
866.574 .0253574
867.249 .0253438
867.924 .0253315
868.598 .0253204
869.272 .0253110
869.946 .0253031
870.619 .0252963
871.292 .0252908
871.964 .0252860
872.636 .0252822
873.308 .0252790
873.979 .0252766
874.651 .0252749
875.321 .0252739
875.992 .0252737
876.662 .0252737
877.331 .0252742
878.001 .0252752
878.670 .0252760
879.338 .0252774
880.007 .0252791
880.675 .0252817
881.342 .0252851
882.009 .0252897
882.676 .0252950
883.343 .0253012
884.009 .0253082
884.675 .0253155
885.340 .0253233
886.005 .0253313
886.670 .0253396
887.334 .0253486
887.998 .0253589
888.662 .0253706
889.325 .0253839
889.988 .0253988
890.650 .0254148
891.312 .0254315
891.974 .0254483
892.636 .0254645
893.297 .0254801
893.957 .0254952
894.618 .0255097
895.278 .0255235
895.937 .0255371
896.596 .0255509
897.255 .0255645
897.914 .0255784
898.572 .0255916
899.230 .0256039
899.887 .0256150
900.544 .0256250
901.201 .0256338
901.857 .0256416
902.513 .0256485
903.168 .0256543
903.823 .0256589
904.478 .0256625
905.132 .0256643
905.786 .0256646
906.440 .0256634
907.093 .0256607
907.746 .0256560
908.399 .0256500
909.051 .0256430
909.703 .0256352
910.354 .0256270
911.005 .0256184
911.656 .0256091
912.306 .0255994
912.956 .0255890
913.605 .0255778
914.254 .0255659
914.903 .0255540
915.551 .0255419
916.199 .0255305
916.847 .0255196
917.494 .0255097
918.141 .0255009
918.788 .0254932
919.434 .0254862
920.079 .0254793
920.725 .0254724
921.370 .0254649
922.014 .0254566
922.658 .0254470
923.302 .0254359
923.946 .0254239
924.589 .0254110
925.231 .0253976
925.873 .0253837
926.515 .0253693
927.157 .0253550
927.798 .0253400
928.439 .0253245
929.079 .0253075
929.719 .0252896
930.359 .0252704
930.998 .0252500
931.637 .0252287
932.275 .0252071
932.913 .0251860
933.551 .0251653
934.188 .0251451
934.825 .0251259
935.462 .0251071
936.098 .0250895
936.733 .0250723
937.369 .0250555
938.004 .0250387
938.638 .0250216
939.273 .0250041
939.907 .0249871
940.540 .0249705
941.173 .0249547
941.806 .0249400
942.438 .0249267
943.070 .0249140
943.702 .0249015
944.333 .0248888
944.964 .0248755
945.594 .0248606
946.224 .0248445
946.854 .0248263
947.483 .0248071
948.112 .0247871
948.741 .0247668
949.369 .0247466
949.996 .0247270
950.624 .0247077
951.251 .0246885
951.878 .0246695
952.504 .0246504
953.130 .0246304
953.755 .0246098
954.380 .0245883
955.005 .0245662
955.629 .0245440
956.253 .0245220
956.877 .0245002
957.500 .0244794
958.123 .0244590
958.746 .0244387
959.368 .0244183
959.990 .0243972
960.611 .0243750
961.232 .0243514
961.853 .0243268
962.473 .0243013
963.093 .0242751
963.712 .0242488
964.331 .0242227
964.950 .0241974
965.569 .0241728
966.187 .0241488
966.804 .0241253
967.422 .0241026
968.039 .0240801
968.655 .0240577
969.272 .0240354
969.887 .0240134
970.503 .0239921
971.118 .0239714
971.733 .0239515
972.347 .0239322
972.961 .0239133
973.575 .0238948
974.188 .0238758
974.801 .0238562
975.414 .0238358
976.026 .0238147
976.638 .0237928
977.250 .0237700
977.861 .0237472
978.472 .0237248
979.083 .0237032
979.693 .0236826
980.303 .0236628
980.912 .0236439
981.521 .0236256
982.130 .0236075
982.738 .0235896
983.346 .0235720
983.954 .0235548
984.562 .0235380
985.169 .0235215
985.775 .0235051
986.382 .0234897
986.988 .0234749
987.594 .0234609
988.199 .0234470
988.804 .0234336
989.409 .0234201
990.013 .0234067
990.617 .0233934
991.221 .0233797
991.824 .0233667
992.427 .0233543
993.030 .0233427
993.632 .0233322
994.234 .0233229
994.836 .0233149
995.438 .0233082
996.039 .0233028
996.640 .0232972
997.240 .0232922
997.840 .0232881
998.440 .0232848
999.040 .0232821
999.639 .0232807
1000.238 .0232803
1000.836 .0232802
1001.435 .0232803
1002.033 .0232797
1002.630 .0232784
1003.228 .0232768
1003.825 .0232750
1004.422 .0232737
1005.018 .0232734
1005.614 .0232747
1006.210 .0232773
1006.806 .0232817
1007.401 .0232874
1007.996 .0232937
1008.591 .0233002
1009.186 .0233074
1009.780 .0233145
1010.374 .0233219
1010.967 .0233303
1011.561 .0233401
1012.154 .0233510
1012.746 .0233628
1013.339 .0233753
1013.931 .0233882
1014.523 .0234010
1015.115 .0234139
1015.706 .0234268
1016.298 .0234404
1016.888 .0234551
1017.479 .0234706
1018.069 .0234873
1018.660 .0235050
1019.250 .0235229
1019.839 .0235413
1020.429 .0235595
1021.018 .0235780
1021.607 .0235966
1022.195 .0236158
1022.784 .0236368
1023.372 .0236587
1023.960 .0236813
1024.547 .0237043
1025.135 .0237278
1025.722 .0237507
1026.309 .0237722
1026.896 .0237935
1027.483 .0238144
1028.069 .0238350
1028.655 .0238560
1029.241 .0238769
1029.827 .0238978
1030.412 .0239191
1030.997 .0239396
1031.582 .0239597
1032.167 .0239802
1032.752 .0240013
1033.336 .0240228
1033.921 .0240457
1034.505 .0240699
1035.089 .0240938
1035.672 .0241172
1036.256 .0241404
1036.839 .0241610
1037.422 .0241798
1038.005 .0241968
1038.588 .0242124
1039.171 .0242280
1039.753 .0242447
1040.335 .0242619
1040.918 .0242801
1041.500 .0242992
1042.081 .0243177
1042.663 .0243341
1043.244 .0243493
1043.826 .0243616
1044.407 .0243709
1044.988 .0243791
1045.569 .0243869
1046.150 .0243955
1046.730 .0244068
1047.311 .0244206
1047.891 .0244371
1048.471 .0244559
1049.052 .0244753
1049.632 .0244944
1050.211 .0245138
1050.791 .0245335
1051.371 .0245519
1051.950 .0245698
1052.530 .0245882
1053.109 .0246068
1053.688 .0246252
1054.268 .0246444
1054.847 .0246634
1055.426 .0246822
1056.005 .0246993
1056.583 .0247143
1057.162 .0247271
1057.741 .0247384
1058.319 .0247472
1058.898 .0247542
1059.476 .0247589
1060.055 .0247622
1060.633 .0247629
1061.211 .0247634
1061.790 .0247640
1062.368 .0247644
1062.946 .0247648
1063.524 .0247669
1064.102 .0247700
1064.680 .0247751
1065.258 .0247815
1065.836 .0247895
1066.414 .0247985
1066.992 .0248085
1067.570 .0248176
1068.148 .0248260
1068.726 .0248350
1069.304 .0248446
1069.882 .0248541
1070.460 .0248646
1071.038 .0248747
1071.616 .0248844
1072.194 .0248936
1072.772 .0249015
1073.350 .0249080
1073.928 .0249142
1074.506 .0249203
1075.084 .0249266
1075.662 .0249352
1076.240 .0249462
1076.819 .0249587
1077.397 .0249734
1077.976 .0249887
1078.554 .0250024
1079.133 .0250134
1079.711 .0250201
1080.290 .0250229
1080.869 .0250225
1081.448 .0250195
1082.027 .0250163
1082.606 .0250158
1083.185 .0250196
1083.764 .0250274
1084.343 .0250382
1084.923 .0250505
1085.502 .0250622
1086.082 .0250726
1086.662 .0250801
1087.242 .0250857
1087.822 .0250916
1088.402 .0250982
1088.983 .0251095
1089.563 .0251254
1090.144 .0251464
1090.725 .0251724
1091.306 .0252010
1091.887 .0252288
1092.469 .0252535
1093.050 .0252736
1093.632 .0252887
1094.214 .0252988
1094.796 .0253056
1095.379 .0253095
1095.961 .0253144
1096.544 .0253211
1097.127 .0253289
1097.710 .0253373
1098.294 .0253464
1098.877 .0253531
1099.461 .0253585
1100.046 .0253623
1100.630 .0253641
1101.215 .0253658
1101.800 .0253693
1102.385 .0253748
1102.970 .0253836
1103.556 .0253949
1104.142 .0254096
1104.728 .0254249
1105.315 .0254420
1105.902 .0254564
1106.489 .0254679
1107.077 .0254777
1107.664 .0254856
1108.253 .0254904
1108.841 .0254922
1109.430 .0254928
1110.019 .0254916
1110.609 .0254894
1111.198 .0254874
1111.789 .0254848
1112.379 .0254841
1112.970 .0254859
1113.561 .0254916
1114.153 .0255012
1114.745 .0255170
1115.338 .0255379
1115.931 .0255643
1116.524 .0255942
1117.117 .0256270
1117.712 .0256616
1118.306 .0256979
1118.901 .0257385
1119.496 .0257820
1120.092 .0258300
1120.689 .0258836
1121.285 .0259426
1121.882 .0260053
1122.480 .0260672
1123.078 .0261290
1123.677 .0261855
1124.276 .0262370
1124.875 .0262812
1125.476 .0263159
1126.076 .0263419
1126.677 .0263637
1127.279 .0263817
1127.881 .0263994
1128.484 .0264238
1129.087 .0264521
1129.691 .0264876
1130.295 .0265306
1130.900 .0265814
1131.505 .0266394
1132.111 .0267030
1132.718 .0267732
1133.325 .0268464
1133.933 .0269218
1134.541 .0269992
1135.150 .0270798
1135.760 .0271677
1136.370 .0272606
1136.981 .0273625
1137.592 .0274713
1138.204 .0275868
1138.817 .0277105
1139.431 .0278343
1140.045 .0279608
1140.660 .0280888
1141.275 .0282188
1141.891 .0283424
1142.508 .0283768
1143.126 .0285945
1143.744 .0287309
1144.363 .0289546
1144.983 .0289147
