Measurement Sequence started on: 15-12-46-377
Integration time: 28
Scans to Average: 2 
>>>>>Begin Spectral Data<<<<<
432.689 .0000100
433.621 .0000100
434.552 .0000100
435.482 .0000100
436.410 .0000100
437.337 .0000100
438.262 .0243351
439.187 .0516130
440.110 .0856122
441.031 .1239480
441.952 .1612381
442.871 .1906745
443.789 .2069109
444.705 .2081347
445.621 .1965428
446.535 .1770094
447.447 .1548341
448.359 .1208165
449.269 .1039969
450.178 .0933951
451.086 .0860149
451.993 .0803839
452.898 .0759360
453.803 .0723107
454.706 .0692682
455.608 .0666577
456.508 .0643783
457.408 .0623715
458.306 .0605665
459.204 .0589429
460.100 .0574634
460.995 .0561174
461.888 .0549092
462.781 .0538253
463.673 .0528496
464.563 .0519830
465.452 .0511970
466.340 .0504712
467.228 .0498176
468.114 .0492097
468.999 .0486400
469.882 .0481097
470.765 .0476236
471.647 .0471831
472.528 .0467945
473.407 .0464616
474.286 .0461834
475.163 .0459536
476.040 .0457661
476.915 .0456013
477.790 .0454488
478.663 .0453004
479.535 .0451463
480.407 .0449924
481.277 .0448416
482.147 .0446928
483.015 .0445573
483.883 .0444466
484.749 .0443592
485.615 .0442958
486.479 .0442538
487.343 .0442297
488.206 .0442124
489.067 .0441994
489.928 .0441814
490.788 .0441628
491.647 .0441557
492.505 .0441658
493.362 .0441991
494.218 .0442761
495.073 .0443931
495.928 .0445567
496.781 .0447656
497.634 .0450144
498.486 .0452911
499.337 .0455995
500.187 .0459172
501.036 .0462416
501.884 .0465756
502.731 .0469222
503.578 .0472807
504.424 .0476650
505.268 .0480752
506.113 .0485069
506.956 .0489664
507.798 .0494513
508.640 .0499547
509.480 .0504916
510.320 .0510640
511.160 .0516834
511.998 .0523662
512.836 .0531254
513.672 .0539873
514.508 .0549718
515.344 .0560936
516.178 .0573913
517.012 .0588910
517.845 .0606192
518.677 .0626030
519.508 .0648586
520.339 .0674437
521.169 .0704145
521.998 .0738179
522.826 .0776920
523.654 .0821197
524.481 .0871121
525.307 .0926558
526.133 .0987336
526.958 .1052425
527.782 .1120837
528.605 .1191295
529.428 .1262336
530.250 .1328920
531.072 .1389174
531.892 .1439658
532.712 .1478152
533.532 .1502308
534.350 .1510339
535.168 .1501213
535.986 .1476160
536.802 .1436067
537.618 .1383381
538.434 .1320311
539.249 .1252374
540.063 .1181073
540.876 .1110315
541.689 .1041522
542.501 .0977503
543.313 .0919442
544.124 .0867765
544.934 .0821568
545.744 .0780537
546.553 .0743552
547.361 .0710765
548.169 .0681331
548.976 .0655018
549.783 .0631175
550.589 .0610064
551.395 .0590871
552.200 .0573417
553.004 .0557380
553.808 .0542721
554.611 .0529319
555.414 .0517388
556.216 .0506516
557.018 .0496716
557.819 .0487861
558.619 .0479653
559.419 .0471990
560.218 .0464819
561.017 .0457846
561.815 .0451189
562.613 .0444708
563.410 .0438456
564.207 .0432418
565.003 .0426700
565.799 .0421322
566.594 .0416182
567.388 .0411342
568.182 .0406663
568.976 .0402001
569.769 .0397499
570.562 .0393071
571.354 .0388744
572.145 .0384612
572.936 .0380560
573.727 .0376662
574.517 .0372927
575.307 .0369324
576.096 .0365824
576.885 .0362424
577.673 .0359155
578.461 .0355914
579.248 .0352775
580.035 .0349794
580.821 .0346963
581.607 .0344321
582.392 .0341875
583.177 .0339605
583.962 .0337534
584.746 .0335660
585.529 .0333928
586.313 .0332358
587.095 .0330934
587.878 .0329617
588.660 .0328422
589.441 .0327330
590.222 .0326325
591.003 .0325403
591.783 .0324571
592.563 .0323804
593.342 .0323105
594.121 .0322438
594.899 .0321811
595.678 .0321209
596.455 .0320642
597.233 .0320100
598.009 .0319572
598.786 .0319070
599.562 .0318589
600.338 .0318131
601.113 .0317704
601.888 .0317289
602.663 .0316897
603.437 .0316522
604.211 .0316158
604.984 .0315793
605.757 .0315437
606.530 .0315082
607.302 .0314733
608.074 .0314396
608.845 .0314071
609.616 .0313752
610.387 .0313448
611.158 .0313155
611.928 .0312865
612.697 .0312579
613.467 .0312293
614.236 .0311999
615.004 .0311698
615.773 .0311388
616.541 .0311065
617.308 .0310742
618.076 .0310425
618.843 .0310102
619.609 .0309783
620.375 .0309470
621.141 .0309155
621.907 .0308841
622.672 .0308526
623.437 .0308207
624.202 .0307884
624.966 .0307560
625.730 .0307237
626.493 .0306918
627.257 .0306616
628.020 .0306326
628.782 .0306049
629.545 .0305792
630.307 .0305542
631.068 .0305302
631.830 .0305074
632.591 .0304850
633.352 .0304639
634.112 .0304434
634.872 .0304240
635.632 .0304059
636.392 .0303886
637.151 .0303721
637.910 .0303564
638.668 .0303410
639.427 .0303254
640.185 .0303092
640.943 .0302931
641.700 .0302772
642.457 .0302619
643.214 .0302476
643.971 .0302341
644.727 .0302228
645.483 .0302127
646.239 .0302033
646.994 .0301948
647.750 .0301867
648.505 .0301787
649.259 .0301711
650.014 .0301636
650.768 .0301559
651.521 .0301491
652.275 .0301431
653.028 .0301375
653.781 .0301321
654.534 .0301265
655.286 .0301203
656.039 .0301126
656.791 .0301031
657.542 .0300912
658.294 .0300774
659.045 .0300623
659.796 .0300447
660.546 .0300255
661.297 .0300048
662.047 .0299832
662.796 .0299601
663.546 .0299358
664.295 .0299102
665.044 .0298831
665.793 .0298552
666.542 .0298266
667.290 .0297973
668.038 .0297679
668.786 .0297381
669.533 .0297081
670.281 .0296775
671.028 .0296468
671.774 .0296152
672.521 .0295844
673.267 .0295547
674.013 .0295265
674.759 .0294996
675.505 .0294751
676.250 .0294525
676.995 .0294311
677.740 .0294104
678.484 .0293896
679.229 .0293685
679.973 .0293471
680.717 .0293249
681.460 .0293022
682.204 .0292796
682.947 .0292579
683.690 .0292368
684.433 .0292163
685.175 .0291963
685.917 .0291758
686.659 .0291550
687.401 .0291334
688.142 .0291109
688.884 .0290877
689.625 .0290644
690.365 .0290410
691.106 .0290184
691.846 .0289968
692.586 .0289759
693.326 .0289561
694.066 .0289379
694.805 .0289202
695.545 .0289032
696.284 .0288864
697.022 .0288706
697.761 .0288552
698.499 .0288406
699.237 .0288267
699.975 .0288138
700.713 .0288025
701.450 .0287921
702.187 .0287825
702.924 .0287742
703.661 .0287670
704.397 .0287607
705.133 .0287552
705.869 .0287503
706.605 .0287458
707.341 .0287420
708.076 .0287385
708.811 .0287354
709.546 .0287325
710.281 .0287295
711.015 .0287260
711.749 .0287217
712.483 .0287167
713.217 .0287104
713.950 .0287039
714.684 .0286973
715.417 .0286903
716.150 .0286836
716.882 .0286772
717.615 .0286710
718.347 .0286651
719.079 .0286591
719.811 .0286529
720.542 .0286465
721.273 .0286399
722.005 .0286328
722.735 .0286257
723.466 .0286181
724.196 .0286104
724.927 .0286016
725.656 .0285917
726.386 .0285802
727.116 .0285670
727.845 .0285519
728.574 .0285344
729.303 .0285155
730.031 .0284952
730.760 .0284744
731.488 .0284537
732.216 .0284334
732.944 .0284140
733.671 .0283955
734.398 .0283777
735.125 .0283604
735.852 .0283437
736.579 .0283271
737.305 .0283107
738.031 .0282944
738.757 .0282783
739.483 .0282625
740.208 .0282475
740.933 .0282329
741.658 .0282185
742.383 .0282037
743.108 .0281882
743.832 .0281712
744.556 .0281529
745.280 .0281322
746.004 .0281100
746.727 .0280861
747.450 .0280607
748.173 .0280339
748.896 .0280065
749.618 .0279785
750.340 .0279504
751.062 .0279218
751.784 .0278931
752.506 .0278641
753.227 .0278353
753.948 .0278062
754.669 .0277773
755.389 .0277486
756.110 .0277203
756.830 .0276922
757.550 .0276649
758.269 .0276376
758.989 .0276110
759.708 .0275851
760.427 .0275603
761.146 .0275363
761.864 .0275134
762.582 .0274916
763.300 .0274715
764.018 .0274527
764.736 .0274353
765.453 .0274186
766.170 .0274030
766.887 .0273882
767.603 .0273738
768.320 .0273597
769.036 .0273461
769.751 .0273328
770.467 .0273200
771.182 .0273077
771.897 .0272964
772.612 .0272861
773.327 .0272776
774.041 .0272705
774.755 .0272643
775.469 .0272589
776.183 .0272544
776.896 .0272503
777.609 .0272467
778.322 .0272435
779.035 .0272407
779.747 .0272388
780.459 .0272384
781.171 .0272396
781.882 .0272426
782.594 .0272477
783.305 .0272547
784.016 .0272631
784.726 .0272727
785.436 .0272827
786.147 .0272932
786.856 .0273043
787.566 .0273163
788.275 .0273282
788.984 .0273407
789.693 .0273538
790.401 .0273674
791.110 .0273812
791.818 .0273951
792.525 .0274082
793.233 .0274201
793.940 .0274305
794.647 .0274390
795.353 .0274454
796.060 .0274505
796.766 .0274537
797.472 .0274556
798.177 .0274565
798.883 .0274561
799.588 .0274545
800.292 .0274526
800.997 .0274499
801.701 .0274462
802.405 .0274416
803.109 .0274363
803.812 .0274304
804.515 .0274242
805.218 .0274176
805.921 .0274106
806.623 .0274030
807.325 .0273956
808.027 .0273876
808.728 .0273790
809.429 .0273696
810.130 .0273591
810.831 .0273476
811.531 .0273347
812.231 .0273201
812.931 .0273037
813.630 .0272859
814.330 .0272669
815.029 .0272464
815.727 .0272253
816.426 .0272040
817.124 .0271827
817.821 .0271614
818.519 .0271406
819.216 .0271198
819.913 .0270993
820.609 .0270788
821.306 .0270584
822.002 .0270383
822.697 .0270187
823.393 .0270001
824.088 .0269824
824.783 .0269660
825.477 .0269503
826.171 .0269349
826.865 .0269198
827.559 .0269042
828.252 .0268879
828.945 .0268708
829.638 .0268525
830.330 .0268333
831.023 .0268134
831.714 .0267927
832.406 .0267715
833.097 .0267495
833.788 .0267267
834.479 .0267027
835.169 .0266777
835.859 .0266520
836.548 .0266257
837.238 .0265992
837.927 .0265731
838.615 .0265475
839.304 .0265231
839.992 .0264994
840.680 .0264769
841.367 .0264555
842.054 .0264345
842.741 .0264137
843.428 .0263932
844.114 .0263729
844.800 .0263529
845.485 .0263326
846.170 .0263121
846.855 .0262909
847.540 .0262691
848.224 .0262461
848.908 .0262225
849.592 .0261982
850.275 .0261739
850.958 .0261492
851.641 .0261248
852.323 .0261007
853.005 .0260771
853.687 .0260538
854.368 .0260307
855.049 .0260076
855.730 .0259848
856.410 .0259622
857.090 .0259404
857.769 .0259195
858.449 .0259003
859.128 .0258825
859.806 .0258666
860.485 .0258522
861.163 .0258395
861.840 .0258280
862.518 .0258178
863.195 .0258086
863.871 .0258000
864.548 .0257925
865.224 .0257858
865.899 .0257804
866.574 .0257763
867.249 .0257731
867.924 .0257711
868.598 .0257700
869.272 .0257699
869.946 .0257704
870.619 .0257714
871.292 .0257733
871.964 .0257756
872.636 .0257782
873.308 .0257809
873.979 .0257840
874.651 .0257873
875.321 .0257908
875.992 .0257945
876.662 .0257984
877.331 .0258027
878.001 .0258077
878.670 .0258134
879.338 .0258197
880.007 .0258272
880.675 .0258359
881.342 .0258458
882.009 .0258567
882.676 .0258683
883.343 .0258806
884.009 .0258934
884.675 .0259067
885.340 .0259200
886.005 .0259334
886.670 .0259475
887.334 .0259621
887.998 .0259775
888.662 .0259941
889.325 .0260117
889.988 .0260299
890.650 .0260486
891.312 .0260675
891.974 .0260859
892.636 .0261041
893.297 .0261220
893.957 .0261391
894.618 .0261556
895.278 .0261716
895.937 .0261866
896.596 .0262015
897.255 .0262159
897.914 .0262296
898.572 .0262428
899.230 .0262558
899.887 .0262675
900.544 .0262782
901.201 .0262882
901.857 .0262970
902.513 .0263040
903.168 .0263092
903.823 .0263122
904.478 .0263129
905.132 .0263118
905.786 .0263088
906.440 .0263041
907.093 .0262986
907.746 .0262913
908.399 .0262826
909.051 .0262727
909.703 .0262613
910.354 .0262481
911.005 .0262338
911.656 .0262179
912.306 .0262004
912.956 .0261823
913.605 .0261637
914.254 .0261451
914.903 .0261271
915.551 .0261096
916.199 .0260931
916.847 .0260772
917.494 .0260616
918.141 .0260459
918.788 .0260302
919.434 .0260142
920.079 .0259971
920.725 .0259794
921.370 .0259610
922.014 .0259416
922.658 .0259214
923.302 .0259004
923.946 .0258784
924.589 .0258550
925.231 .0258299
925.873 .0258031
926.515 .0257748
927.157 .0257448
927.798 .0257137
928.439 .0256813
929.079 .0256480
929.719 .0256139
930.359 .0255791
930.998 .0255441
931.637 .0255087
932.275 .0254726
932.913 .0254362
933.551 .0253996
934.188 .0253628
934.825 .0253259
935.462 .0252900
936.098 .0252545
936.733 .0252203
937.369 .0251868
938.004 .0251544
938.638 .0251228
939.273 .0250926
939.907 .0250629
940.540 .0250344
941.173 .0250070
941.806 .0249807
942.438 .0249554
943.070 .0249315
943.702 .0249086
944.333 .0248867
944.964 .0248657
945.594 .0248453
946.224 .0248246
946.854 .0248046
947.483 .0247842
948.112 .0247637
948.741 .0247428
949.369 .0247219
949.996 .0247006
950.624 .0246796
951.251 .0246586
951.878 .0246374
952.504 .0246161
953.130 .0245945
953.755 .0245719
954.380 .0245484
955.005 .0245238
955.629 .0244982
956.253 .0244718
956.877 .0244457
957.500 .0244194
958.123 .0243938
958.746 .0243688
959.368 .0243446
959.990 .0243208
960.611 .0242971
961.232 .0242738
961.853 .0242504
962.473 .0242272
963.093 .0242041
963.712 .0241813
964.331 .0241596
964.950 .0241387
965.569 .0241194
966.187 .0241019
966.804 .0240864
967.422 .0240729
968.039 .0240611
968.655 .0240506
969.272 .0240411
969.887 .0240319
970.503 .0240225
971.118 .0240132
971.733 .0240040
972.347 .0239950
972.961 .0239864
973.575 .0239784
974.188 .0239710
974.801 .0239643
975.414 .0239580
976.026 .0239511
976.638 .0239438
977.250 .0239355
977.861 .0239259
978.472 .0239156
979.083 .0239050
979.693 .0238947
980.303 .0238849
980.912 .0238760
981.521 .0238678
982.130 .0238602
982.738 .0238537
983.346 .0238479
983.954 .0238425
984.562 .0238373
985.169 .0238316
985.775 .0238255
986.382 .0238192
986.988 .0238125
987.594 .0238056
988.199 .0237990
988.804 .0237929
989.409 .0237879
990.013 .0237841
990.617 .0237823
991.221 .0237822
991.824 .0237840
992.427 .0237876
993.030 .0237922
993.632 .0237981
994.234 .0238054
994.836 .0238144
995.438 .0238253
996.039 .0238383
996.640 .0238536
997.240 .0238714
997.840 .0238923
998.440 .0239161
999.040 .0239419
999.639 .0239694
1000.238 .0239981
1000.836 .0240267
1001.435 .0240553
1002.033 .0240831
1002.630 .0241099
1003.228 .0241358
1003.825 .0241605
1004.422 .0241841
1005.018 .0242068
1005.614 .0242289
1006.210 .0242506
1006.806 .0242714
1007.401 .0242913
1007.996 .0243097
1008.591 .0243267
1009.186 .0243430
1009.780 .0243584
1010.374 .0243727
1010.967 .0243862
1011.561 .0243992
1012.154 .0244119
1012.746 .0244234
1013.339 .0244348
1013.931 .0244462
1014.523 .0244580
1015.115 .0244704
1015.706 .0244844
1016.298 .0245003
1016.888 .0245192
1017.479 .0245408
1018.069 .0245651
1018.660 .0245907
1019.250 .0246168
1019.839 .0246424
1020.429 .0246674
1021.018 .0246921
1021.607 .0247166
1022.195 .0247415
1022.784 .0247684
1023.372 .0247971
1023.960 .0248277
1024.547 .0248597
1025.135 .0248929
1025.722 .0249254
1026.309 .0249558
1026.896 .0249830
1027.483 .0250077
1028.069 .0250299
1028.655 .0250511
1029.241 .0250724
1029.827 .0250951
1030.412 .0251196
1030.997 .0251464
1031.582 .0251746
1032.167 .0252037
1032.752 .0252319
1033.336 .0252586
1033.921 .0252830
1034.505 .0253049
1035.089 .0253232
1035.672 .0253392
1036.256 .0253541
1036.839 .0253680
1037.422 .0253803
1038.005 .0253923
1038.588 .0254038
1039.171 .0254147
1039.753 .0254248
1040.335 .0254334
1040.918 .0254411
1041.500 .0254475
1042.081 .0254520
1042.663 .0254550
1043.244 .0254566
1043.826 .0254567
1044.407 .0254556
1044.988 .0254549
1045.569 .0254537
1046.150 .0254516
1046.730 .0254500
1047.311 .0254488
1047.891 .0254469
1048.471 .0254435
1049.052 .0254387
1049.632 .0254321
1050.211 .0254239
1050.791 .0254128
1051.371 .0254009
1051.950 .0253895
1052.530 .0253787
1053.109 .0253685
1053.688 .0253590
1054.268 .0253506
1054.847 .0253427
1055.426 .0253345
1056.005 .0253264
1056.583 .0253179
1057.162 .0253092
1057.741 .0253005
1058.319 .0252937
1058.898 .0252877
1059.476 .0252817
1060.055 .0252765
1060.633 .0252716
1061.211 .0252651
1061.790 .0252568
1062.368 .0252476
1062.946 .0252378
1063.524 .0252282
1064.102 .0252195
1064.680 .0252115
1065.258 .0252061
1065.836 .0252025
1066.414 .0251987
1066.992 .0251945
1067.570 .0251902
1068.148 .0251833
1068.726 .0251737
1069.304 .0251633
1069.882 .0251512
1070.460 .0251378
1071.038 .0251234
1071.616 .0251092
1072.194 .0250944
1072.772 .0250791
1073.350 .0250639
1073.928 .0250470
1074.506 .0250304
1075.084 .0250135
1075.662 .0249955
1076.240 .0249782
1076.819 .0249614
1077.397 .0249448
1077.976 .0249284
1078.554 .0249127
1079.133 .0248983
1079.711 .0248839
1080.290 .0248715
1080.869 .0248592
1081.448 .0248461
1082.027 .0248326
1082.606 .0248188
1083.185 .0248041
1083.764 .0247905
1084.343 .0247772
1084.923 .0247651
1085.502 .0247548
1086.082 .0247476
1086.662 .0247421
1087.242 .0247374
1087.822 .0247323
1088.402 .0247269
1088.983 .0247182
1089.563 .0247070
1090.144 .0246919
1090.725 .0246758
1091.306 .0246578
1091.887 .0246392
1092.469 .0246207
1093.050 .0246031
1093.632 .0245873
1094.214 .0245723
1094.796 .0245566
1095.379 .0245423
1095.961 .0245277
1096.544 .0245124
1097.127 .0244972
1097.710 .0244836
1098.294 .0244711
1098.877 .0244608
1099.461 .0244543
1100.046 .0244508
1100.630 .0244507
1101.215 .0244555
1101.800 .0244619
1102.385 .0244708
1102.970 .0244823
1103.556 .0244930
1104.142 .0245056
1104.728 .0245206
1105.315 .0245361
1105.902 .0245529
1106.489 .0245727
1107.077 .0245940
1107.664 .0246158
1108.253 .0246390
1108.841 .0246604
1109.430 .0246808
1110.019 .0246999
1110.609 .0247178
1111.198 .0247345
1111.789 .0247547
1112.379 .0247778
1112.970 .0248036
1113.561 .0248344
1114.153 .0248676
1114.745 .0249027
1115.338 .0249385
1115.931 .0249718
1116.524 .0250021
1117.117 .0250292
1117.712 .0250547
1118.306 .0250760
1118.901 .0250996
1119.496 .0251233
1120.092 .0251502
1120.689 .0251796
1121.285 .0252107
1121.882 .0252418
1122.480 .0252738
1123.078 .0253049
1123.677 .0253346
1124.276 .0253618
1124.875 .0253894
1125.476 .0254133
1126.076 .0254407
1126.677 .0254698
1127.279 .0255030
1127.881 .0255418
1128.484 .0255884
1129.087 .0256380
1129.691 .0256940
1130.295 .0257560
1130.900 .0258217
1131.505 .0258904
1132.111 .0259635
1132.718 .0260362
1133.325 .0261118
1133.933 .0261925
1134.541 .0262778
1135.150 .0263654
1135.760 .0264605
1136.370 .0265581
1136.981 .0266618
1137.592 .0267696
1138.204 .0268793
1138.817 .0269938
1139.431 .0271138
1140.045 .0272393
1140.660 .0273709
1141.275 .0275139
1141.891 .0276760
1142.508 .0277709
1143.126 .0279803
1143.744 .0281532
1144.363 .0284229
1144.983 .0287869
