Measurement Sequence started on: 15-12-46-377
Integration time: 28
Scans to Average: 2 
>>>>>Begin Spectral Data<<<<<
432.689 .0000100
433.621 .0000100
434.552 .0000100
435.482 .0000100
436.410 .0000100
437.337 .0000100
438.262 .0289169
439.187 .0613112
440.110 .1016456
441.031 .1472034
441.952 .1915041
442.871 .2264120
443.789 .2456416
444.705 .2470085
445.621 .2331488
446.535 .2098267
447.447 .1833427
448.359 .1427572
449.269 .1226091
450.178 .1098193
451.086 .1007354
451.993 .0937540
452.898 .0881992
453.803 .0835696
454.706 .0796562
455.608 .0762657
456.508 .0733122
457.408 .0707406
458.306 .0684702
459.204 .0664356
460.100 .0646030
460.995 .0629370
461.888 .0614129
462.781 .0600328
463.673 .0587763
464.563 .0576277
465.452 .0565811
466.340 .0556171
467.228 .0547347
468.114 .0539153
468.999 .0531714
469.882 .0524901
470.765 .0518739
471.647 .0513157
472.528 .0508062
473.407 .0503531
474.286 .0499585
475.163 .0496109
476.040 .0493120
476.915 .0490481
477.790 .0488145
478.663 .0486076
479.535 .0484307
480.407 .0482753
481.277 .0481463
482.147 .0480458
483.015 .0479657
483.883 .0479040
484.749 .0478557
485.615 .0478149
486.479 .0477882
487.343 .0477752
488.206 .0477714
489.067 .0477734
489.928 .0477957
490.788 .0478314
491.647 .0478858
492.505 .0479577
493.362 .0480483
494.218 .0481590
495.073 .0482928
495.928 .0484466
496.781 .0486165
497.634 .0488189
498.486 .0490559
499.337 .0493220
500.187 .0496223
501.036 .0499465
501.884 .0502983
502.731 .0506716
503.578 .0510729
504.424 .0514855
505.268 .0519167
506.113 .0523682
506.956 .0528430
507.798 .0533525
508.640 .0538922
509.480 .0544766
510.320 .0551230
511.160 .0558427
511.998 .0566368
512.836 .0575029
513.672 .0584729
514.508 .0595552
515.344 .0607597
516.178 .0621096
517.012 .0636524
517.845 .0654179
518.677 .0674590
519.508 .0698026
520.339 .0725219
521.169 .0756774
521.998 .0792670
522.826 .0833562
523.654 .0879706
524.481 .0931088
525.307 .0988017
526.133 .1049976
526.958 .1116586
527.782 .1186952
528.605 .1259095
529.428 .1331759
530.250 .1400064
531.072 .1460877
531.892 .1510444
532.712 .1545545
533.532 .1564152
534.350 .1564925
535.168 .1547765
535.986 .1514242
536.802 .1466833
537.618 .1409218
538.434 .1343491
539.249 .1274485
540.063 .1204959
540.876 .1136764
541.689 .1072214
542.501 .1012700
543.313 .0958594
544.124 .0910520
544.934 .0867863
545.744 .0829641
546.553 .0795304
547.361 .0764675
548.169 .0737265
548.976 .0712172
549.783 .0689545
550.589 .0669030
551.395 .0650088
552.200 .0632790
553.004 .0616798
553.808 .0601564
554.611 .0587359
555.414 .0573982
556.216 .0561470
557.018 .0549898
557.819 .0539032
558.619 .0528759
559.419 .0519146
560.218 .0510245
561.017 .0501858
561.815 .0493820
562.613 .0486297
563.410 .0479027
564.207 .0472052
565.003 .0465287
565.799 .0458706
566.594 .0452333
567.388 .0446233
568.182 .0440312
568.976 .0434607
569.769 .0429058
570.562 .0423706
571.354 .0418524
572.145 .0413451
572.936 .0408524
573.727 .0403697
574.517 .0399020
575.307 .0394534
576.096 .0390244
576.885 .0386181
577.673 .0382370
578.461 .0378794
579.248 .0375371
580.035 .0372076
580.821 .0368927
581.607 .0365848
582.392 .0362845
583.177 .0359969
583.962 .0357253
584.746 .0354735
585.529 .0352485
586.313 .0350467
587.095 .0348701
587.878 .0347172
588.660 .0345810
589.441 .0344573
590.222 .0343422
591.003 .0342333
591.783 .0341288
592.563 .0340307
593.342 .0339384
594.121 .0338514
594.899 .0337741
595.678 .0337043
596.455 .0336394
597.233 .0335786
598.009 .0335199
598.786 .0334621
599.562 .0334055
600.338 .0333484
601.113 .0332916
601.888 .0332361
602.663 .0331827
603.437 .0331310
604.211 .0330816
604.984 .0330352
605.757 .0329909
606.530 .0329487
607.302 .0329080
608.074 .0328681
608.845 .0328297
609.616 .0327920
610.387 .0327559
611.158 .0327216
611.928 .0326890
612.697 .0326588
613.467 .0326315
614.236 .0326062
615.004 .0325831
615.773 .0325619
616.541 .0325418
617.308 .0325215
618.076 .0325014
618.843 .0324806
619.609 .0324600
620.375 .0324403
621.141 .0324211
621.907 .0324024
622.672 .0323851
623.437 .0323676
624.202 .0323492
624.966 .0323295
625.730 .0323083
626.493 .0322848
627.257 .0322597
628.020 .0322329
628.782 .0322042
629.545 .0321752
630.307 .0321464
631.068 .0321174
631.830 .0320884
632.591 .0320595
633.352 .0320297
634.112 .0319995
634.872 .0319691
635.632 .0319389
636.392 .0319096
637.151 .0318814
637.910 .0318535
638.668 .0318262
639.427 .0317999
640.185 .0317740
640.943 .0317486
641.700 .0317245
642.457 .0317012
643.214 .0316786
643.971 .0316569
644.727 .0316367
645.483 .0316179
646.239 .0316003
646.994 .0315831
647.750 .0315656
648.505 .0315477
649.259 .0315282
650.014 .0315085
650.768 .0314883
651.521 .0314673
652.275 .0314456
653.028 .0314239
653.781 .0314018
654.534 .0313799
655.286 .0313575
656.039 .0313350
656.791 .0313120
657.542 .0312877
658.294 .0312615
659.045 .0312346
659.796 .0312072
660.546 .0311792
661.297 .0311504
662.047 .0311218
662.796 .0310926
663.546 .0310631
664.295 .0310326
665.044 .0310013
665.793 .0309685
666.542 .0309348
667.290 .0308997
668.038 .0308641
668.786 .0308281
669.533 .0307923
670.281 .0307571
671.028 .0307225
671.774 .0306880
672.521 .0306544
673.267 .0306219
674.013 .0305907
674.759 .0305603
675.505 .0305318
676.250 .0305048
676.995 .0304799
677.740 .0304566
678.484 .0304347
679.229 .0304136
679.973 .0303933
680.717 .0303728
681.460 .0303525
682.204 .0303325
682.947 .0303133
683.690 .0302949
684.433 .0302782
685.175 .0302618
685.917 .0302456
686.659 .0302294
687.401 .0302132
688.142 .0301958
688.884 .0301776
689.625 .0301585
690.365 .0301393
691.106 .0301203
691.846 .0301022
692.586 .0300848
693.326 .0300677
694.066 .0300506
694.805 .0300328
695.545 .0300137
696.284 .0299932
697.022 .0299707
697.761 .0299469
698.499 .0299220
699.237 .0298963
699.975 .0298701
700.713 .0298441
701.450 .0298193
702.187 .0297953
702.924 .0297722
703.661 .0297503
704.397 .0297296
705.133 .0297100
705.869 .0296918
706.605 .0296750
707.341 .0296596
708.076 .0296458
708.811 .0296335
709.546 .0296224
710.281 .0296124
711.015 .0296034
711.749 .0295947
712.483 .0295862
713.217 .0295778
713.950 .0295684
714.684 .0295585
715.417 .0295480
716.150 .0295368
716.882 .0295245
717.615 .0295115
718.347 .0294982
719.079 .0294846
719.811 .0294709
720.542 .0294573
721.273 .0294430
722.005 .0294291
722.735 .0294147
723.466 .0293999
724.196 .0293851
724.927 .0293704
725.656 .0293558
726.386 .0293414
727.116 .0293272
727.845 .0293129
728.574 .0292980
729.303 .0292828
730.031 .0292664
730.760 .0292494
731.488 .0292319
732.216 .0292144
732.944 .0291975
733.671 .0291817
734.398 .0291666
735.125 .0291525
735.852 .0291396
736.579 .0291270
737.305 .0291148
738.031 .0291029
738.757 .0290911
739.483 .0290798
740.208 .0290691
740.933 .0290592
741.658 .0290499
742.383 .0290417
743.108 .0290337
743.832 .0290255
744.556 .0290168
745.280 .0290072
746.004 .0289963
746.727 .0289841
747.450 .0289707
748.173 .0289565
748.896 .0289419
749.618 .0289268
750.340 .0289111
751.062 .0288955
751.784 .0288792
752.506 .0288626
753.227 .0288452
753.948 .0288274
754.669 .0288092
755.389 .0287904
756.110 .0287711
756.830 .0287517
757.550 .0287321
758.269 .0287125
758.989 .0286923
759.708 .0286718
760.427 .0286504
761.146 .0286284
761.864 .0286054
762.582 .0285812
763.300 .0285559
764.018 .0285294
764.736 .0285015
765.453 .0284728
766.170 .0284430
766.887 .0284129
767.603 .0283828
768.320 .0283528
769.036 .0283229
769.751 .0282940
770.467 .0282658
771.182 .0282391
771.897 .0282138
772.612 .0281903
773.327 .0281685
774.041 .0281488
774.755 .0281304
775.469 .0281138
776.183 .0280987
776.896 .0280853
777.609 .0280729
778.322 .0280622
779.035 .0280525
779.747 .0280442
780.459 .0280367
781.171 .0280297
781.882 .0280223
782.594 .0280149
783.305 .0280068
784.016 .0279982
784.726 .0279892
785.436 .0279803
786.147 .0279718
786.856 .0279645
787.566 .0279578
788.275 .0279521
788.984 .0279468
789.693 .0279417
790.401 .0279358
791.110 .0279288
791.818 .0279204
792.525 .0279111
793.233 .0279012
793.940 .0278909
794.647 .0278802
795.353 .0278700
796.060 .0278600
796.766 .0278499
797.472 .0278397
798.177 .0278295
798.883 .0278188
799.588 .0278078
800.292 .0277966
800.997 .0277858
801.701 .0277757
802.405 .0277672
803.109 .0277605
803.812 .0277553
804.515 .0277512
805.218 .0277476
805.921 .0277445
806.623 .0277412
807.325 .0277375
808.027 .0277334
808.728 .0277289
809.429 .0277240
810.130 .0277183
810.831 .0277120
811.531 .0277058
812.231 .0276989
812.931 .0276911
813.630 .0276825
814.330 .0276732
815.029 .0276633
815.727 .0276532
816.426 .0276437
817.124 .0276349
817.821 .0276275
818.519 .0276216
819.216 .0276169
819.913 .0276134
820.609 .0276110
821.306 .0276088
822.002 .0276072
822.697 .0276059
823.393 .0276046
824.088 .0276036
824.783 .0276030
825.477 .0276029
826.171 .0276031
826.865 .0276044
827.559 .0276066
828.252 .0276092
828.945 .0276126
829.638 .0276161
830.330 .0276198
831.023 .0276236
831.714 .0276275
832.406 .0276309
833.097 .0276338
833.788 .0276360
834.479 .0276375
835.169 .0276383
835.859 .0276391
836.548 .0276394
837.238 .0276393
837.927 .0276385
838.615 .0276364
839.304 .0276333
839.992 .0276294
840.680 .0276247
841.367 .0276193
842.054 .0276136
842.741 .0276081
843.428 .0276026
844.114 .0275981
844.800 .0275940
845.485 .0275901
846.170 .0275860
846.855 .0275817
847.540 .0275764
848.224 .0275703
848.908 .0275639
849.592 .0275568
850.275 .0275495
850.958 .0275412
851.641 .0275321
852.323 .0275218
853.005 .0275102
853.687 .0274965
854.368 .0274808
855.049 .0274635
855.730 .0274443
856.410 .0274237
857.090 .0274024
857.769 .0273803
858.449 .0273577
859.128 .0273346
859.806 .0273112
860.485 .0272874
861.163 .0272633
861.840 .0272392
862.518 .0272152
863.195 .0271910
863.871 .0271666
864.548 .0271422
865.224 .0271182
865.899 .0270946
866.574 .0270708
867.249 .0270479
867.924 .0270257
868.598 .0270043
869.272 .0269836
869.946 .0269639
870.619 .0269447
871.292 .0269261
871.964 .0269073
872.636 .0268884
873.308 .0268691
873.979 .0268497
874.651 .0268297
875.321 .0268098
875.992 .0267900
876.662 .0267705
877.331 .0267515
878.001 .0267335
878.670 .0267159
879.338 .0266990
880.007 .0266826
880.675 .0266666
881.342 .0266503
882.009 .0266340
882.676 .0266177
883.343 .0266017
884.009 .0265859
884.675 .0265704
885.340 .0265553
886.005 .0265407
886.670 .0265267
887.334 .0265128
887.998 .0264993
888.662 .0264861
889.325 .0264733
889.988 .0264609
890.650 .0264494
891.312 .0264384
891.974 .0264286
892.636 .0264197
893.297 .0264116
893.957 .0264038
894.618 .0263963
895.278 .0263886
895.937 .0263807
896.596 .0263724
897.255 .0263637
897.914 .0263546
898.572 .0263453
899.230 .0263353
899.887 .0263249
900.544 .0263136
901.201 .0263010
901.857 .0262870
902.513 .0262713
903.168 .0262537
903.823 .0262345
904.478 .0262140
905.132 .0261922
905.786 .0261696
906.440 .0261466
907.093 .0261233
907.746 .0260999
908.399 .0260763
909.051 .0260524
909.703 .0260281
910.354 .0260034
911.005 .0259779
911.656 .0259522
912.306 .0259266
912.956 .0259010
913.605 .0258759
914.254 .0258521
914.903 .0258295
915.551 .0258083
916.199 .0257892
916.847 .0257718
917.494 .0257558
918.141 .0257412
918.788 .0257275
919.434 .0257152
920.079 .0257039
920.725 .0256933
921.370 .0256834
922.014 .0256740
922.658 .0256646
923.302 .0256546
923.946 .0256446
924.589 .0256340
925.231 .0256227
925.873 .0256110
926.515 .0255985
927.157 .0255857
927.798 .0255726
928.439 .0255591
929.079 .0255454
929.719 .0255313
930.359 .0255167
930.998 .0255015
931.637 .0254863
932.275 .0254717
932.913 .0254576
933.551 .0254447
934.188 .0254331
934.825 .0254227
935.462 .0254136
936.098 .0254054
936.733 .0253985
937.369 .0253928
938.004 .0253881
938.638 .0253843
939.273 .0253813
939.907 .0253794
940.540 .0253793
941.173 .0253806
941.806 .0253840
942.438 .0253891
943.070 .0253957
943.702 .0254030
944.333 .0254106
944.964 .0254184
945.594 .0254261
946.224 .0254335
946.854 .0254409
947.483 .0254480
948.112 .0254559
948.741 .0254641
949.369 .0254729
949.996 .0254820
950.624 .0254913
951.251 .0255002
951.878 .0255086
952.504 .0255163
953.130 .0255235
953.755 .0255300
954.380 .0255364
955.005 .0255422
955.629 .0255481
956.253 .0255537
956.877 .0255592
957.500 .0255645
958.123 .0255700
958.746 .0255748
959.368 .0255792
959.990 .0255829
960.611 .0255861
961.232 .0255882
961.853 .0255898
962.473 .0255909
963.093 .0255917
963.712 .0255923
964.331 .0255925
964.950 .0255926
965.569 .0255935
966.187 .0255949
966.804 .0255971
967.422 .0256006
968.039 .0256050
968.655 .0256101
969.272 .0256154
969.887 .0256210
970.503 .0256259
971.118 .0256303
971.733 .0256334
972.347 .0256355
972.961 .0256363
973.575 .0256358
974.188 .0256339
974.801 .0256314
975.414 .0256283
976.026 .0256244
976.638 .0256202
977.250 .0256157
977.861 .0256109
978.472 .0256060
979.083 .0256000
979.693 .0255929
980.303 .0255841
980.912 .0255740
981.521 .0255625
982.130 .0255503
982.738 .0255382
983.346 .0255266
983.954 .0255164
984.562 .0255076
985.169 .0254998
985.775 .0254927
986.382 .0254857
986.988 .0254779
987.594 .0254688
988.199 .0254578
988.804 .0254455
989.409 .0254322
990.013 .0254188
990.617 .0254063
991.221 .0253949
991.824 .0253854
992.427 .0253782
993.030 .0253728
993.632 .0253692
994.234 .0253663
994.836 .0253643
995.438 .0253621
996.039 .0253600
996.640 .0253568
997.240 .0253533
997.840 .0253496
998.440 .0253459
999.040 .0253418
999.639 .0253381
1000.238 .0253344
1000.836 .0253306
1001.435 .0253267
1002.033 .0253223
1002.630 .0253172
1003.228 .0253119
1003.825 .0253060
1004.422 .0253005
1005.018 .0252953
1005.614 .0252913
1006.210 .0252880
1006.806 .0252867
1007.401 .0252867
1007.996 .0252871
1008.591 .0252886
1009.186 .0252906
1009.780 .0252920
1010.374 .0252927
1010.967 .0252921
1011.561 .0252899
1012.154 .0252862
1012.746 .0252808
1013.339 .0252731
1013.931 .0252645
1014.523 .0252546
1015.115 .0252430
1015.706 .0252305
1016.298 .0252177
1016.888 .0252037
1017.479 .0251892
1018.069 .0251752
1018.660 .0251614
1019.250 .0251486
1019.839 .0251380
1020.429 .0251290
1021.018 .0251222
1021.607 .0251183
1022.195 .0251157
1022.784 .0251144
1023.372 .0251140
1023.960 .0251131
1024.547 .0251115
1025.135 .0251092
1025.722 .0251058
1026.309 .0251013
1026.896 .0250968
1027.483 .0250923
1028.069 .0250870
1028.655 .0250812
1029.241 .0250746
1029.827 .0250668
1030.412 .0250584
1030.997 .0250501
1031.582 .0250417
1032.167 .0250344
1032.752 .0250284
1033.336 .0250238
1033.921 .0250199
1034.505 .0250164
1035.089 .0250122
1035.672 .0250065
1036.256 .0249994
1036.839 .0249914
1037.422 .0249828
1038.005 .0249751
1038.588 .0249691
1039.171 .0249639
1039.753 .0249600
1040.335 .0249563
1040.918 .0249501
1041.500 .0249424
1042.081 .0249321
1042.663 .0249191
1043.244 .0249036
1043.826 .0248872
1044.407 .0248703
1044.988 .0248542
1045.569 .0248398
1046.150 .0248262
1046.730 .0248131
1047.311 .0248013
1047.891 .0247888
1048.471 .0247752
1049.052 .0247607
1049.632 .0247452
1050.211 .0247295
1050.791 .0247142
1051.371 .0246985
1051.950 .0246828
1052.530 .0246678
1053.109 .0246539
1053.688 .0246399
1054.268 .0246269
1054.847 .0246145
1055.426 .0246034
1056.005 .0245934
1056.583 .0245838
1057.162 .0245736
1057.741 .0245625
1058.319 .0245503
1058.898 .0245365
1059.476 .0245206
1060.055 .0245037
1060.633 .0244868
1061.211 .0244714
1061.790 .0244575
1062.368 .0244456
1062.946 .0244354
1063.524 .0244276
1064.102 .0244214
1064.680 .0244160
1065.258 .0244105
1065.836 .0244054
1066.414 .0244011
1066.992 .0243978
1067.570 .0243964
1068.148 .0243963
1068.726 .0243990
1069.304 .0244049
1069.882 .0244123
1070.460 .0244208
1071.038 .0244287
1071.616 .0244359
1072.194 .0244417
1072.772 .0244458
1073.350 .0244478
1073.928 .0244484
1074.506 .0244485
1075.084 .0244471
1075.662 .0244450
1076.240 .0244435
1076.819 .0244425
1077.397 .0244428
1077.976 .0244455
1078.554 .0244498
1079.133 .0244552
1079.711 .0244620
1080.290 .0244693
1080.869 .0244764
1081.448 .0244835
1082.027 .0244893
1082.606 .0244947
1083.185 .0244999
1083.764 .0245046
1084.343 .0245086
1084.923 .0245119
1085.502 .0245143
1086.082 .0245145
1086.662 .0245123
1087.242 .0245079
1087.822 .0245012
1088.402 .0244930
1088.983 .0244833
1089.563 .0244739
1090.144 .0244656
1090.725 .0244588
1091.306 .0244534
1091.887 .0244497
1092.469 .0244495
1093.050 .0244526
1093.632 .0244596
1094.214 .0244703
1094.796 .0244879
1095.379 .0245098
1095.961 .0245354
1096.544 .0245628
1097.127 .0245928
1097.710 .0246255
1098.294 .0246591
1098.877 .0246943
1099.461 .0247321
1100.046 .0247720
1100.630 .0248146
1101.215 .0248597
1101.800 .0249074
1102.385 .0249543
1102.970 .0249993
1103.556 .0250407
1104.142 .0250782
1104.728 .0251114
1105.315 .0251421
1105.902 .0251708
1106.489 .0252011
1107.077 .0252308
1107.664 .0252597
1108.253 .0252905
1108.841 .0253231
1109.430 .0253573
1110.019 .0253917
1110.609 .0254281
1111.198 .0254668
1111.789 .0255074
1112.379 .0255522
1112.970 .0255987
1113.561 .0256471
1114.153 .0256959
1114.745 .0257437
1115.338 .0257890
1115.931 .0258323
1116.524 .0258723
1117.117 .0259113
1117.712 .0259502
1118.306 .0259897
1118.901 .0260294
1119.496 .0260691
1120.092 .0261093
1120.689 .0261472
1121.285 .0261846
1121.882 .0262231
1122.480 .0262633
1123.078 .0263130
1123.677 .0263716
1124.276 .0264431
1124.875 .0265265
1125.476 .0266187
1126.076 .0267195
1126.677 .0268238
1127.279 .0269268
1127.881 .0270264
1128.484 .0271220
1129.087 .0272122
1129.691 .0272986
1130.295 .0273889
1130.900 .0274846
1131.505 .0275857
1132.111 .0276950
1132.718 .0278087
1133.325 .0279232
1133.933 .0280388
1134.541 .0281530
1135.150 .0282689
1135.760 .0283925
1136.370 .0285173
1136.981 .0286493
1137.592 .0287913
1138.204 .0289436
1138.817 .0291076
1139.431 .0292776
1140.045 .0294552
1140.660 .0296433
1141.275 .0298388
1141.891 .0300011
1142.508 .0302074
1143.126 .0304051
1143.744 .0307583
1144.363 .0309546
1144.983 .0300167
