Measurement Sequence started on: 15-12-46-377
Integration time: 28
Scans to Average: 2 
>>>>>Begin Spectral Data<<<<<
432.689 .0000100
433.621 .0000100
434.552 .0000100
435.482 .0000100
436.410 .0000100
437.337 .0000100
438.262 .0285197
439.187 .0603936
440.110 .1000145
441.031 .1446930
441.952 .1880313
442.871 .2220560
443.789 .2406055
444.705 .2415212
445.621 .2275007
446.535 .2042282
447.447 .1779514
448.359 .1378833
449.269 .1180994
450.178 .1056597
451.086 .0969359
451.993 .0903087
452.898 .0850997
453.803 .0808072
454.706 .0772385
455.608 .0741346
456.508 .0714423
457.408 .0690955
458.306 .0670198
459.204 .0651850
460.100 .0635665
460.995 .0621252
461.888 .0608549
462.781 .0597068
463.673 .0586605
464.563 .0576993
465.452 .0567940
466.340 .0559246
467.228 .0550963
468.114 .0543192
468.999 .0536025
469.882 .0529392
470.765 .0523572
471.647 .0518408
472.528 .0513858
473.407 .0509871
474.286 .0506283
475.163 .0502997
476.040 .0499993
476.915 .0497072
477.790 .0494273
478.663 .0491717
479.535 .0489425
480.407 .0487442
481.277 .0485855
482.147 .0484660
483.015 .0483764
483.883 .0483176
484.749 .0482795
485.615 .0482558
486.479 .0482453
487.343 .0482417
488.206 .0482492
489.067 .0482698
489.928 .0483089
490.788 .0483691
491.647 .0484578
492.505 .0485691
493.362 .0486972
494.218 .0488476
495.073 .0490130
495.928 .0492018
496.781 .0494079
497.634 .0496347
498.486 .0498795
499.337 .0501443
500.187 .0504284
501.036 .0507304
501.884 .0510674
502.731 .0514328
503.578 .0518258
504.424 .0522463
505.268 .0526870
506.113 .0531575
506.956 .0536558
507.798 .0541921
508.640 .0547696
509.480 .0554037
510.320 .0561100
511.160 .0569027
511.998 .0577969
512.836 .0588079
513.672 .0599523
514.508 .0612358
515.344 .0626690
516.178 .0642722
517.012 .0660629
517.845 .0680851
518.677 .0703769
519.508 .0729638
520.339 .0759006
521.169 .0792759
521.998 .0830867
522.826 .0873666
523.654 .0921251
524.481 .0973940
525.307 .1031897
526.133 .1094794
526.958 .1162970
527.782 .1235835
528.605 .1311468
529.428 .1389083
530.250 .1462472
531.072 .1530037
531.892 .1587251
532.712 .1630826
533.532 .1658356
534.350 .1667871
535.168 .1658772
535.986 .1631423
536.802 .1587869
537.618 .1531448
538.434 .1463463
539.249 .1389991
540.063 .1312643
540.876 .1235271
541.689 .1160343
542.501 .1090115
543.313 .1025985
544.124 .0968637
544.934 .0917064
545.744 .0870730
546.553 .0828934
547.361 .0791831
548.169 .0758689
548.976 .0728871
549.783 .0702446
550.589 .0679019
551.395 .0657707
552.200 .0638574
553.004 .0621006
553.808 .0604954
554.611 .0590105
555.414 .0576380
556.216 .0563509
557.018 .0551569
557.819 .0540487
558.619 .0530113
559.419 .0520520
560.218 .0511643
561.017 .0503309
561.815 .0495381
562.613 .0487754
563.410 .0480283
564.207 .0472930
565.003 .0465877
565.799 .0459005
566.594 .0452389
567.388 .0446120
568.182 .0440135
568.976 .0434434
569.769 .0428980
570.562 .0423738
571.354 .0418632
572.145 .0413673
572.936 .0408780
573.727 .0403939
574.517 .0399252
575.307 .0394766
576.096 .0390503
576.885 .0386519
577.673 .0382855
578.461 .0379497
579.248 .0376435
580.035 .0373616
580.821 .0370943
581.607 .0368396
582.392 .0365949
583.177 .0363585
583.962 .0361298
584.746 .0359164
585.529 .0357198
586.313 .0355420
587.095 .0353855
587.878 .0352477
588.660 .0351262
589.441 .0350213
590.222 .0349268
591.003 .0348396
591.783 .0347575
592.563 .0346800
593.342 .0346059
594.121 .0345368
594.899 .0344726
595.678 .0344119
596.455 .0343555
597.233 .0343029
598.009 .0342495
598.786 .0341948
599.562 .0341382
600.338 .0340780
601.113 .0340142
601.888 .0339485
602.663 .0338798
603.437 .0338117
604.211 .0337432
604.984 .0336749
605.757 .0336067
606.530 .0335396
607.302 .0334733
608.074 .0334080
608.845 .0333441
609.616 .0332813
610.387 .0332210
611.158 .0331647
611.928 .0331110
612.697 .0330612
613.467 .0330149
614.236 .0329731
615.004 .0329338
615.773 .0328977
616.541 .0328636
617.308 .0328331
618.076 .0328051
618.843 .0327786
619.609 .0327539
620.375 .0327305
621.141 .0327083
621.907 .0326868
622.672 .0326659
623.437 .0326448
624.202 .0326234
624.966 .0326020
625.730 .0325804
626.493 .0325592
627.257 .0325376
628.020 .0325168
628.782 .0324959
629.545 .0324746
630.307 .0324523
631.068 .0324290
631.830 .0324058
632.591 .0323816
633.352 .0323575
634.112 .0323325
634.872 .0323079
635.632 .0322835
636.392 .0322593
637.151 .0322354
637.910 .0322117
638.668 .0321879
639.427 .0321642
640.185 .0321401
640.943 .0321159
641.700 .0320920
642.457 .0320688
643.214 .0320463
643.971 .0320248
644.727 .0320040
645.483 .0319844
646.239 .0319656
646.994 .0319474
647.750 .0319297
648.505 .0319127
649.259 .0318963
650.014 .0318810
650.768 .0318663
651.521 .0318524
652.275 .0318386
653.028 .0318252
653.781 .0318109
654.534 .0317955
655.286 .0317783
656.039 .0317583
656.791 .0317351
657.542 .0317088
658.294 .0316789
659.045 .0316465
659.796 .0316118
660.546 .0315755
661.297 .0315379
662.047 .0314998
662.796 .0314608
663.546 .0314219
664.295 .0313826
665.044 .0313433
665.793 .0313032
666.542 .0312632
667.290 .0312239
668.038 .0311852
668.786 .0311479
669.533 .0311126
670.281 .0310790
671.028 .0310472
671.774 .0310160
672.521 .0309861
673.267 .0309566
674.013 .0309269
674.759 .0308965
675.505 .0308654
676.250 .0308335
676.995 .0308010
677.740 .0307680
678.484 .0307358
679.229 .0307040
679.973 .0306730
680.717 .0306420
681.460 .0306117
682.204 .0305815
682.947 .0305512
683.690 .0305205
684.433 .0304899
685.175 .0304591
685.917 .0304294
686.659 .0304008
687.401 .0303743
688.142 .0303496
688.884 .0303264
689.625 .0303045
690.365 .0302835
691.106 .0302625
691.846 .0302419
692.586 .0302213
693.326 .0302016
694.066 .0301824
694.805 .0301645
695.545 .0301473
696.284 .0301310
697.022 .0301154
697.761 .0300992
698.499 .0300819
699.237 .0300638
699.975 .0300445
700.713 .0300247
701.450 .0300047
702.187 .0299846
702.924 .0299651
703.661 .0299466
704.397 .0299286
705.133 .0299110
705.869 .0298941
706.605 .0298780
707.341 .0298622
708.076 .0298473
708.811 .0298336
709.546 .0298209
710.281 .0298101
711.015 .0298002
711.749 .0297914
712.483 .0297830
713.217 .0297745
713.950 .0297658
714.684 .0297570
715.417 .0297477
716.150 .0297381
716.882 .0297278
717.615 .0297176
718.347 .0297069
719.079 .0296958
719.811 .0296843
720.542 .0296728
721.273 .0296613
722.005 .0296497
722.735 .0296386
723.466 .0296285
724.196 .0296193
724.927 .0296105
725.656 .0296019
726.386 .0295932
727.116 .0295844
727.845 .0295751
728.574 .0295652
729.303 .0295551
730.031 .0295447
730.760 .0295340
731.488 .0295228
732.216 .0295115
732.944 .0295005
733.671 .0294895
734.398 .0294787
735.125 .0294681
735.852 .0294578
736.579 .0294477
737.305 .0294382
738.031 .0294296
738.757 .0294210
739.483 .0294125
740.208 .0294037
740.933 .0293944
741.658 .0293842
742.383 .0293734
743.108 .0293620
743.832 .0293504
744.556 .0293390
745.280 .0293270
746.004 .0293150
746.727 .0293032
747.450 .0292910
748.173 .0292781
748.896 .0292646
749.618 .0292502
750.340 .0292347
751.062 .0292190
751.784 .0292032
752.506 .0291874
753.227 .0291718
753.948 .0291564
754.669 .0291402
755.389 .0291236
756.110 .0291059
756.830 .0290870
757.550 .0290667
758.269 .0290448
758.989 .0290210
759.708 .0289955
760.427 .0289684
761.146 .0289400
761.864 .0289098
762.582 .0288789
763.300 .0288468
764.018 .0288146
764.736 .0287827
765.453 .0287514
766.170 .0287210
766.887 .0286922
767.603 .0286643
768.320 .0286377
769.036 .0286119
769.751 .0285870
770.467 .0285627
771.182 .0285391
771.897 .0285155
772.612 .0284926
773.327 .0284705
774.041 .0284493
774.755 .0284287
775.469 .0284095
776.183 .0283912
776.896 .0283736
777.609 .0283575
778.322 .0283422
779.035 .0283276
779.747 .0283143
780.459 .0283011
781.171 .0282879
781.882 .0282747
782.594 .0282614
783.305 .0282477
784.016 .0282344
784.726 .0282216
785.436 .0282089
786.147 .0281966
786.856 .0281854
787.566 .0281744
788.275 .0281637
788.984 .0281531
789.693 .0281419
790.401 .0281304
791.110 .0281185
791.818 .0281059
792.525 .0280932
793.233 .0280809
793.940 .0280694
794.647 .0280580
795.353 .0280475
796.060 .0280377
796.766 .0280281
797.472 .0280190
798.177 .0280102
798.883 .0280013
799.588 .0279926
800.292 .0279838
800.997 .0279750
801.701 .0279662
802.405 .0279574
803.109 .0279485
803.812 .0279394
804.515 .0279304
805.218 .0279212
805.921 .0279115
806.623 .0279019
807.325 .0278924
808.027 .0278831
808.728 .0278736
809.429 .0278642
810.130 .0278550
810.831 .0278457
811.531 .0278363
812.231 .0278268
812.931 .0278174
813.630 .0278081
814.330 .0277987
815.029 .0277896
815.727 .0277812
816.426 .0277738
817.124 .0277674
817.821 .0277622
818.519 .0277583
819.216 .0277556
819.913 .0277537
820.609 .0277528
821.306 .0277528
822.002 .0277540
822.697 .0277566
823.393 .0277608
824.088 .0277667
824.783 .0277739
825.477 .0277822
826.171 .0277913
826.865 .0278013
827.559 .0278118
828.252 .0278223
828.945 .0278327
829.638 .0278434
830.330 .0278542
831.023 .0278654
831.714 .0278770
832.406 .0278891
833.097 .0279014
833.788 .0279131
834.479 .0279239
835.169 .0279337
835.859 .0279427
836.548 .0279507
837.238 .0279576
837.927 .0279634
838.615 .0279685
839.304 .0279726
839.992 .0279761
840.680 .0279794
841.367 .0279820
842.054 .0279841
842.741 .0279851
843.428 .0279854
844.114 .0279848
844.800 .0279832
845.485 .0279802
846.170 .0279759
846.855 .0279704
847.540 .0279633
848.224 .0279549
848.908 .0279461
849.592 .0279368
850.275 .0279270
850.958 .0279163
851.641 .0279046
852.323 .0278915
853.005 .0278770
853.687 .0278608
854.368 .0278432
855.049 .0278243
855.730 .0278046
856.410 .0277842
857.090 .0277639
857.769 .0277437
858.449 .0277236
859.128 .0277036
859.806 .0276835
860.485 .0276631
861.163 .0276422
861.840 .0276213
862.518 .0276003
863.195 .0275793
863.871 .0275583
864.548 .0275373
865.224 .0275165
865.899 .0274954
866.574 .0274740
867.249 .0274522
867.924 .0274299
868.598 .0274072
869.272 .0273840
869.946 .0273608
870.619 .0273376
871.292 .0273150
871.964 .0272921
872.636 .0272693
873.308 .0272465
873.979 .0272238
874.651 .0272010
875.321 .0271781
875.992 .0271557
876.662 .0271333
877.331 .0271116
878.001 .0270907
878.670 .0270701
879.338 .0270501
880.007 .0270309
880.675 .0270122
881.342 .0269938
882.009 .0269761
882.676 .0269585
883.343 .0269413
884.009 .0269246
884.675 .0269075
885.340 .0268902
886.005 .0268728
886.670 .0268552
887.334 .0268371
887.998 .0268192
888.662 .0268018
889.325 .0267850
889.988 .0267696
890.650 .0267556
891.312 .0267424
891.974 .0267305
892.636 .0267192
893.297 .0267075
893.957 .0266956
894.618 .0266834
895.278 .0266707
895.937 .0266580
896.596 .0266460
897.255 .0266347
897.914 .0266241
898.572 .0266141
899.230 .0266041
899.887 .0265931
900.544 .0265811
901.201 .0265669
901.857 .0265508
902.513 .0265333
903.168 .0265135
903.823 .0264924
904.478 .0264703
905.132 .0264474
905.786 .0264236
906.440 .0263988
907.093 .0263731
907.746 .0263459
908.399 .0263175
909.051 .0262881
909.703 .0262578
910.354 .0262271
911.005 .0261963
911.656 .0261651
912.306 .0261343
912.956 .0261035
913.605 .0260729
914.254 .0260432
914.903 .0260142
915.551 .0259864
916.199 .0259600
916.847 .0259349
917.494 .0259114
918.141 .0258891
918.788 .0258683
919.434 .0258483
920.079 .0258291
920.725 .0258107
921.370 .0257934
922.014 .0257773
922.658 .0257624
923.302 .0257489
923.946 .0257367
924.589 .0257256
925.231 .0257144
925.873 .0257033
926.515 .0256918
927.157 .0256797
927.798 .0256665
928.439 .0256522
929.079 .0256370
929.719 .0256208
930.359 .0256037
930.998 .0255865
931.637 .0255694
932.275 .0255528
932.913 .0255367
933.551 .0255212
934.188 .0255066
934.825 .0254931
935.462 .0254800
936.098 .0254683
936.733 .0254581
937.369 .0254493
938.004 .0254426
938.638 .0254387
939.273 .0254377
939.907 .0254393
940.540 .0254436
941.173 .0254500
941.806 .0254581
942.438 .0254679
943.070 .0254779
943.702 .0254885
944.333 .0254994
944.964 .0255097
945.594 .0255196
946.224 .0255292
946.854 .0255384
947.483 .0255471
948.112 .0255556
948.741 .0255635
949.369 .0255706
949.996 .0255776
950.624 .0255842
951.251 .0255903
951.878 .0255968
952.504 .0256034
953.130 .0256102
953.755 .0256178
954.380 .0256258
955.005 .0256339
955.629 .0256429
956.253 .0256519
956.877 .0256614
957.500 .0256706
958.123 .0256797
958.746 .0256878
959.368 .0256954
959.990 .0257023
960.611 .0257080
961.232 .0257132
961.853 .0257186
962.473 .0257234
963.093 .0257287
963.712 .0257337
964.331 .0257384
964.950 .0257431
965.569 .0257478
966.187 .0257522
966.804 .0257570
967.422 .0257626
968.039 .0257695
968.655 .0257775
969.272 .0257870
969.887 .0257971
970.503 .0258073
971.118 .0258179
971.733 .0258281
972.347 .0258381
972.961 .0258484
973.575 .0258589
974.188 .0258698
974.801 .0258811
975.414 .0258921
976.026 .0259024
976.638 .0259116
977.250 .0259187
977.861 .0259230
978.472 .0259248
979.083 .0259242
979.693 .0259213
980.303 .0259175
980.912 .0259133
981.521 .0259088
982.130 .0259046
982.738 .0259008
983.346 .0258968
983.954 .0258923
984.562 .0258871
985.169 .0258804
985.775 .0258727
986.382 .0258644
986.988 .0258554
987.594 .0258467
988.199 .0258392
988.804 .0258324
989.409 .0258270
990.013 .0258230
990.617 .0258202
991.221 .0258179
991.824 .0258173
992.427 .0258175
993.030 .0258180
993.632 .0258189
994.234 .0258200
994.836 .0258208
995.438 .0258214
996.039 .0258211
996.640 .0258200
997.240 .0258188
997.840 .0258182
998.440 .0258181
999.040 .0258192
999.639 .0258219
1000.238 .0258254
1000.836 .0258292
1001.435 .0258325
1002.033 .0258344
1002.630 .0258339
1003.228 .0258311
1003.825 .0258262
1004.422 .0258198
1005.018 .0258133
1005.614 .0258077
1006.210 .0258038
1006.806 .0258019
1007.401 .0258013
1007.996 .0258012
1008.591 .0258007
1009.186 .0258001
1009.780 .0257977
1010.374 .0257926
1010.967 .0257857
1011.561 .0257776
1012.154 .0257681
1012.746 .0257583
1013.339 .0257489
1013.931 .0257398
1014.523 .0257313
1015.115 .0257229
1015.706 .0257139
1016.298 .0257046
1016.888 .0256952
1017.479 .0256855
1018.069 .0256751
1018.660 .0256653
1019.250 .0256552
1019.839 .0256450
1020.429 .0256360
1021.018 .0256274
1021.607 .0256188
1022.195 .0256105
1022.784 .0256029
1023.372 .0255950
1023.960 .0255873
1024.547 .0255802
1025.135 .0255735
1025.722 .0255682
1026.309 .0255635
1026.896 .0255592
1027.483 .0255558
1028.069 .0255535
1028.655 .0255513
1029.241 .0255499
1029.827 .0255499
1030.412 .0255508
1030.997 .0255532
1031.582 .0255571
1032.167 .0255619
1032.752 .0255677
1033.336 .0255734
1033.921 .0255786
1034.505 .0255819
1035.089 .0255830
1035.672 .0255806
1036.256 .0255758
1036.839 .0255685
1037.422 .0255589
1038.005 .0255478
1038.588 .0255359
1039.171 .0255217
1039.753 .0255060
1040.335 .0254885
1040.918 .0254691
1041.500 .0254476
1042.081 .0254251
1042.663 .0254014
1043.244 .0253786
1043.826 .0253567
1044.407 .0253362
1044.988 .0253174
1045.569 .0253006
1046.150 .0252840
1046.730 .0252667
1047.311 .0252489
1047.891 .0252304
1048.471 .0252107
1049.052 .0251922
1049.632 .0251751
1050.211 .0251606
1050.791 .0251484
1051.371 .0251381
1051.950 .0251290
1052.530 .0251197
1053.109 .0251089
1053.688 .0250957
1054.268 .0250802
1054.847 .0250634
1055.426 .0250454
1056.005 .0250276
1056.583 .0250116
1057.162 .0249973
1057.741 .0249839
1058.319 .0249720
1058.898 .0249610
1059.476 .0249490
1060.055 .0249361
1060.633 .0249218
1061.211 .0249062
1061.790 .0248894
1062.368 .0248730
1062.946 .0248570
1063.524 .0248427
1064.102 .0248298
1064.680 .0248173
1065.258 .0248043
1065.836 .0247909
1066.414 .0247750
1066.992 .0247573
1067.570 .0247372
1068.148 .0247155
1068.726 .0246918
1069.304 .0246693
1069.882 .0246478
1070.460 .0246290
1071.038 .0246120
1071.616 .0245973
1072.194 .0245834
1072.772 .0245707
1073.350 .0245579
1073.928 .0245471
1074.506 .0245381
1075.084 .0245324
1075.662 .0245287
1076.240 .0245292
1076.819 .0245320
1077.397 .0245371
1077.976 .0245423
1078.554 .0245478
1079.133 .0245508
1079.711 .0245513
1080.290 .0245485
1080.869 .0245431
1081.448 .0245358
1082.027 .0245281
1082.606 .0245201
1083.185 .0245154
1083.764 .0245135
1084.343 .0245136
1084.923 .0245158
1085.502 .0245209
1086.082 .0245274
1086.662 .0245339
1087.242 .0245405
1087.822 .0245470
1088.402 .0245525
1088.983 .0245576
1089.563 .0245609
1090.144 .0245656
1090.725 .0245728
1091.306 .0245818
1091.887 .0245928
1092.469 .0246066
1093.050 .0246219
1093.632 .0246365
1094.214 .0246511
1094.796 .0246635
1095.379 .0246734
1095.961 .0246814
1096.544 .0246883
1097.127 .0246960
1097.710 .0247053
1098.294 .0247182
1098.877 .0247362
1099.461 .0247598
1100.046 .0247856
1100.630 .0248125
1101.215 .0248407
1101.800 .0248689
1102.385 .0248953
1102.970 .0249189
1103.556 .0249421
1104.142 .0249656
1104.728 .0249917
1105.315 .0250194
1105.902 .0250490
1106.489 .0250817
1107.077 .0251139
1107.664 .0251468
1108.253 .0251775
1108.841 .0252060
1109.430 .0252325
1110.019 .0252586
1110.609 .0252861
1111.198 .0253147
1111.789 .0253465
1112.379 .0253804
1112.970 .0254170
1113.561 .0254549
1114.153 .0254938
1114.745 .0255329
1115.338 .0255758
1115.931 .0256218
1116.524 .0256707
1117.117 .0257266
1117.712 .0257879
1118.306 .0258540
1118.901 .0259280
1119.496 .0260067
1120.092 .0260887
1120.689 .0261715
1121.285 .0262547
1121.882 .0263345
1122.480 .0264136
1123.078 .0264885
1123.677 .0265587
1124.276 .0266265
1124.875 .0266939
1125.476 .0267540
1126.076 .0268100
1126.677 .0268644
1127.279 .0269144
1127.881 .0269617
1128.484 .0270060
1129.087 .0270431
1129.691 .0270789
1130.295 .0271145
1130.900 .0271535
1131.505 .0271991
1132.111 .0272562
1132.718 .0273259
1133.325 .0274127
1133.933 .0275170
1134.541 .0276335
1135.150 .0277575
1135.760 .0278891
1136.370 .0280195
1136.981 .0281481
1137.592 .0282704
1138.204 .0283918
1138.817 .0285176
1139.431 .0286468
1140.045 .0287810
1140.660 .0289035
1141.275 .0290221
1141.891 .0291421
1142.508 .0293817
1143.126 .0295672
1143.744 .0291688
1144.363 .0293485
1144.983 .0297657
