Measurement Sequence started on: 15-12-46-377
Integration time: 28
Scans to Average: 2 
>>>>>Begin Spectral Data<<<<<
432.689 .0000100
433.621 .0000100
434.552 .0000100
435.482 .0000100
436.410 .0000100
437.337 .0000100
438.262 .0253901
439.187 .0536544
440.110 .0887285
441.031 .1282270
441.952 .1665348
442.871 .1966131
443.789 .2129650
444.705 .2137623
445.621 .2013663
446.535 .1808398
447.447 .1576927
448.359 .1222342
449.269 .1048286
450.178 .0938571
451.086 .0860979
451.993 .0801221
452.898 .0753994
453.803 .0715825
454.706 .0684544
455.608 .0658392
456.508 .0636457
457.408 .0617994
458.306 .0602304
459.204 .0588829
460.100 .0576979
460.995 .0566322
461.888 .0556562
462.781 .0547204
463.673 .0538283
464.563 .0529696
465.452 .0521372
466.340 .0513285
467.228 .0505579
468.114 .0498346
468.999 .0491632
469.882 .0485518
470.765 .0479988
471.647 .0475018
472.528 .0470617
473.407 .0466622
474.286 .0463105
475.163 .0459981
476.040 .0457257
476.915 .0454936
477.790 .0453070
478.663 .0451581
479.535 .0450552
480.407 .0449955
481.277 .0449732
482.147 .0449801
483.015 .0450060
483.883 .0450360
484.749 .0450617
485.615 .0450822
486.479 .0450891
487.343 .0450803
488.206 .0450730
489.067 .0450526
489.928 .0450302
490.788 .0450103
491.647 .0449994
492.505 .0449992
493.362 .0450170
494.218 .0450484
495.073 .0450904
495.928 .0451546
496.781 .0452372
497.634 .0453444
498.486 .0454984
499.337 .0456967
500.187 .0459403
501.036 .0462328
501.884 .0465737
502.731 .0469483
503.578 .0473645
504.424 .0478112
505.268 .0482824
506.113 .0487766
506.956 .0492993
507.798 .0498510
508.640 .0504467
509.480 .0510991
510.320 .0518157
511.160 .0526040
511.998 .0534688
512.836 .0544007
513.672 .0554277
514.508 .0565534
515.344 .0577952
516.178 .0591854
517.012 .0607518
517.845 .0625351
518.677 .0645591
519.508 .0668318
520.339 .0693983
521.169 .0723144
521.998 .0756107
522.826 .0793378
523.654 .0835579
524.481 .0882808
525.307 .0935720
526.133 .0994610
526.958 .1058761
527.782 .1127527
528.605 .1199623
529.428 .1273189
530.250 .1342528
531.072 .1405755
531.892 .1458918
532.712 .1499358
533.532 .1525394
534.350 .1534863
535.168 .1527286
535.986 .1503602
536.802 .1465153
537.618 .1414120
538.434 .1352702
539.249 .1285812
540.063 .1214575
540.876 .1142778
541.689 .1072732
542.501 .1006587
543.313 .0946176
544.124 .0892136
544.934 .0843932
545.744 .0800748
546.553 .0761980
547.361 .0727518
548.169 .0696795
548.976 .0669231
549.783 .0644442
550.589 .0622196
551.395 .0601878
552.200 .0583241
553.004 .0566082
553.808 .0550465
554.611 .0536216
555.414 .0523261
556.216 .0511396
557.018 .0500739
557.819 .0491170
558.619 .0482485
559.419 .0474640
560.218 .0467632
561.017 .0461144
561.815 .0455000
562.613 .0449116
563.410 .0443433
564.207 .0437829
565.003 .0432343
565.799 .0426922
566.594 .0421654
567.388 .0416510
568.182 .0411495
568.976 .0406536
569.769 .0401710
570.562 .0396943
571.354 .0392207
572.145 .0387563
572.936 .0383038
573.727 .0378643
574.517 .0374434
575.307 .0370409
576.096 .0366630
576.885 .0363071
577.673 .0359752
578.461 .0356647
579.248 .0353787
580.035 .0351087
580.821 .0348523
581.607 .0346063
582.392 .0343731
583.177 .0341540
583.962 .0339466
584.746 .0337523
585.529 .0335714
586.313 .0334062
587.095 .0332525
587.878 .0331118
588.660 .0329857
589.441 .0328720
590.222 .0327695
591.003 .0326800
591.783 .0326007
592.563 .0325323
593.342 .0324718
594.121 .0324172
594.899 .0323689
595.678 .0323252
596.455 .0322834
597.233 .0322448
598.009 .0322089
598.786 .0321758
599.562 .0321432
600.338 .0321117
601.113 .0320798
601.888 .0320461
602.663 .0320102
603.437 .0319709
604.211 .0319277
604.984 .0318810
605.757 .0318308
606.530 .0317786
607.302 .0317257
608.074 .0316737
608.845 .0316239
609.616 .0315764
610.387 .0315325
611.158 .0314916
611.928 .0314523
612.697 .0314154
613.467 .0313808
614.236 .0313485
615.004 .0313189
615.773 .0312919
616.541 .0312680
617.308 .0312467
618.076 .0312283
618.843 .0312113
619.609 .0311959
620.375 .0311819
621.141 .0311680
621.907 .0311528
622.672 .0311373
623.437 .0311204
624.202 .0311024
624.966 .0310838
625.730 .0310649
626.493 .0310451
627.257 .0310244
628.020 .0310029
628.782 .0309802
629.545 .0309561
630.307 .0309314
631.068 .0309061
631.830 .0308798
632.591 .0308530
633.352 .0308262
634.112 .0307988
634.872 .0307721
635.632 .0307452
636.392 .0307171
637.151 .0306884
637.910 .0306588
638.668 .0306280
639.427 .0305966
640.185 .0305654
640.943 .0305339
641.700 .0305034
642.457 .0304748
643.214 .0304472
643.971 .0304207
644.727 .0303965
645.483 .0303735
646.239 .0303519
646.994 .0303319
647.750 .0303131
648.505 .0302958
649.259 .0302807
650.014 .0302669
650.768 .0302542
651.521 .0302428
652.275 .0302320
653.028 .0302207
653.781 .0302089
654.534 .0301959
655.286 .0301811
656.039 .0301649
656.791 .0301472
657.542 .0301275
658.294 .0301070
659.045 .0300857
659.796 .0300636
660.546 .0300407
661.297 .0300175
662.047 .0299933
662.796 .0299682
663.546 .0299422
664.295 .0299151
665.044 .0298871
665.793 .0298591
666.542 .0298317
667.290 .0298060
668.038 .0297822
668.786 .0297611
669.533 .0297424
670.281 .0297262
671.028 .0297115
671.774 .0296977
672.521 .0296840
673.267 .0296704
674.013 .0296557
674.759 .0296407
675.505 .0296257
676.250 .0296104
676.995 .0295948
677.740 .0295793
678.484 .0295629
679.229 .0295456
679.973 .0295269
680.717 .0295068
681.460 .0294850
682.204 .0294622
682.947 .0294388
683.690 .0294151
684.433 .0293919
685.175 .0293693
685.917 .0293470
686.659 .0293264
687.401 .0293059
688.142 .0292859
688.884 .0292667
689.625 .0292483
690.365 .0292304
691.106 .0292135
691.846 .0291977
692.586 .0291833
693.326 .0291703
694.066 .0291589
694.805 .0291481
695.545 .0291378
696.284 .0291272
697.022 .0291157
697.761 .0291032
698.499 .0290896
699.237 .0290744
699.975 .0290589
700.713 .0290430
701.450 .0290272
702.187 .0290121
702.924 .0289975
703.661 .0289836
704.397 .0289698
705.133 .0289557
705.869 .0289409
706.605 .0289251
707.341 .0289083
708.076 .0288905
708.811 .0288724
709.546 .0288542
710.281 .0288363
711.015 .0288195
711.749 .0288037
712.483 .0287889
713.217 .0287749
713.950 .0287616
714.684 .0287486
715.417 .0287360
716.150 .0287234
716.882 .0287111
717.615 .0286988
718.347 .0286866
719.079 .0286742
719.811 .0286620
720.542 .0286497
721.273 .0286367
722.005 .0286230
722.735 .0286086
723.466 .0285931
724.196 .0285766
724.927 .0285587
725.656 .0285399
726.386 .0285205
727.116 .0285006
727.845 .0284808
728.574 .0284615
729.303 .0284432
730.031 .0284264
730.760 .0284108
731.488 .0283966
732.216 .0283840
732.944 .0283733
733.671 .0283644
734.398 .0283576
735.125 .0283523
735.852 .0283487
736.579 .0283467
737.305 .0283463
738.031 .0283467
738.757 .0283475
739.483 .0283486
740.208 .0283494
740.933 .0283496
741.658 .0283488
742.383 .0283467
743.108 .0283436
743.832 .0283394
744.556 .0283342
745.280 .0283276
746.004 .0283198
746.727 .0283107
747.450 .0283005
748.173 .0282891
748.896 .0282767
749.618 .0282635
750.340 .0282501
751.062 .0282370
751.784 .0282239
752.506 .0282108
753.227 .0281972
753.948 .0281827
754.669 .0281671
755.389 .0281500
756.110 .0281310
756.830 .0281107
757.550 .0280899
758.269 .0280688
758.989 .0280481
759.708 .0280279
760.427 .0280085
761.146 .0279896
761.864 .0279708
762.582 .0279516
763.300 .0279315
764.018 .0279112
764.736 .0278903
765.453 .0278695
766.170 .0278494
766.887 .0278307
767.603 .0278136
768.320 .0277984
769.036 .0277845
769.751 .0277713
770.467 .0277582
771.182 .0277449
771.897 .0277307
772.612 .0277157
773.327 .0277000
774.041 .0276842
774.755 .0276686
775.469 .0276541
776.183 .0276409
776.896 .0276292
777.609 .0276193
778.322 .0276105
779.035 .0276023
779.747 .0275950
780.459 .0275877
781.171 .0275806
781.882 .0275735
782.594 .0275665
783.305 .0275595
784.016 .0275529
784.726 .0275464
785.436 .0275400
786.147 .0275334
786.856 .0275262
787.566 .0275174
788.275 .0275071
788.984 .0274950
789.693 .0274811
790.401 .0274659
791.110 .0274496
791.818 .0274330
792.525 .0274169
793.233 .0274016
793.940 .0273877
794.647 .0273753
795.353 .0273647
796.060 .0273552
796.766 .0273466
797.472 .0273383
798.177 .0273303
798.883 .0273223
799.588 .0273147
800.292 .0273071
800.997 .0273002
801.701 .0272934
802.405 .0272869
803.109 .0272805
803.812 .0272741
804.515 .0272669
805.218 .0272584
805.921 .0272487
806.623 .0272373
807.325 .0272244
808.027 .0272102
808.728 .0271951
809.429 .0271796
810.130 .0271637
810.831 .0271478
811.531 .0271319
812.231 .0271160
812.931 .0270999
813.630 .0270838
814.330 .0270679
815.029 .0270517
815.727 .0270357
816.426 .0270201
817.124 .0270054
817.821 .0269914
818.519 .0269787
819.216 .0269675
819.913 .0269580
820.609 .0269502
821.306 .0269438
822.002 .0269394
822.697 .0269370
823.393 .0269363
824.088 .0269370
824.783 .0269389
825.477 .0269419
826.171 .0269454
826.865 .0269497
827.559 .0269544
828.252 .0269591
828.945 .0269636
829.638 .0269679
830.330 .0269717
831.023 .0269752
831.714 .0269788
832.406 .0269824
833.097 .0269861
833.788 .0269893
834.479 .0269922
835.169 .0269946
835.859 .0269969
836.548 .0269985
837.238 .0269998
837.927 .0270005
838.615 .0270014
839.304 .0270021
839.992 .0270036
840.680 .0270061
841.367 .0270090
842.054 .0270122
842.741 .0270154
843.428 .0270179
844.114 .0270198
844.800 .0270203
845.485 .0270198
846.170 .0270178
846.855 .0270147
847.540 .0270105
848.224 .0270054
848.908 .0269998
849.592 .0269933
850.275 .0269854
850.958 .0269760
851.641 .0269646
852.323 .0269514
853.005 .0269365
853.687 .0269200
854.368 .0269028
855.049 .0268850
855.730 .0268670
856.410 .0268489
857.090 .0268307
857.769 .0268123
858.449 .0267930
859.128 .0267733
859.806 .0267527
860.485 .0267321
861.163 .0267118
861.840 .0266921
862.518 .0266737
863.195 .0266564
863.871 .0266398
864.548 .0266239
865.224 .0266084
865.899 .0265929
866.574 .0265768
867.249 .0265605
867.924 .0265444
868.598 .0265286
869.272 .0265137
869.946 .0264998
870.619 .0264868
871.292 .0264749
871.964 .0264628
872.636 .0264507
873.308 .0264385
873.979 .0264258
874.651 .0264127
875.321 .0263989
875.992 .0263854
876.662 .0263718
877.331 .0263584
878.001 .0263458
878.670 .0263332
879.338 .0263209
880.007 .0263087
880.675 .0262961
881.342 .0262835
882.009 .0262708
882.676 .0262582
883.343 .0262460
884.009 .0262342
884.675 .0262224
885.340 .0262105
886.005 .0261992
886.670 .0261884
887.334 .0261778
887.998 .0261679
888.662 .0261584
889.325 .0261490
889.988 .0261400
890.650 .0261315
891.312 .0261232
891.974 .0261158
892.636 .0261091
893.297 .0261030
893.957 .0260976
894.618 .0260931
895.278 .0260892
895.937 .0260861
896.596 .0260839
897.255 .0260815
897.914 .0260790
898.572 .0260762
899.230 .0260728
899.887 .0260688
900.544 .0260639
901.201 .0260580
901.857 .0260510
902.513 .0260429
903.168 .0260332
903.823 .0260219
904.478 .0260088
905.132 .0259937
905.786 .0259765
906.440 .0259574
907.093 .0259365
907.746 .0259141
908.399 .0258909
909.051 .0258668
909.703 .0258420
910.354 .0258170
911.005 .0257918
911.656 .0257666
912.306 .0257415
912.956 .0257165
913.605 .0256920
914.254 .0256685
914.903 .0256458
915.551 .0256245
916.199 .0256051
916.847 .0255872
917.494 .0255707
918.141 .0255559
918.788 .0255421
919.434 .0255294
920.079 .0255170
920.725 .0255043
921.370 .0254913
922.014 .0254780
922.658 .0254638
923.302 .0254492
923.946 .0254345
924.589 .0254188
925.231 .0254018
925.873 .0253842
926.515 .0253656
927.157 .0253461
927.798 .0253257
928.439 .0253043
929.079 .0252821
929.719 .0252593
930.359 .0252358
930.998 .0252119
931.637 .0251884
932.275 .0251657
932.913 .0251433
933.551 .0251221
934.188 .0251026
934.825 .0250844
935.462 .0250682
936.098 .0250542
936.733 .0250422
937.369 .0250323
938.004 .0250243
938.638 .0250181
939.273 .0250135
939.907 .0250104
940.540 .0250084
941.173 .0250073
941.806 .0250076
942.438 .0250090
943.070 .0250115
943.702 .0250150
944.333 .0250195
944.964 .0250243
945.594 .0250292
946.224 .0250339
946.854 .0250385
947.483 .0250421
948.112 .0250451
948.741 .0250473
949.369 .0250491
949.996 .0250507
950.624 .0250523
951.251 .0250543
951.878 .0250568
952.504 .0250597
953.130 .0250626
953.755 .0250656
954.380 .0250689
955.005 .0250716
955.629 .0250739
956.253 .0250758
956.877 .0250776
957.500 .0250795
958.123 .0250817
958.746 .0250838
959.368 .0250855
959.990 .0250868
960.611 .0250871
961.232 .0250865
961.853 .0250855
962.473 .0250841
963.093 .0250827
963.712 .0250818
964.331 .0250814
964.950 .0250813
965.569 .0250826
966.187 .0250849
966.804 .0250881
967.422 .0250923
968.039 .0250969
968.655 .0251022
969.272 .0251077
969.887 .0251138
970.503 .0251201
971.118 .0251269
971.733 .0251341
972.347 .0251410
972.961 .0251476
973.575 .0251534
974.188 .0251581
974.801 .0251606
975.414 .0251616
976.026 .0251607
976.638 .0251579
977.250 .0251539
977.861 .0251492
978.472 .0251447
979.083 .0251401
979.693 .0251353
980.303 .0251303
980.912 .0251247
981.521 .0251181
982.130 .0251102
982.738 .0251013
983.346 .0250918
983.954 .0250821
984.562 .0250730
985.169 .0250641
985.775 .0250562
986.382 .0250490
986.988 .0250421
987.594 .0250349
988.199 .0250272
988.804 .0250182
989.409 .0250087
990.013 .0249990
990.617 .0249893
991.221 .0249801
991.824 .0249727
992.427 .0249668
993.030 .0249627
993.632 .0249599
994.234 .0249585
994.836 .0249578
995.438 .0249582
996.039 .0249587
996.640 .0249594
997.240 .0249605
997.840 .0249622
998.440 .0249644
999.040 .0249674
999.639 .0249707
1000.238 .0249751
1000.836 .0249795
1001.435 .0249837
1002.033 .0249871
1002.630 .0249898
1003.228 .0249921
1003.825 .0249939
1004.422 .0249951
1005.018 .0249965
1005.614 .0249979
1006.210 .0249992
1006.806 .0250005
1007.401 .0250020
1007.996 .0250034
1008.591 .0250044
1009.186 .0250047
1009.780 .0250047
1010.374 .0250039
1010.967 .0250025
1011.561 .0249999
1012.154 .0249962
1012.746 .0249912
1013.339 .0249844
1013.931 .0249764
1014.523 .0249681
1015.115 .0249593
1015.706 .0249514
1016.298 .0249437
1016.888 .0249371
1017.479 .0249300
1018.069 .0249232
1018.660 .0249158
1019.250 .0249081
1019.839 .0248997
1020.429 .0248915
1021.018 .0248845
1021.607 .0248799
1022.195 .0248780
1022.784 .0248789
1023.372 .0248825
1023.960 .0248888
1024.547 .0248956
1025.135 .0249022
1025.722 .0249083
1026.309 .0249144
1026.896 .0249201
1027.483 .0249261
1028.069 .0249320
1028.655 .0249382
1029.241 .0249446
1029.827 .0249509
1030.412 .0249567
1030.997 .0249621
1031.582 .0249662
1032.167 .0249690
1032.752 .0249712
1033.336 .0249726
1033.921 .0249735
1034.505 .0249745
1035.089 .0249753
1035.672 .0249751
1036.256 .0249739
1036.839 .0249711
1037.422 .0249675
1038.005 .0249633
1038.588 .0249587
1039.171 .0249539
1039.753 .0249499
1040.335 .0249462
1040.918 .0249431
1041.500 .0249404
1042.081 .0249378
1042.663 .0249338
1043.244 .0249292
1043.826 .0249223
1044.407 .0249139
1044.988 .0249039
1045.569 .0248926
1046.150 .0248811
1046.730 .0248701
1047.311 .0248595
1047.891 .0248505
1048.471 .0248441
1049.052 .0248396
1049.632 .0248361
1050.211 .0248338
1050.791 .0248312
1051.371 .0248279
1051.950 .0248241
1052.530 .0248196
1053.109 .0248150
1053.688 .0248106
1054.268 .0248071
1054.847 .0248045
1055.426 .0248031
1056.005 .0248018
1056.583 .0248000
1057.162 .0247973
1057.741 .0247933
1058.319 .0247873
1058.898 .0247803
1059.476 .0247725
1060.055 .0247646
1060.633 .0247555
1061.211 .0247468
1061.790 .0247379
1062.368 .0247308
1062.946 .0247242
1063.524 .0247191
1064.102 .0247152
1064.680 .0247124
1065.258 .0247089
1065.836 .0247054
1066.414 .0247006
1066.992 .0246960
1067.570 .0246903
1068.148 .0246836
1068.726 .0246753
1069.304 .0246672
1069.882 .0246585
1070.460 .0246504
1071.038 .0246411
1071.616 .0246327
1072.194 .0246231
1072.772 .0246134
1073.350 .0246033
1073.928 .0245935
1074.506 .0245843
1075.084 .0245761
1075.662 .0245688
1076.240 .0245637
1076.819 .0245594
1077.397 .0245570
1077.976 .0245561
1078.554 .0245574
1079.133 .0245597
1079.711 .0245630
1080.290 .0245663
1080.869 .0245708
1081.448 .0245741
1082.027 .0245772
1082.606 .0245789
1083.185 .0245802
1083.764 .0245807
1084.343 .0245806
1084.923 .0245822
1085.502 .0245863
1086.082 .0245924
1086.662 .0246013
1087.242 .0246118
1087.822 .0246236
1088.402 .0246360
1088.983 .0246492
1089.563 .0246620
1090.144 .0246761
1090.725 .0246920
1091.306 .0247091
1091.887 .0247278
1092.469 .0247495
1093.050 .0247721
1093.632 .0247962
1094.214 .0248218
1094.796 .0248463
1095.379 .0248693
1095.961 .0248906
1096.544 .0249081
1097.127 .0249210
1097.710 .0249298
1098.294 .0249342
1098.877 .0249334
1099.461 .0249301
1100.046 .0249226
1100.630 .0249124
1101.215 .0249013
1101.800 .0248901
1102.385 .0248791
1102.970 .0248692
1103.556 .0248591
1104.142 .0248488
1104.728 .0248401
1105.315 .0248328
1105.902 .0248262
1106.489 .0248235
1107.077 .0248263
1107.664 .0248344
1108.253 .0248484
1108.841 .0248688
1109.430 .0248948
1110.019 .0249273
1110.609 .0249654
1111.198 .0250064
1111.789 .0250503
1112.379 .0250971
1112.970 .0251453
1113.561 .0251972
1114.153 .0252524
1114.745 .0253082
1115.338 .0253660
1115.931 .0254259
1116.524 .0254859
1117.117 .0255467
1117.712 .0256097
1118.306 .0256734
1118.901 .0257385
1119.496 .0258040
1120.092 .0258673
1120.689 .0259288
1121.285 .0259872
1121.882 .0260379
1122.480 .0260812
1123.078 .0261219
1123.677 .0261536
1124.276 .0261820
1124.875 .0262121
1125.476 .0262430
1126.076 .0262795
1126.677 .0263225
1127.279 .0263713
1127.881 .0264249
1128.484 .0264830
1129.087 .0265421
1129.691 .0265996
1130.295 .0266606
1130.900 .0267204
1131.505 .0267841
1132.111 .0268611
1132.718 .0269487
1133.325 .0270473
1133.933 .0271609
1134.541 .0272876
1135.150 .0274250
1135.760 .0275718
1136.370 .0277269
1136.981 .0278881
1137.592 .0280509
1138.204 .0282177
1138.817 .0283875
1139.431 .0285737
1140.045 .0287710
1140.660 .0289824
1141.275 .0292275
1141.891 .0294979
1142.508 .0298090
1143.126 .0299319
1143.744 .0302568
1144.363 .0310519
1144.983 .0312767
