BestFit value for E:\RC_data\Compressed_For_Future_Analysis_Full\0007_2025-12-09_11-53-06\Interpretation_History\2025-12-10_09-33-50\ResultsGraphs\BestFit\(Run)spectra_11-54-08-653_BestFit.txt
600.338 0.0317818
601.113 0.0317490
601.888 0.0317164
602.663 0.0316840
603.437 0.0316518
604.211 0.0316198
604.984 0.0315880
605.757 0.0315564
606.530 0.0315248
607.302 0.0314934
608.074 0.0314620
608.845 0.0314308
609.616 0.0313996
610.387 0.0313684
611.158 0.0313372
611.928 0.0313061
612.697 0.0312750
613.467 0.0312438
614.236 0.0312126
615.004 0.0311814
615.773 0.0311501
616.541 0.0311188
617.308 0.0310874
618.076 0.0310559
618.843 0.0310244
619.609 0.0309929
620.375 0.0309613
621.141 0.0309296
621.907 0.0308979
622.672 0.0308661
623.437 0.0308343
624.202 0.0308025
624.966 0.0307707
625.730 0.0307389
626.493 0.0307071
627.257 0.0306754
628.020 0.0306437
628.782 0.0306121
629.545 0.0305805
630.307 0.0305491
631.068 0.0305179
631.830 0.0304867
632.591 0.0304557
633.352 0.0304250
634.112 0.0303944
634.872 0.0303641
635.632 0.0303340
636.392 0.0303041
637.151 0.0302746
637.910 0.0302453
638.668 0.0302164
639.427 0.0301877
640.185 0.0301594
640.943 0.0301314
641.700 0.0301039
642.457 0.0300766
643.214 0.0300497
643.971 0.0300232
644.727 0.0299970
645.483 0.0299713
646.239 0.0299458
646.994 0.0299208
647.750 0.0298960
648.505 0.0298717
649.259 0.0298477
650.014 0.0298240
650.768 0.0298006
651.521 0.0297775
652.275 0.0297547
653.028 0.0297322
653.781 0.0297099
654.534 0.0296878
655.286 0.0296659
656.039 0.0296442
656.791 0.0296227
657.542 0.0296013
658.294 0.0295800
659.045 0.0295589
659.796 0.0295378
660.546 0.0295167
661.297 0.0294956
662.047 0.0294746
662.796 0.0294535
663.546 0.0294324
664.295 0.0294112
665.044 0.0293899
665.793 0.0293685
666.542 0.0293470
667.290 0.0293254
668.038 0.0293035
668.786 0.0292815
669.533 0.0292593
670.281 0.0292369
671.028 0.0292143
671.774 0.0291915
672.521 0.0291685
673.267 0.0291452
674.013 0.0291217
674.759 0.0290980
675.505 0.0290740
676.250 0.0290499
676.995 0.0290255
677.740 0.0290009
678.484 0.0289761
679.229 0.0289511
679.973 0.0289259
680.717 0.0289006
681.460 0.0288751
682.204 0.0288494
682.947 0.0288237
683.690 0.0287979
684.433 0.0287720
685.175 0.0287460
685.917 0.0287201
686.659 0.0286941
687.401 0.0286681
688.142 0.0286422
688.884 0.0286163
689.625 0.0285906
690.365 0.0285650
691.106 0.0285395
691.846 0.0285141
692.586 0.0284890
693.326 0.0284641
694.066 0.0284394
694.805 0.0284150
695.545 0.0283908
696.284 0.0283670
697.022 0.0283435
697.761 0.0283204
698.499 0.0282976
699.237 0.0282752
699.975 0.0282532
700.713 0.0282316
701.450 0.0282104
702.187 0.0281896
702.924 0.0281693
703.661 0.0281494
704.397 0.0281300
705.133 0.0281110
705.869 0.0280925
706.605 0.0280744
707.341 0.0280568
708.076 0.0280396
708.811 0.0280229
709.546 0.0280066
710.281 0.0279907
711.015 0.0279752
711.749 0.0279601
712.483 0.0279454
713.217 0.0279310
713.950 0.0279171
714.684 0.0279034
715.417 0.0278900
716.150 0.0278769
716.882 0.0278641
717.615 0.0278516
718.347 0.0278392
719.079 0.0278270
719.811 0.0278150
720.542 0.0278032
721.273 0.0277914
722.005 0.0277797
722.735 0.0277681
723.466 0.0277565
724.196 0.0277449
724.927 0.0277333
725.656 0.0277216
726.386 0.0277099
727.116 0.0276980
727.845 0.0276860
728.574 0.0276738
729.303 0.0276615
730.031 0.0276490
730.760 0.0276362
731.488 0.0276232
732.216 0.0276099
732.944 0.0275963
733.671 0.0275824
734.398 0.0275682
735.125 0.0275537
735.852 0.0275388
736.579 0.0275236
737.305 0.0275080
738.031 0.0274920
738.757 0.0274756
739.483 0.0274589
740.208 0.0274417
740.933 0.0274242
741.658 0.0274063
742.383 0.0273880
743.108 0.0273692
743.832 0.0273502
744.556 0.0273307
745.280 0.0273109
746.004 0.0272907
746.727 0.0272702
747.450 0.0272494
748.173 0.0272283
748.896 0.0272068
749.618 0.0271851
750.340 0.0271632
751.062 0.0271410
751.784 0.0271185
752.506 0.0270959
753.227 0.0270731
753.948 0.0270502
754.669 0.0270271
755.389 0.0270040
756.110 0.0269807
756.830 0.0269575
757.550 0.0269342
758.269 0.0269109
758.989 0.0268877
759.708 0.0268645
760.427 0.0268414
761.146 0.0268185
761.864 0.0267957
762.582 0.0267731
763.300 0.0267507
764.018 0.0267285
764.736 0.0267065
765.453 0.0266849
766.170 0.0266635
766.887 0.0266425
767.603 0.0266218
768.320 0.0266015
769.036 0.0265816
769.751 0.0265621
770.467 0.0265431
771.182 0.0265245
771.897 0.0265063
772.612 0.0264887
773.327 0.0264715
774.041 0.0264548
774.755 0.0264387
775.469 0.0264231
776.183 0.0264080
776.896 0.0263934
777.609 0.0263794
778.322 0.0263660
779.035 0.0263530
779.747 0.0263407
780.459 0.0263289
781.171 0.0263176
781.882 0.0263069
782.594 0.0262967
783.305 0.0262870
784.016 0.0262778
784.726 0.0262692
785.436 0.0262610
786.147 0.0262534
786.856 0.0262462
787.566 0.0262394
788.275 0.0262331
788.984 0.0262272
789.693 0.0262216
790.401 0.0262165
791.110 0.0262117
791.818 0.0262073
792.525 0.0262032
793.233 0.0261993
793.940 0.0261957
794.647 0.0261924
795.353 0.0261892
796.060 0.0261863
796.766 0.0261835
797.472 0.0261808
798.177 0.0261783
798.883 0.0261758
799.588 0.0261734
800.292 0.0261710
800.997 0.0261686
801.701 0.0261662
802.405 0.0261637
803.109 0.0261611
803.812 0.0261584
804.515 0.0261556
805.218 0.0261526
805.921 0.0261494
806.623 0.0261460
807.325 0.0261424
808.027 0.0261385
808.728 0.0261344
809.429 0.0261299
810.130 0.0261251
810.831 0.0261199
811.531 0.0261144
812.231 0.0261085
812.931 0.0261022
813.630 0.0260955
814.330 0.0260884
815.029 0.0260808
815.727 0.0260728
816.426 0.0260643
817.124 0.0260553
817.821 0.0260458
818.519 0.0260358
819.216 0.0260254
819.913 0.0260144
820.609 0.0260030
821.306 0.0259910
822.002 0.0259785
822.697 0.0259655
823.393 0.0259520
824.088 0.0259379
824.783 0.0259234
825.477 0.0259084
826.171 0.0258929
826.865 0.0258769
827.559 0.0258604
828.252 0.0258435
828.945 0.0258261
829.638 0.0258083
830.330 0.0257901
831.023 0.0257714
831.714 0.0257523
832.406 0.0257329
833.097 0.0257130
833.788 0.0256929
834.479 0.0256724
835.169 0.0256516
835.859 0.0256305
836.548 0.0256092
837.238 0.0255876
837.927 0.0255657
838.615 0.0255437
839.304 0.0255215
839.992 0.0254992
840.680 0.0254767
841.367 0.0254541
842.054 0.0254314
842.741 0.0254087
843.428 0.0253859
844.114 0.0253632
844.800 0.0253404
845.485 0.0253177
846.170 0.0252951
846.855 0.0252725
847.540 0.0252501
848.224 0.0252278
848.908 0.0252057
849.592 0.0251837
850.275 0.0251620
850.958 0.0251406
851.641 0.0251193
852.323 0.0250984
853.005 0.0250778
853.687 0.0250575
854.368 0.0250375
855.049 0.0250179
855.730 0.0249987
856.410 0.0249799
857.090 0.0249615
857.769 0.0249436
858.449 0.0249261
859.128 0.0249090
859.806 0.0248925
860.485 0.0248765
861.163 0.0248609
861.840 0.0248459
862.518 0.0248315
863.195 0.0248175
863.871 0.0248042
864.548 0.0247913
865.224 0.0247791
865.899 0.0247674
866.574 0.0247564
867.249 0.0247458
867.924 0.0247359
868.598 0.0247266
869.272 0.0247178
869.946 0.0247097
870.619 0.0247021
871.292 0.0246951
871.964 0.0246888
872.636 0.0246829
873.308 0.0246777
873.979 0.0246730
874.651 0.0246689
875.321 0.0246654
875.992 0.0246624
876.662 0.0246599
877.331 0.0246580
878.001 0.0246566
878.670 0.0246556
879.338 0.0246552
880.007 0.0246553
880.675 0.0246558
881.342 0.0246568
882.009 0.0246582
882.676 0.0246600
883.343 0.0246622
884.009 0.0246649
884.675 0.0246678
885.340 0.0246712
886.005 0.0246748
886.670 0.0246788
887.334 0.0246831
887.998 0.0246876
888.662 0.0246924
889.325 0.0246975
889.988 0.0247027
890.650 0.0247081
891.312 0.0247137
891.974 0.0247195
892.636 0.0247254
893.297 0.0247313
893.957 0.0247374
894.618 0.0247435
895.278 0.0247497
895.937 0.0247559
896.596 0.0247621
897.255 0.0247682
897.914 0.0247743
898.572 0.0247804
899.230 0.0247863
899.887 0.0247922
900.544 0.0247979
901.201 0.0248034
901.857 0.0248088
902.513 0.0248140
903.168 0.0248190
903.823 0.0248238
904.478 0.0248283
905.132 0.0248326
905.786 0.0248365
906.440 0.0248402
907.093 0.0248436
907.746 0.0248466
908.399 0.0248493
909.051 0.0248516
909.703 0.0248536
910.354 0.0248551
911.005 0.0248563
911.656 0.0248570
912.306 0.0248573
912.956 0.0248572
913.605 0.0248566
914.254 0.0248556
914.903 0.0248541
915.551 0.0248521
916.199 0.0248496
916.847 0.0248466
917.494 0.0248432
918.141 0.0248392
918.788 0.0248347
919.434 0.0248298
920.079 0.0248243
920.725 0.0248182
921.370 0.0248117
922.014 0.0248046
922.658 0.0247970
923.302 0.0247889
923.946 0.0247802
924.589 0.0247710
925.231 0.0247613
925.873 0.0247511
926.515 0.0247404
927.157 0.0247291
927.798 0.0247174
928.439 0.0247051
929.079 0.0246923
929.719 0.0246791
930.359 0.0246653
930.998 0.0246511
931.637 0.0246364
932.275 0.0246213
932.913 0.0246057
933.551 0.0245896
934.188 0.0245732
934.825 0.0245563
935.462 0.0245390
936.098 0.0245213
936.733 0.0245032
937.369 0.0244847
938.004 0.0244659
938.638 0.0244468
939.273 0.0244272
939.907 0.0244074
940.540 0.0243873
941.173 0.0243669
941.806 0.0243462
942.438 0.0243252
943.070 0.0243040
943.702 0.0242826
944.333 0.0242609
944.964 0.0242391
945.594 0.0242171
946.224 0.0241949
946.854 0.0241725
947.483 0.0241501
948.112 0.0241275
948.741 0.0241048
949.369 0.0240820
949.996 0.0240592
950.624 0.0240363
951.251 0.0240134
951.878 0.0239905
952.504 0.0239676
953.130 0.0239447
953.755 0.0239219
954.380 0.0238991
955.005 0.0238764
955.629 0.0238537
956.253 0.0238312
956.877 0.0238088
957.500 0.0237865
958.123 0.0237644
958.746 0.0237425
959.368 0.0237207
959.990 0.0236991
960.611 0.0236797
961.232 0.0236605
961.853 0.0236416
962.473 0.0236229
963.093 0.0236044
963.712 0.0235863
964.331 0.0235684
964.950 0.0235508
965.569 0.0235335
966.187 0.0235166
966.804 0.0235000
967.422 0.0234838
968.039 0.0234679
968.655 0.0234524
969.272 0.0234373
969.887 0.0234226
970.503 0.0234082
971.118 0.0233943
971.733 0.0233808
972.347 0.0233678
972.961 0.0233552
973.575 0.0233430
974.188 0.0233313
974.801 0.0233200
975.414 0.0233092
976.026 0.0232989
976.638 0.0232890
977.250 0.0232796
977.861 0.0232707
978.472 0.0232624
979.083 0.0232544
979.693 0.0232470
980.303 0.0232401
980.912 0.0232337
981.521 0.0232279
982.130 0.0232225
982.738 0.0232176
983.346 0.0232132
983.954 0.0232093
984.562 0.0232060
985.169 0.0232031
985.775 0.0232007
986.382 0.0231989
986.988 0.0231975
987.594 0.0231967
988.199 0.0231963
988.804 0.0231965
989.409 0.0231971
990.013 0.0231982
990.617 0.0231998
991.221 0.0232019
991.824 0.0232044
992.427 0.0232074
993.030 0.0232109
993.632 0.0232148
994.234 0.0232192
994.836 0.0232240
995.438 0.0232292
996.039 0.0232349
996.640 0.0232410
997.240 0.0232474
997.840 0.0232543
998.440 0.0232616
999.040 0.0232693
999.639 0.0232773
1000.238 0.0232851
1000.836 0.0232923
1001.435 0.0232998
1002.033 0.0233077
1002.63 0.0233159
1003.228 0.0233244
1003.825 0.0233332
1004.422 0.0233424
1005.018 0.0233518
1005.614 0.0233614
1006.21 0.0233714
1006.806 0.0233816
1007.401 0.0233920
1007.996 0.0234027
1008.591 0.0234136
1009.186 0.0234247
1009.78 0.0234359
1010.374 0.0234474
1010.967 0.0234590
1011.561 0.0234708
1012.154 0.0234827
1012.746 0.0234947
1013.339 0.0235069
1013.931 0.0235191
1014.523 0.0235314
1015.115 0.0235439
1015.706 0.0235563
1016.298 0.0235689
1016.888 0.0235814
1017.479 0.0235940
1018.069 0.0236066
1018.66 0.0236193
1019.25 0.0236319
1019.839 0.0236444
1020.429 0.0236570
1021.018 0.0236695
1021.607 0.0236819
1022.195 0.0236942
1022.784 0.0237065
1023.372 0.0237186
1023.96 0.0237307
1024.547 0.0237426
1025.135 0.0237544
1025.722 0.0237661
1026.309 0.0237775
1026.896 0.0237889
1027.483 0.0238000
1028.069 0.0238110
1028.655 0.0238217
1029.241 0.0238323
1029.827 0.0238426
1030.412 0.0238527
1030.997 0.0238625
1031.582 0.0238721
1032.167 0.0238815
1032.752 0.0238905
1033.336 0.0238993
1033.921 0.0239078
1034.505 0.0239160
1035.089 0.0239239
1035.672 0.0239315
1036.256 0.0239387
1036.839 0.0239457
1037.422 0.0239523
1038.005 0.0239585
1038.588 0.0239644
1039.171 0.0239699
1039.753 0.0239751
1040.335 0.0239799
1040.918 0.0239843
1041.50 0.0239884
1042.081 0.0239920
1042.663 0.0239952
1043.244 0.0239981
1043.826 0.0240005
1044.407 0.0240026
1044.988 0.0240042
1045.569 0.0240054
1046.15 0.0240062
1046.73 0.0240066
1047.311 0.0240065
1047.891 0.0240060
1048.471 0.0240051
1049.052 0.0240037
1049.632 0.0240019
1050.211 0.0239997
1050.791 0.0239970
1051.371 0.0239939
1051.95 0.0239903
1052.53 0.0239863
1053.109 0.0239818
1053.688 0.0239769
1054.268 0.0239716
1054.847 0.0239658
1055.426 0.0239595
1056.005 0.0239528
1056.583 0.0239457
1057.162 0.0239382
1057.741 0.0239301
1058.319 0.0239217
1058.898 0.0239128
1059.476 0.0239035
1060.055 0.0238938
1060.633 0.0238836
1061.211 0.0238730
1061.79 0.0238619
1062.368 0.0238505
1062.946 0.0238386
1063.524 0.0238264
1064.102 0.0238137
1064.68 0.0238006
1065.258 0.0237871
1065.836 0.0237733
1066.414 0.0237590
1066.992 0.0237443
1067.57 0.0237293
1068.148 0.0237139
1068.726 0.0236981
1069.304 0.0236820
1069.882 0.0236655
1070.46 0.0236487
1071.038 0.0236315
1071.616 0.0236140
1072.194 0.0235962
1072.772 0.0235780
1073.35 0.0235595
1073.928 0.0235408
1074.506 0.0235217
1075.084 0.0235023
1075.662 0.0234827
1076.24 0.0234627
1076.819 0.0234425
1077.397 0.0234220
1077.976 0.0234013
1078.554 0.0233804
1079.133 0.0233591
1079.711 0.0233377
1080.29 0.0233161
1080.869 0.0232942
1081.448 0.0232722
1082.027 0.0232499
1082.606 0.0232275
1083.185 0.0232049
1083.764 0.0231822
1084.343 0.0231593
1084.923 0.0231362
1085.502 0.0231130
1086.082 0.0230897
1086.662 0.0230663
1087.242 0.0230428
1087.822 0.0230191
1088.402 0.0229954
1088.983 0.0229716
1089.563 0.0229478
1090.144 0.0229238
1090.725 0.0228999
1091.306 0.0228759
1091.887 0.0228519
1092.469 0.0228278
1093.05 0.0228038
1093.632 0.0227797
1094.214 0.0227557
1094.796 0.0227317
1095.379 0.0227077
1095.961 0.0226838
1096.544 0.0226599
1097.127 0.0226361
1097.71 0.0226124
1098.294 0.0225887
1098.877 0.0225652
1099.461 0.0225417
1100.046 0.0225183
1100.63 0.0224951
1101.215 0.0224720
1101.80 0.0224491
1102.385 0.0224263
1102.97 0.0224037
1103.556 0.0223812
1104.142 0.0223589
1104.728 0.0223368
1105.315 0.0223149
1105.902 0.0222932
1106.489 0.0222718
1107.077 0.0222505
1107.664 0.0222295
1108.253 0.0222087
1108.841 0.0221882
1109.43 0.0221680
1110.019 0.0221480
1110.609 0.0221282
1111.198 0.0221088
1111.789 0.0220897
1112.379 0.0220709
1112.97 0.0220523
1113.561 0.0220341
1114.153 0.0220163
1114.745 0.0219987
1115.338 0.0219815
1115.931 0.0219646
1116.524 0.0219481
1117.117 0.0219320
1117.712 0.0219161
1118.306 0.0219007
1118.901 0.0218857
1119.496 0.0218711
1120.092 0.0218568
1120.689 0.0218429
1121.285 0.0218295
1121.882 0.0218164
1122.48 0.0218038
1123.078 0.0217916
1123.677 0.0217798
1124.276 0.0217684
1124.875 0.0217575
1125.476 0.0217470
1126.076 0.0217369
1126.677 0.0217273
1127.279 0.0217181
1127.881 0.0217094
1128.484 0.0217012
1129.087 0.0216934
1129.691 0.0216861
1130.295 0.0216792
1130.90 0.0216728
1131.505 0.0216669
1132.111 0.0216615
1132.718 0.0216565
1133.325 0.0216520
1133.933 0.0216480
1134.541 0.0216445
1135.15 0.0216414
1135.76 0.0216388
1136.37 0.0216367
1136.981 0.0216351
1137.592 0.0216340
1138.204 0.0216334
1138.817 0.0216332
1139.431 0.0216336
1140.045 0.0216344
1140.66 0.0216357
1141.275 0.0216375
1141.891 0.0216397
1142.508 0.0216425
1143.126 0.0216457
1143.744 0.0216494
1144.363 0.0216536
1144.983 0.0216582
