Measurement Sequence started on: 14-45-04-498
Integration time: 36
Scans to Average: 2 
>>>>>Begin Spectral Data<<<<<
433.946 .0428513
434.870 .0473431
435.793 .0434517
436.715 .0417616
437.635 .0415156
438.555 .0418506
439.473 .0414367
440.389 .0409699
441.305 .0406760
442.219 .0404450
443.132 .0409021
444.044 .0404873
444.954 .0402749
445.863 .0401491
446.771 .0400334
447.678 .0398974
448.584 .0397804
449.488 .0396851
450.391 .0396021
451.293 .0395281
452.194 .0394617
453.094 .0394024
453.992 .0393472
454.890 .0392946
455.786 .0392436
456.681 .0391934
457.575 .0391434
458.468 .0390933
459.360 .0390430
460.250 .0389927
461.140 .0389422
462.028 .0388917
462.915 .0388410
463.801 .0387901
464.687 .0387387
465.571 .0386864
466.454 .0386331
467.335 .0385787
468.216 .0385225
469.096 .0384646
469.975 .0384048
470.853 .0383425
471.729 .0382776
472.605 .0382101
473.479 .0381402
474.353 .0380679
475.226 .0379935
476.097 .0379171
476.968 .0378393
477.838 .0377604
478.706 .0376810
479.574 .0376019
480.441 .0375239
481.306 .0374479
482.171 .0373746
483.035 .0373047
483.898 .0372388
484.760 .0371775
485.621 .0371209
486.481 .0370691
487.340 .0370222
488.198 .0369798
489.055 .0369418
489.912 .0369080
490.767 .0368781
491.622 .0368440
492.476 .0368209
493.329 .0368002
494.180 .0367817
495.032 .0367651
495.882 .0367497
496.731 .0367350
497.580 .0367205
498.427 .0367057
499.274 .0366900
500.120 .0366799
500.965 .0366624
501.809 .0366436
502.653 .0366236
503.495 .0366026
504.337 .0365809
505.178 .0365588
506.018 .0365366
506.858 .0365141
507.696 .0364914
508.534 .0364682
509.371 .0364444
510.208 .0364198
511.043 .0363944
511.878 .0363681
512.712 .0363413
513.545 .0363140
514.377 .0362867
515.209 .0362593
516.040 .0362325
516.870 .0362058
517.699 .0361788
518.528 .0361512
519.356 .0361227
520.183 .0360925
521.010 .0360603
521.836 .0360251
522.661 .0359868
523.485 .0359454
524.309 .0359010
525.132 .0358535
525.954 .0358036
526.776 .0357519
527.597 .0356987
528.417 .0356442
529.237 .0355887
530.056 .0355317
530.874 .0354732
531.692 .0354126
532.508 .0353496
533.325 .0352840
534.140 .0352161
534.955 .0351468
535.770 .0350769
536.583 .0350070
537.397 .0349379
538.209 .0348700
539.021 .0348038
539.832 .0347392
540.643 .0346758
541.453 .0346138
542.262 .0345530
543.071 .0344935
543.879 .0344351
544.687 .0343780
545.494 .0343226
546.300 .0342691
547.106 .0342176
547.911 .0341683
548.716 .0341214
549.520 .0340769
550.323 .0340347
551.126 .0339947
551.929 .0339565
552.731 .0339198
553.532 .0338845
554.332 .0338503
555.133 .0338172
555.932 .0337856
556.731 .0337556
557.530 .0337271
558.328 .0337000
559.125 .0336739
559.922 .0336483
560.719 .0336224
561.515 .0335959
562.310 .0335681
563.105 .0335388
563.899 .0335078
564.693 .0334753
565.487 .0334417
566.280 .0334074
567.072 .0333728
567.864 .0333382
568.655 .0333036
569.446 .0332688
570.236 .0332338
571.026 .0331984
571.816 .0331624
572.605 .0331256
573.393 .0330882
574.181 .0330504
574.969 .0330126
575.756 .0329752
576.543 .0329387
577.329 .0329035
578.115 .0328698
578.900 .0328375
579.685 .0328064
580.469 .0327762
581.253 .0327466
582.036 .0327173
582.820 .0326877
583.602 .0326578
584.384 .0326274
585.166 .0325967
585.947 .0325660
586.728 .0325355
587.509 .0325055
588.289 .0324760
589.069 .0324471
589.848 .0324187
590.627 .0323906
591.405 .0323627
592.183 .0323350
592.961 .0323074
593.738 .0322799
594.515 .0322525
595.291 .0322255
596.067 .0321991
596.843 .0321733
597.618 .0321483
598.393 .0321138
599.167 .0320909
599.941 .0320688
600.715 .0320475
601.488 .0320268
602.261 .0320065
603.034 .0319865
603.806 .0319665
604.578 .0319466
605.349 .0319267
606.121 .0319068
606.891 .0318970
607.662 .0318771
608.432 .0318574
609.201 .0318379
609.971 .0318184
610.740 .0317988
611.508 .0317792
612.277 .0317593
613.045 .0317390
613.812 .0317183
614.579 .0316972
615.346 .0316755
616.113 .0316534
616.879 .0316308
617.645 .0316077
618.411 .0315841
619.176 .0315599
619.941 .0315352
620.705 .0315099
621.470 .0314842
622.233 .0314581
622.997 .0314316
623.760 .0314049
624.523 .0313780
625.286 .0313510
626.048 .0313238
626.810 .0312967
627.572 .0312696
628.333 .0312426
629.095 .0312160
629.855 .0311899
630.616 .0311643
631.376 .0311394
632.136 .0311153
632.895 .0310918
633.655 .0310691
634.414 .0310470
635.172 .0310255
635.931 .0310045
636.689 .0309839
637.447 .0309638
638.204 .0309442
638.962 .0309250
639.718 .0309064
640.475 .0308881
641.231 .0308703
641.988 .0308527
642.743 .0308354
643.499 .0308184
644.254 .0308014
645.009 .0307846
645.764 .0307679
646.518 .0307513
647.272 .0307346
648.026 .0307180
648.780 .0307013
649.533 .0306846
650.286 .0306678
651.039 .0306510
651.792 .0306343
652.544 .0306177
653.296 .0306013
654.048 .0305851
654.799 .0305693
655.550 .0305538
656.301 .0305386
657.052 .0305237
657.802 .0305090
658.552 .0304947
659.302 .0304806
660.052 .0304667
660.801 .0304531
661.550 .0304397
662.299 .0304265
663.048 .0304135
663.796 .0304005
664.544 .0303876
665.292 .0303746
666.040 .0303615
666.787 .0303483
667.534 .0303349
668.281 .0303212
669.028 .0303075
669.774 .0302935
670.521 .0302794
671.266 .0302651
672.012 .0302508
672.758 .0302362
673.503 .0302215
674.248 .0302067
674.992 .0301917
675.737 .0301765
676.481 .0301610
677.225 .0301453
677.969 .0301294
678.712 .0301133
679.455 .0300971
680.199 .0300808
680.941 .0300644
681.684 .0300481
682.426 .0300318
683.168 .0300156
683.910 .0299994
684.652 .0299833
685.393 .0299673
686.134 .0299513
686.875 .0299354
687.616 .0299197
688.356 .0299041
689.097 .0298886
689.837 .0298733
690.576 .0298581
691.316 .0298432
692.055 .0298284
692.794 .0298138
693.533 .0297994
694.272 .0297853
695.010 .0297715
695.748 .0297579
696.486 .0297446
697.224 .0297317
697.962 .0297191
698.699 .0297069
699.436 .0296951
700.173 .0296838
700.909 .0296729
701.646 .0296626
702.382 .0296528
703.118 .0296435
703.853 .0296347
704.589 .0296264
705.324 .0296186
706.059 .0296111
706.794 .0296039
707.529 .0295970
708.263 .0295904
708.997 .0295841
709.731 .0295780
710.465 .0295721
711.198 .0295664
711.931 .0295609
712.664 .0295555
713.397 .0295501
714.130 .0295446
714.862 .0295391
715.594 .0295337
716.326 .0295282
717.058 .0295226
717.789 .0295170
718.520 .0295113
719.251 .0295055
719.982 .0294996
720.713 .0294934
721.443 .0294869
722.173 .0294801
722.903 .0294730
723.633 .0294656
724.362 .0294580
725.091 .0294503
725.820 .0294423
726.549 .0294341
727.278 .0294258
728.006 .0294172
728.734 .0294084
729.462 .0293993
730.190 .0293900
730.917 .0293805
731.644 .0293707
732.371 .0293607
733.098 .0293504
733.825 .0293398
734.551 .0293290
735.277 .0293179
736.003 .0293065
736.728 .0292950
737.454 .0292834
738.179 .0292716
738.904 .0292597
739.629 .0292478
740.353 .0292357
741.077 .0292234
741.801 .0292108
742.525 .0291980
743.249 .0291848
743.972 .0291713
744.695 .0291576
745.418 .0291436
746.141 .0291293
746.863 .0291149
747.585 .0291003
748.307 .0290854
749.029 .0290703
749.750 .0290551
750.472 .0290396
751.193 .0290240
751.913 .0290082
752.634 .0289923
753.354 .0289764
754.074 .0289605
754.794 .0289446
755.514 .0289289
756.233 .0289134
756.952 .0288982
757.671 .0288833
758.390 .0288689
759.108 .0288551
759.826 .0288420
760.544 .0288295
761.262 .0288176
761.979 .0288065
762.697 .0287960
763.414 .0287861
764.130 .0287768
764.847 .0287682
765.563 .0287603
766.279 .0287531
766.995 .0287465
767.710 .0287407
768.426 .0287356
769.141 .0287312
769.855 .0287275
770.570 .0287242
771.284 .0287215
771.998 .0287191
772.712 .0287170
773.426 .0287151
774.139 .0287134
774.852 .0287119
775.565 .0287104
776.277 .0287090
776.990 .0287078
777.702 .0287066
778.414 .0287054
779.125 .0287043
779.836 .0287032
780.547 .0287021
781.258 .0287009
781.969 .0286995
782.679 .0286979
783.389 .0286946
784.099 .0286925
784.808 .0286902
785.517 .0286877
786.226 .0286849
786.935 .0286820
787.643 .0286788
788.352 .0286755
789.060 .0286721
789.767 .0286684
790.475 .0286646
791.182 .0286606
791.889 .0286580
792.595 .0286535
793.301 .0286487
794.008 .0286437
794.713 .0286383
795.419 .0286325
796.124 .0286264
796.829 .0286200
797.534 .0286133
798.238 .0286063
798.942 .0285990
799.646 .0285914
800.350 .0285836
801.053 .0285755
801.756 .0285672
802.459 .0285586
803.162 .0285499
803.864 .0285409
804.566 .0285317
805.267 .0285224
805.969 .0285129
806.670 .0285033
807.371 .0284935
808.071 .0284837
808.772 .0284737
809.472 .0284637
810.171 .0284535
810.871 .0284432
811.570 .0284327
812.269 .0284221
812.967 .0284113
813.666 .0284003
814.364 .0283891
815.061 .0283776
815.759 .0283659
816.456 .0283539
817.153 .0283416
817.849 .0283289
818.545 .0283158
819.241 .0283022
819.937 .0282883
820.632 .0282738
821.327 .0282590
822.022 .0282437
822.717 .0282280
823.411 .0282119
824.105 .0281955
824.798 .0281788
825.491 .0281618
826.184 .0281445
826.877 .0281270
827.569 .0281094
828.261 .0280916
828.953 .0280738
829.645 .0280561
830.336 .0280385
831.027 .0280211
831.717 .0280039
832.407 .0279871
833.097 .0279706
833.787 .0279545
834.476 .0279389
835.165 .0279237
835.854 .0279090
836.542 .0278947
837.230 .0278809
837.918 .0278674
838.605 .0278543
839.292 .0278415
839.979 .0278290
840.665 .0278168
841.352 .0278049
842.037 .0277934
842.723 .0277821
843.408 .0277712
844.093 .0277606
844.777 .0277502
845.462 .0277401
846.145 .0277300
846.829 .0277200
847.512 .0277101
848.195 .0277003
848.878 .0276904
849.560 .0276806
850.242 .0276709
850.923 .0276613
851.605 .0276519
852.286 .0276426
852.966 .0276334
853.646 .0276244
854.326 .0276155
855.006 .0276067
855.685 .0275980
856.364 .0275895
857.043 .0275812
857.721 .0275730
858.399 .0275651
859.077 .0275574
859.754 .0275500
860.431 .0275428
861.107 .0275359
861.784 .0275291
862.459 .0275225
863.135 .0275162
863.810 .0275100
864.485 .0275041
865.160 .0274982
865.834 .0274925
866.508 .0274869
867.181 .0274812
867.854 .0274755
868.527 .0274698
869.199 .0274639
869.872 .0274580
870.543 .0274521
871.215 .0274463
871.886 .0274404
872.557 .0274346
873.227 .0274289
873.897 .0274230
874.567 .0274171
875.236 .0274111
875.905 .0274050
876.573 .0273987
877.242 .0273924
877.909 .0273860
878.577 .0273796
879.244 .0273733
879.911 .0273669
880.577 .0273607
881.243 .0273545
881.909 .0273483
882.575 .0273421
883.240 .0273360
883.904 .0273298
884.569 .0273238
885.232 .0273177
885.896 .0273117
886.559 .0273057
887.222 .0272997
887.885 .0272936
888.547 .0272874
889.208 .0272812
889.870 .0272750
890.531 .0272686
891.192 .0272623
891.852 .0272558
892.512 .0272493
893.171 .0272426
893.830 .0272357
894.489 .0272286
895.148 .0272212
895.806 .0272135
896.464 .0272055
897.121 .0271972
897.778 .0271886
898.434 .0271797
899.091 .0271652
899.747 .0271557
900.402 .0271458
901.057 .0271357
901.712 .0271252
902.366 .0271145
903.020 .0271034
903.674 .0270921
904.327 .0270806
904.980 .0270688
905.633 .0270567
906.285 .0270444
906.936 .0270317
907.588 .0270247
908.239 .0270114
908.889 .0269979
909.540 .0269839
910.190 .0269696
910.839 .0269551
911.488 .0269403
912.137 .0269252
912.785 .0269100
913.433 .0268944
914.081 .0268786
914.728 .0268624
915.375 .0268460
916.021 .0268293
916.668 .0268122
917.313 .0267949
917.959 .0267774
918.604 .0267597
919.248 .0267417
919.892 .0267235
920.536 .0267050
921.180 .0266860
921.823 .0266666
922.465 .0266466
923.108 .0266262
923.750 .0266053
924.391 .0265840
925.032 .0265624
925.673 .0265405
926.313 .0265184
926.953 .0264960
927.593 .0264734
928.232 .0264505
928.871 .0264274
929.510 .0264040
930.148 .0263804
930.786 .0263568
931.423 .0263332
932.060 .0263096
932.697 .0262861
933.333 .0262626
933.969 .0262393
934.604 .0262159
935.239 .0261926
935.874 .0261692
936.508 .0261457
937.142 .0261223
937.776 .0260989
938.409 .0260758
939.042 .0260529
939.674 .0260305
940.306 .0260085
940.938 .0259871
941.569 .0259663
942.200 .0259460
942.830 .0259262
943.460 .0259071
944.090 .0258885
944.720 .0258705
945.349 .0258532
945.977 .0258365
946.606 .0258205
947.233 .0258050
947.861 .0257900
948.488 .0257755
949.115 .0257614
949.741 .0257477
950.367 .0257343
950.993 .0257213
951.618 .0257086
952.243 .0256964
952.868 .0256845
953.492 .0256729
954.115 .0256618
954.739 .0256511
955.362 .0256407
955.984 .0256306
956.607 .0256209
957.229 .0256115
957.850 .0256024
958.471 .0255937
959.092 .0255852
959.713 .0255771
960.333 .0255692
960.952 .0255617
961.572 .0255544
962.191 .0255473
962.809 .0255405
963.428 .0255340
964.045 .0255278
964.663 .0255220
965.280 .0255165
965.897 .0255114
966.513 .0255068
967.129 .0255027
967.745 .0254989
968.361 .0254955
968.976 .0254924
969.590 .0254897
970.205 .0254873
970.818 .0254853
971.432 .0254835
972.045 .0254821
972.658 .0254810
973.271 .0254801
973.883 .0254793
974.495 .0254787
975.106 .0254781
975.717 .0254775
976.328 .0254769
976.938 .0254763
977.548 .0254757
978.158 .0254751
978.768 .0254739
979.377 .0254734
979.985 .0254730
980.594 .0254726
981.202 .0254722
981.809 .0254717
982.417 .0254711
983.024 .0254703
983.631 .0254695
984.237 .0254685
984.843 .0254675
985.449 .0254664
986.054 .0254654
986.659 .0254645
987.264 .0254643
987.868 .0254634
988.472 .0254626
989.076 .0254619
989.679 .0254611
990.282 .0254604
990.885 .0254598
991.487 .0254592
992.090 .0254587
992.691 .0254583
993.293 .0254580
993.894 .0254578
994.495 .0254577
995.095 .0254576
995.696 .0254575
996.296 .0254573
996.895 .0254570
997.494 .0254567
998.093 .0254562
998.692 .0254556
999.291 .0254549
999.889 .0254541
1000.487 .0254532
1001.084 .0254522
1001.681 .0254512
1002.278 .0254500
1002.875 .0254488
1003.471 .0254475
1004.067 .0254461
1004.663 .0254447
1005.258 .0254433
1005.854 .0254418
1006.449 .0254403
1007.043 .0254386
1007.638 .0254366
1008.232 .0254345
1008.826 .0254321
1009.419 .0254294
1010.012 .0254265
1010.605 .0254234
1011.198 .0254202
1011.791 .0254168
1012.383 .0254135
1012.975 .0254100
1013.566 .0254066
1014.158 .0254031
1014.749 .0253994
1015.340 .0253957
1015.931 .0253919
1016.521 .0253881
1017.111 .0253843
1017.701 .0253806
1018.291 .0253770
1018.880 .0253735
1019.470 .0253702
1020.059 .0253670
1020.647 .0253638
1021.236 .0253606
1021.824 .0253571
1022.412 .0253533
1023.000 .0253493
1023.588 .0253450
1024.175 .0253405
1024.762 .0253359
1025.349 .0253313
1025.936 .0253267
1026.523 .0253222
1027.109 .0253176
1027.695 .0253130
1028.281 .0253083
1028.867 .0253033
1029.452 .0252981
1030.038 .0252927
1030.623 .0252871
1031.208 .0252814
1031.792 .0252757
1032.377 .0252700
1032.961 .0252642
1033.546 .0252584
1034.130 .0252524
1034.714 .0252462
1035.297 .0252397
1035.881 .0252328
1036.464 .0252256
1037.047 .0252180
1037.630 .0252102
1038.213 .0252022
1038.796 .0251942
1039.378 .0251861
1039.961 .0251780
1040.543 .0251698
1041.125 .0251614
1041.707 .0251529
1042.289 .0251440
1042.871 .0251348
1043.452 .0251252
1044.034 .0251153
1044.615 .0251051
1045.196 .0250949
1045.777 .0250845
1046.358 .0250742
1046.939 .0250639
1047.520 .0250536
1048.101 .0250433
1048.681 .0250331
1049.262 .0250228
1049.842 .0250126
1050.422 .0250026
1051.002 .0249927
1051.582 .0249831
1052.162 .0249738
1052.742 .0249648
1053.322 .0249562
1053.902 .0249479
1054.482 .0249398
1055.061 .0249320
1055.641 .0249245
1056.220 .0249171
1056.800 .0249100
1057.379 .0249031
1057.958 .0248965
1058.538 .0248902
1059.117 .0248843
1059.696 .0248787
1060.275 .0248734
1060.854 .0248685
1061.433 .0248639
1062.012 .0248595
1062.592 .0248555
1063.171 .0248518
1063.750 .0248484
1064.329 .0248452
1064.908 .0248421
1065.487 .0248392
1066.066 .0248362
1066.645 .0248331
1067.224 .0248299
1067.803 .0248265
1068.382 .0248229
1068.961 .0248192
1069.540 .0248154
1070.119 .0248115
1070.698 .0248078
1071.278 .0248042
1071.857 .0248007
1072.436 .0247974
1073.016 .0247942
1073.595 .0247913
1074.175 .0247886
1074.754 .0247862
1075.334 .0247841
1075.913 .0247823
1076.493 .0247807
1077.073 .0247793
1077.653 .0247779
1078.233 .0247766
1078.813 .0247751
1079.393 .0247735
1079.974 .0247717
1080.554 .0247698
1081.135 .0247678
1081.716 .0247660
1082.296 .0247643
1082.877 .0247629
1083.458 .0247618
1084.040 .0247610
1084.621 .0247604
1085.202 .0247599
1085.784 .0247593
1086.366 .0247588
1086.948 .0247584
1087.530 .0247580
1088.112 .0247578
1088.695 .0247578
1089.277 .0247580
1089.860 .0247585
1090.443 .0247593
1091.026 .0247602
1091.610 .0247610
1092.193 .0247618
1092.777 .0247624
1093.361 .0247629
1093.946 .0247632
1094.530 .0247635
1095.115 .0247638
1095.700 .0247643
1096.285 .0247649
1096.871 .0247657
1097.456 .0247666
1098.042 .0247676
1098.628 .0247686
1099.215 .0247693
1099.802 .0247699
1100.389 .0247701
1100.976 .0247701
1101.564 .0247700
1102.152 .0247698
1102.740 .0247698
1103.329 .0247701
1103.917 .0247710
1104.507 .0247725
1105.096 .0247748
1105.686 .0247781
1106.276 .0247825
1106.867 .0247881
1107.457 .0247949
1108.049 .0248029
1108.640 .0248122
1109.232 .0248229
1109.825 .0248349
1110.417 .0248484
1111.010 .0248634
1111.604 .0248800
1112.198 .0248982
1112.792 .0249179
1113.387 .0249391
1113.982 .0249615
1114.577 .0249848
1115.173 .0250090
1115.769 .0250339
1116.366 .0250592
1116.963 .0250851
1117.561 .0251115
1118.159 .0251386
1118.758 .0251662
1119.357 .0251947
1119.957 .0252239
1120.557 .0252540
1121.157 .0252845
1121.758 .0253155
1122.360 .0253467
1122.962 .0253778
1123.564 .0254086
1124.167 .0254251
1124.771 .0254548
1125.375 .0254837
1125.980 .0255118
1126.585 .0255390
1127.191 .0255654
1127.797 .0255911
1128.404 .0256162
1129.012 .0256409
1129.620 .0256656
1130.229 .0256903
1130.838 .0257153
1131.448 .0257409
1132.058 .0257675
1132.669 .0258070
1133.281 .0258384
1133.894 .0258738
1134.507 .0259030
1135.120 .0259446
1135.735 .0259957
1136.350 .0260578
1136.965 .0259526
1137.582 .0259906
1138.199 .0260354
1138.816 .0260831
1139.435 .0261322
1140.054 .0261911
1140.674 .0262615
1141.294 .0263497
1141.916 .0264718
1142.538 .0263134
1143.160 .0266589
1143.784 .0269304
1144.408 .0272482
1145.033 .0276760
