Measurement Sequence started on: 14-45-04-498
Integration time: 36
Scans to Average: 2 
>>>>>Begin Spectral Data<<<<<
433.946 .0570982
434.870 .0546818
435.793 .0530761
436.715 .0514391
437.635 .0497394
438.555 .0501411
439.473 .0494155
440.389 .0489019
441.305 .0485425
442.219 .0482946
443.132 .0489813
444.044 .0485912
444.954 .0482832
445.863 .0480588
446.771 .0479202
447.678 .0477559
448.584 .0476247
449.488 .0475147
450.391 .0474174
451.293 .0473268
452.194 .0472387
453.094 .0471523
453.992 .0470675
454.890 .0469829
455.786 .0468991
456.681 .0468155
457.575 .0467306
458.468 .0466440
459.360 .0465542
460.250 .0464611
461.140 .0463643
462.028 .0462647
462.915 .0461632
463.801 .0460609
464.687 .0459592
465.571 .0458587
466.454 .0457600
467.335 .0456635
468.216 .0455691
469.096 .0454766
469.975 .0453854
470.853 .0452954
471.729 .0452065
472.605 .0451190
473.479 .0450335
474.353 .0449506
475.226 .0448709
476.097 .0447951
476.968 .0447233
477.838 .0446559
478.706 .0445927
479.574 .0445335
480.441 .0444782
481.306 .0444268
482.171 .0443793
483.035 .0443359
483.898 .0442967
484.760 .0442619
485.621 .0442316
486.481 .0442054
487.340 .0441831
488.198 .0441641
489.055 .0441478
489.912 .0441332
490.767 .0441198
491.622 .0440988
492.476 .0440841
493.329 .0440688
494.180 .0440522
495.032 .0440338
495.882 .0440131
496.731 .0439895
497.580 .0439621
498.427 .0439304
499.274 .0438941
500.120 .0438654
500.965 .0438219
501.809 .0437740
502.653 .0437220
503.495 .0436669
504.337 .0436090
505.178 .0435487
506.018 .0434863
506.858 .0434223
507.696 .0433569
508.534 .0432907
509.371 .0432246
510.208 .0431592
511.043 .0430960
511.878 .0430361
512.712 .0429805
513.545 .0429300
514.377 .0428852
515.209 .0428462
516.040 .0428128
516.870 .0427845
517.699 .0427603
518.528 .0427393
519.356 .0427210
520.183 .0427043
521.010 .0426883
521.836 .0426727
522.661 .0426570
523.485 .0426406
524.309 .0426233
525.132 .0426047
525.954 .0425839
526.776 .0425604
527.597 .0425334
528.417 .0425017
529.237 .0424648
530.056 .0424229
530.874 .0423758
531.692 .0423241
532.508 .0422685
533.325 .0422096
534.140 .0421484
534.955 .0420853
535.770 .0420209
536.583 .0419552
537.397 .0418890
538.209 .0418228
539.021 .0417565
539.832 .0416913
540.643 .0416280
541.453 .0415670
542.262 .0415089
543.071 .0414538
543.879 .0414015
544.687 .0413520
545.494 .0413051
546.300 .0412599
547.106 .0412157
547.911 .0411723
548.716 .0411292
549.520 .0410861
550.323 .0410435
551.126 .0410014
551.929 .0409605
552.731 .0409214
553.532 .0408846
554.332 .0408502
555.133 .0408183
555.932 .0407894
556.731 .0407629
557.530 .0407385
558.328 .0407157
559.125 .0406941
559.922 .0406737
560.719 .0406541
561.515 .0406349
562.310 .0406159
563.105 .0405971
563.899 .0405782
564.693 .0405586
565.487 .0405384
566.280 .0405171
567.072 .0404943
567.864 .0404697
568.655 .0404431
569.446 .0404144
570.236 .0403831
571.026 .0403493
571.816 .0403128
572.605 .0402736
573.393 .0402316
574.181 .0401870
574.969 .0401400
575.756 .0400910
576.543 .0400405
577.329 .0399889
578.115 .0399367
578.900 .0398844
579.685 .0398321
580.469 .0397803
581.253 .0397292
582.036 .0396787
582.820 .0396292
583.602 .0395807
584.384 .0395336
585.166 .0394880
585.947 .0394440
586.728 .0394018
587.509 .0393615
588.289 .0393232
589.069 .0392868
589.848 .0392521
590.627 .0392191
591.405 .0391876
592.183 .0391575
592.961 .0391286
593.738 .0391008
594.515 .0390742
595.291 .0390486
596.067 .0390242
596.843 .0390007
597.618 .0389783
598.393 .0389476
599.167 .0389271
599.941 .0389074
600.715 .0388882
601.488 .0388693
602.261 .0388505
603.034 .0388317
603.806 .0388128
604.578 .0387938
605.349 .0387746
606.121 .0387553
606.891 .0387451
607.662 .0387258
608.432 .0387064
609.201 .0386871
609.971 .0386678
610.740 .0386487
611.508 .0386296
612.277 .0386106
613.045 .0385916
613.812 .0385726
614.579 .0385536
615.346 .0385345
616.113 .0385154
616.879 .0384961
617.645 .0384766
618.411 .0384570
619.176 .0384371
619.941 .0384170
620.705 .0383966
621.470 .0383758
622.233 .0383544
622.997 .0383324
623.760 .0383097
624.523 .0382863
625.286 .0382622
626.048 .0382375
626.810 .0382121
627.572 .0381862
628.333 .0381599
629.095 .0381333
629.855 .0381065
630.616 .0380796
631.376 .0380527
632.136 .0380258
632.895 .0379989
633.655 .0379722
634.414 .0379455
635.172 .0379191
635.931 .0378928
636.689 .0378668
637.447 .0378412
638.204 .0378160
638.962 .0377913
639.718 .0377672
640.475 .0377437
641.231 .0377208
641.988 .0376985
642.743 .0376767
643.499 .0376553
644.254 .0376341
645.009 .0376132
645.764 .0375924
646.518 .0375718
647.272 .0375513
648.026 .0375309
648.780 .0375107
649.533 .0374905
650.286 .0374704
651.039 .0374504
651.792 .0374303
652.544 .0374101
653.296 .0373900
654.048 .0373698
654.799 .0373495
655.550 .0373293
656.301 .0373090
657.052 .0372888
657.802 .0372685
658.552 .0372483
659.302 .0372281
660.052 .0372079
660.801 .0371878
661.550 .0371677
662.299 .0371477
663.048 .0371277
663.796 .0371077
664.544 .0370877
665.292 .0370676
666.040 .0370474
666.787 .0370271
667.534 .0370066
668.281 .0369861
669.028 .0369654
669.774 .0369448
670.521 .0369242
671.266 .0369036
672.012 .0368831
672.758 .0368625
673.503 .0368419
674.248 .0368213
674.992 .0368007
675.737 .0367801
676.481 .0367593
677.225 .0367386
677.969 .0367177
678.712 .0366969
679.455 .0366760
680.199 .0366552
680.941 .0366345
681.684 .0366139
682.426 .0365934
683.168 .0365732
683.910 .0365532
684.652 .0365334
685.393 .0365139
686.134 .0364946
686.875 .0364756
687.616 .0364568
688.356 .0364383
689.097 .0364201
689.837 .0364022
690.576 .0363846
691.316 .0363674
692.055 .0363504
692.794 .0363337
693.533 .0363173
694.272 .0363010
695.010 .0362849
695.748 .0362690
696.486 .0362532
697.224 .0362376
697.962 .0362221
698.699 .0362067
699.436 .0361914
700.173 .0361762
700.909 .0361611
701.646 .0361461
702.382 .0361311
703.118 .0361162
703.853 .0361013
704.589 .0360863
705.324 .0360713
706.059 .0360561
706.794 .0360407
707.529 .0360249
708.263 .0360087
708.997 .0359921
709.731 .0359752
710.465 .0359580
711.198 .0359404
711.931 .0359225
712.664 .0359044
713.397 .0358858
714.130 .0358669
714.862 .0358475
715.594 .0358277
716.326 .0358074
717.058 .0357865
717.789 .0357652
718.520 .0357435
719.251 .0357216
719.982 .0356993
720.713 .0356769
721.443 .0356543
722.173 .0356316
722.903 .0356089
723.633 .0355862
724.362 .0355635
725.091 .0355410
725.820 .0355186
726.549 .0354963
727.278 .0354743
728.006 .0354525
728.734 .0354311
729.462 .0354101
730.190 .0353896
730.917 .0353696
731.644 .0353502
732.371 .0353314
733.098 .0353132
733.825 .0352956
734.551 .0352787
735.277 .0352623
736.003 .0352464
736.728 .0352310
737.454 .0352162
738.179 .0352019
738.904 .0351880
739.629 .0351746
740.353 .0351617
741.077 .0351491
741.801 .0351369
742.525 .0351249
743.249 .0351131
743.972 .0351015
744.695 .0350899
745.418 .0350784
746.141 .0350669
746.863 .0350554
747.585 .0350437
748.307 .0350319
749.029 .0350199
749.750 .0350076
750.472 .0349950
751.193 .0349822
751.913 .0349690
752.634 .0349555
753.354 .0349417
754.074 .0349276
754.794 .0349132
755.514 .0348986
756.233 .0348837
756.952 .0348687
757.671 .0348535
758.390 .0348382
759.108 .0348229
759.826 .0348076
760.544 .0347923
761.262 .0347771
761.979 .0347619
762.697 .0347468
763.414 .0347317
764.130 .0347167
764.847 .0347017
765.563 .0346868
766.279 .0346720
766.995 .0346573
767.710 .0346427
768.426 .0346282
769.141 .0346137
769.855 .0345993
770.570 .0345848
771.284 .0345703
771.998 .0345558
772.712 .0345412
773.426 .0345265
774.139 .0345118
774.852 .0344970
775.565 .0344821
776.277 .0344672
776.990 .0344522
777.702 .0344370
778.414 .0344218
779.125 .0344065
779.836 .0343912
780.547 .0343760
781.258 .0343609
781.969 .0343460
782.679 .0343313
783.389 .0343102
784.099 .0342961
784.808 .0342821
785.517 .0342682
786.226 .0342544
786.935 .0342405
787.643 .0342268
788.352 .0342131
789.060 .0341995
789.767 .0341860
790.475 .0341726
791.182 .0341594
791.889 .0341529
792.595 .0341396
793.301 .0341263
794.008 .0341129
794.713 .0340995
795.419 .0340860
796.124 .0340723
796.829 .0340585
797.534 .0340445
798.238 .0340303
798.942 .0340158
799.646 .0340012
800.350 .0339863
801.053 .0339712
801.756 .0339559
802.459 .0339404
803.162 .0339248
803.864 .0339090
804.566 .0338930
805.267 .0338769
805.969 .0338606
806.670 .0338441
807.371 .0338275
808.071 .0338109
808.772 .0337944
809.472 .0337780
810.171 .0337617
810.871 .0337456
811.570 .0337297
812.269 .0337140
812.967 .0336985
813.666 .0336832
814.364 .0336680
815.061 .0336530
815.759 .0336381
816.456 .0336232
817.153 .0336084
817.849 .0335936
818.545 .0335788
819.241 .0335640
819.937 .0335492
820.632 .0335344
821.327 .0335198
822.022 .0335054
822.717 .0334911
823.411 .0334770
824.105 .0334631
824.798 .0334493
825.491 .0334356
826.184 .0334220
826.877 .0334084
827.569 .0333950
828.261 .0333817
828.953 .0333686
829.645 .0333558
830.336 .0333432
831.027 .0333309
831.717 .0333189
832.407 .0333071
833.097 .0332955
833.787 .0332843
834.476 .0332733
835.165 .0332627
835.854 .0332523
836.542 .0332423
837.230 .0332325
837.918 .0332229
838.605 .0332135
839.292 .0332042
839.979 .0331949
840.665 .0331856
841.352 .0331762
842.037 .0331667
842.723 .0331570
843.408 .0331470
844.093 .0331367
844.777 .0331260
845.462 .0331148
846.145 .0331032
846.829 .0330912
847.512 .0330786
848.195 .0330656
848.878 .0330521
849.560 .0330382
850.242 .0330238
850.923 .0330090
851.605 .0329936
852.286 .0329777
852.966 .0329613
853.646 .0329442
854.326 .0329266
855.006 .0329085
855.685 .0328898
856.364 .0328707
857.043 .0328512
857.721 .0328313
858.399 .0328111
859.077 .0327908
859.754 .0327703
860.431 .0327498
861.107 .0327294
861.784 .0327089
862.459 .0326885
863.135 .0326681
863.810 .0326477
864.485 .0326274
865.160 .0326072
865.834 .0325870
866.508 .0325669
867.181 .0325469
867.854 .0325270
868.527 .0325073
869.199 .0324878
869.872 .0324684
870.543 .0324492
871.215 .0324301
871.886 .0324111
872.557 .0323924
873.227 .0323738
873.897 .0323554
874.567 .0323372
875.236 .0323192
875.905 .0323015
876.573 .0322839
877.242 .0322665
877.909 .0322493
878.577 .0322322
879.244 .0322152
879.911 .0321984
880.577 .0321816
881.243 .0321649
881.909 .0321483
882.575 .0321318
883.240 .0321154
883.904 .0320991
884.569 .0320829
885.232 .0320669
885.896 .0320510
886.559 .0320355
887.222 .0320204
887.885 .0320056
888.547 .0319913
889.208 .0319775
889.870 .0319641
890.531 .0319512
891.192 .0319386
891.852 .0319264
892.512 .0319145
893.171 .0319029
893.830 .0318915
894.489 .0318804
895.148 .0318694
895.806 .0318585
896.464 .0318479
897.121 .0318373
897.778 .0318270
898.434 .0318168
899.091 .0318020
899.747 .0317921
900.402 .0317824
901.057 .0317728
901.712 .0317632
902.366 .0317536
903.020 .0317440
903.674 .0317343
904.327 .0317246
904.980 .0317148
905.633 .0317050
906.285 .0316952
906.936 .0316852
907.588 .0316801
908.239 .0316701
908.889 .0316600
909.540 .0316498
910.190 .0316394
910.839 .0316289
911.488 .0316183
912.137 .0316076
912.785 .0315969
913.433 .0315862
914.081 .0315754
914.728 .0315646
915.375 .0315536
916.021 .0315425
916.668 .0315312
917.313 .0315197
917.959 .0315081
918.604 .0314962
919.248 .0314842
919.892 .0314719
920.536 .0314594
921.180 .0314466
921.823 .0314336
922.465 .0314201
923.108 .0314063
923.750 .0313922
924.391 .0313776
925.032 .0313628
925.673 .0313476
926.313 .0313321
926.953 .0313164
927.593 .0313003
928.232 .0312840
928.871 .0312673
929.510 .0312503
930.148 .0312330
930.786 .0312154
931.423 .0311975
932.060 .0311793
932.697 .0311609
933.333 .0311422
933.969 .0311233
934.604 .0311042
935.239 .0310849
935.874 .0310653
936.508 .0310456
937.142 .0310257
937.776 .0310057
938.409 .0309855
939.042 .0309653
939.674 .0309449
940.306 .0309245
940.938 .0309040
941.569 .0308834
942.200 .0308628
942.830 .0308420
943.460 .0308210
944.090 .0308000
944.720 .0307789
945.349 .0307578
945.977 .0307366
946.606 .0307154
947.233 .0306941
947.861 .0306729
948.488 .0306517
949.115 .0306305
949.741 .0306094
950.367 .0305883
950.993 .0305673
951.618 .0305462
952.243 .0305252
952.868 .0305041
953.492 .0304829
954.115 .0304618
954.739 .0304406
955.362 .0304194
955.984 .0303982
956.607 .0303770
957.229 .0303559
957.850 .0303349
958.471 .0303139
959.092 .0302930
959.713 .0302722
960.333 .0302515
960.952 .0302310
961.572 .0302107
962.191 .0301907
962.809 .0301710
963.428 .0301517
964.045 .0301328
964.663 .0301144
965.280 .0300963
965.897 .0300787
966.513 .0300614
967.129 .0300443
967.745 .0300276
968.361 .0300111
968.976 .0299950
969.590 .0299791
970.205 .0299635
970.818 .0299483
971.432 .0299333
972.045 .0299187
972.658 .0299043
973.271 .0298903
973.883 .0298765
974.495 .0298629
975.106 .0298496
975.717 .0298366
976.328 .0298240
976.938 .0298117
977.548 .0297999
978.158 .0297884
978.768 .0297722
979.377 .0297616
979.985 .0297513
980.594 .0297410
981.202 .0297309
981.809 .0297208
982.417 .0297106
983.024 .0297006
983.631 .0296907
984.237 .0296810
984.843 .0296714
985.449 .0296621
986.054 .0296531
986.659 .0296443
987.264 .0296404
987.868 .0296318
988.472 .0296234
989.076 .0296151
989.679 .0296071
990.282 .0295994
990.885 .0295920
991.487 .0295850
992.090 .0295784
992.691 .0295723
993.293 .0295665
993.894 .0295610
994.495 .0295557
995.095 .0295506
995.696 .0295455
996.296 .0295406
996.895 .0295357
997.494 .0295309
998.093 .0295263
998.692 .0295218
999.291 .0295175
999.889 .0295133
1000.487 .0295094
1001.084 .0295055
1001.681 .0295018
1002.278 .0294982
1002.875 .0294948
1003.471 .0294916
1004.067 .0294885
1004.663 .0294856
1005.258 .0294828
1005.854 .0294802
1006.449 .0294778
1007.043 .0294756
1007.638 .0294736
1008.232 .0294719
1008.826 .0294704
1009.419 .0294693
1010.012 .0294683
1010.605 .0294677
1011.198 .0294672
1011.791 .0294669
1012.383 .0294667
1012.975 .0294666
1013.566 .0294667
1014.158 .0294670
1014.749 .0294674
1015.340 .0294682
1015.931 .0294694
1016.521 .0294709
1017.111 .0294727
1017.701 .0294747
1018.291 .0294768
1018.880 .0294790
1019.470 .0294811
1020.059 .0294831
1020.647 .0294852
1021.236 .0294872
1021.824 .0294894
1022.412 .0294918
1023.000 .0294944
1023.588 .0294972
1024.175 .0295001
1024.762 .0295030
1025.349 .0295057
1025.936 .0295082
1026.523 .0295103
1027.109 .0295121
1027.695 .0295136
1028.281 .0295148
1028.867 .0295159
1029.452 .0295167
1030.038 .0295174
1030.623 .0295178
1031.208 .0295180
1031.792 .0295179
1032.377 .0295173
1032.961 .0295163
1033.546 .0295148
1034.130 .0295129
1034.714 .0295106
1035.297 .0295080
1035.881 .0295051
1036.464 .0295020
1037.047 .0294987
1037.630 .0294952
1038.213 .0294915
1038.796 .0294874
1039.378 .0294831
1039.961 .0294785
1040.543 .0294736
1041.125 .0294684
1041.707 .0294629
1042.289 .0294572
1042.871 .0294512
1043.452 .0294449
1044.034 .0294385
1044.615 .0294317
1045.196 .0294248
1045.777 .0294176
1046.358 .0294101
1046.939 .0294025
1047.520 .0293946
1048.101 .0293865
1048.681 .0293782
1049.262 .0293699
1049.842 .0293614
1050.422 .0293528
1051.002 .0293443
1051.582 .0293358
1052.162 .0293273
1052.742 .0293190
1053.322 .0293108
1053.902 .0293027
1054.482 .0292948
1055.061 .0292869
1055.641 .0292792
1056.220 .0292716
1056.800 .0292642
1057.379 .0292569
1057.958 .0292498
1058.538 .0292427
1059.117 .0292356
1059.696 .0292284
1060.275 .0292211
1060.854 .0292133
1061.433 .0292052
1062.012 .0291966
1062.592 .0291876
1063.171 .0291782
1063.750 .0291686
1064.329 .0291587
1064.908 .0291486
1065.487 .0291384
1066.066 .0291279
1066.645 .0291173
1067.224 .0291065
1067.803 .0290956
1068.382 .0290843
1068.961 .0290728
1069.540 .0290612
1070.119 .0290495
1070.698 .0290378
1071.278 .0290261
1071.857 .0290144
1072.436 .0290027
1073.016 .0289908
1073.595 .0289785
1074.175 .0289658
1074.754 .0289525
1075.334 .0289387
1075.913 .0289243
1076.493 .0289094
1077.073 .0288942
1077.653 .0288789
1078.233 .0288637
1078.813 .0288487
1079.393 .0288340
1079.974 .0288195
1080.554 .0288053
1081.135 .0287912
1081.716 .0287772
1082.296 .0287632
1082.877 .0287493
1083.458 .0287355
1084.040 .0287219
1084.621 .0287086
1085.202 .0286958
1085.784 .0286836
1086.366 .0286720
1086.948 .0286610
1087.530 .0286506
1088.112 .0286407
1088.695 .0286311
1089.277 .0286218
1089.860 .0286128
1090.443 .0286041
1091.026 .0285958
1091.610 .0285881
1092.193 .0285811
1092.777 .0285748
1093.361 .0285693
1093.946 .0285646
1094.530 .0285606
1095.115 .0285571
1095.700 .0285541
1096.285 .0285516
1096.871 .0285495
1097.456 .0285477
1098.042 .0285462
1098.628 .0285453
1099.215 .0285449
1099.802 .0285450
1100.389 .0285457
1100.976 .0285471
1101.564 .0285491
1102.152 .0285518
1102.740 .0285551
1103.329 .0285590
1103.917 .0285634
1104.507 .0285684
1105.096 .0285738
1105.686 .0285798
1106.276 .0285864
1106.867 .0285936
1107.457 .0286016
1108.049 .0286105
1108.640 .0286204
1109.232 .0286313
1109.825 .0286434
1110.417 .0286565
1111.010 .0286708
1111.604 .0286860
1112.198 .0287022
1112.792 .0287191
1113.387 .0287368
1113.982 .0287552
1114.577 .0287743
1115.173 .0287940
1115.769 .0288145
1116.366 .0288358
1116.963 .0288580
1117.561 .0288811
1118.159 .0289053
1118.758 .0289305
1119.357 .0289568
1119.957 .0289841
1120.557 .0290123
1121.157 .0290413
1121.758 .0290712
1122.360 .0291018
1122.962 .0291332
1123.564 .0291656
1124.167 .0291795
1124.771 .0292131
1125.375 .0292475
1125.980 .0292826
1126.585 .0293182
1127.191 .0293543
1127.797 .0293906
1128.404 .0294269
1129.012 .0294633
1129.620 .0294996
1130.229 .0295361
1130.838 .0295729
1131.448 .0296099
1132.058 .0296472
1132.669 .0297057
1133.281 .0297452
1133.894 .0297856
1134.507 .0298192
1135.120 .0298589
1135.735 .0299081
1136.350 .0299561
1136.965 .0300066
1137.582 .0300334
1138.199 .0300583
1138.816 .0300880
1139.435 .0301133
1140.054 .0301422
1140.674 .0301824
1141.294 .0302300
1141.916 .0302795
1142.538 .0301330
1143.160 .0303368
1143.784 .0306381
1144.408 .0306558
1145.033 .0305087
