Measurement Sequence started on: 14-45-04-498
Integration time: 36
Scans to Average: 2 
>>>>>Begin Spectral Data<<<<<
433.946 .0702074
434.870 .0542350
435.793 .0528322
436.715 .0527140
437.635 .0526199
438.555 .0537977
439.473 .0532758
440.389 .0533571
441.305 .0534836
442.219 .0536044
443.132 .0536074
444.044 .0535910
444.954 .0536451
445.863 .0537000
446.771 .0537528
447.678 .0537354
448.584 .0537370
449.488 .0537258
450.391 .0536992
451.293 .0536585
452.194 .0536057
453.094 .0535429
453.992 .0534703
454.890 .0533892
455.786 .0532993
456.681 .0532013
457.575 .0530943
458.468 .0529796
459.360 .0528579
460.250 .0527312
461.140 .0526018
462.028 .0524715
462.915 .0523426
463.801 .0522171
464.687 .0520959
465.571 .0519792
466.454 .0518667
467.335 .0517585
468.216 .0516538
469.096 .0515522
469.975 .0514536
470.853 .0513584
471.729 .0512668
472.605 .0511793
473.479 .0510961
474.353 .0510174
475.226 .0509429
476.097 .0508726
476.968 .0508060
477.838 .0507428
478.706 .0506826
479.574 .0506254
480.441 .0505713
481.306 .0505200
482.171 .0504717
483.035 .0504263
483.898 .0503839
484.760 .0503440
485.621 .0503061
486.481 .0502697
487.340 .0502347
488.198 .0502003
489.055 .0501659
489.912 .0501310
490.767 .0500949
491.622 .0500312
492.476 .0499884
493.329 .0499426
494.180 .0498934
495.032 .0498410
495.882 .0497851
496.731 .0497259
497.580 .0496634
498.427 .0495980
499.274 .0495300
500.120 .0494909
500.965 .0494200
501.809 .0493471
502.653 .0492725
503.495 .0491967
504.337 .0491198
505.178 .0490421
506.018 .0489642
506.858 .0488866
507.696 .0488099
508.534 .0487345
509.371 .0486611
510.208 .0485902
511.043 .0485223
511.878 .0484577
512.712 .0483964
513.545 .0483386
514.377 .0482843
515.209 .0482333
516.040 .0481850
516.870 .0481389
517.699 .0480949
518.528 .0480531
519.356 .0480137
520.183 .0479762
521.010 .0479414
521.836 .0479092
522.661 .0478794
523.485 .0478517
524.309 .0478257
525.132 .0478010
525.954 .0477769
526.776 .0477527
527.597 .0477278
528.417 .0477020
529.237 .0476754
530.056 .0476479
530.874 .0476195
531.692 .0475902
532.508 .0475595
533.325 .0475271
534.140 .0474933
534.955 .0474571
535.770 .0474181
536.583 .0473761
537.397 .0473306
538.209 .0472812
539.021 .0472280
539.832 .0471713
540.643 .0471117
541.453 .0470494
542.262 .0469848
543.071 .0469182
543.879 .0468502
544.687 .0467812
545.494 .0467109
546.300 .0466395
547.106 .0465668
547.911 .0464932
548.716 .0464188
549.520 .0463446
550.323 .0462718
551.126 .0462009
551.929 .0461332
552.731 .0460691
553.532 .0460090
554.332 .0459529
555.133 .0459005
555.932 .0458516
556.731 .0458054
557.530 .0457614
558.328 .0457193
559.125 .0456788
559.922 .0456399
560.719 .0456018
561.515 .0455643
562.310 .0455273
563.105 .0454903
563.899 .0454529
564.693 .0454149
565.487 .0453761
566.280 .0453360
567.072 .0452941
567.864 .0452502
568.655 .0452039
569.446 .0451552
570.236 .0451036
571.026 .0450495
571.816 .0449930
572.605 .0449347
573.393 .0448749
574.181 .0448143
574.969 .0447535
575.756 .0446929
576.543 .0446330
577.329 .0445743
578.115 .0445171
578.900 .0444616
579.685 .0444077
580.469 .0443558
581.253 .0443056
582.036 .0442574
582.820 .0442112
583.602 .0441672
584.384 .0441253
585.166 .0440856
585.947 .0440481
586.728 .0440128
587.509 .0439797
588.289 .0439486
589.069 .0439192
589.848 .0438910
590.627 .0438637
591.405 .0438369
592.183 .0438103
592.961 .0437838
593.738 .0437572
594.515 .0437306
595.291 .0437038
596.067 .0436772
596.843 .0436507
597.618 .0436245
598.393 .0435858
599.167 .0435610
599.941 .0435367
600.715 .0435129
601.488 .0434896
602.261 .0434669
603.034 .0434448
603.806 .0434233
604.578 .0434026
605.349 .0433828
606.121 .0433640
606.891 .0433573
607.662 .0433399
608.432 .0433235
609.201 .0433080
609.971 .0432934
610.740 .0432795
611.508 .0432661
612.277 .0432533
613.045 .0432410
613.812 .0432291
614.579 .0432174
615.346 .0432060
616.113 .0431947
616.879 .0431834
617.645 .0431721
618.411 .0431606
619.176 .0431488
619.941 .0431366
620.705 .0431241
621.470 .0431111
622.233 .0430978
622.997 .0430840
623.760 .0430696
624.523 .0430547
625.286 .0430391
626.048 .0430229
626.810 .0430062
627.572 .0429890
628.333 .0429714
629.095 .0429535
629.855 .0429355
630.616 .0429174
631.376 .0428991
632.136 .0428808
632.895 .0428622
633.655 .0428433
634.414 .0428241
635.172 .0428045
635.931 .0427847
636.689 .0427647
637.447 .0427446
638.204 .0427245
638.962 .0427047
639.718 .0426851
640.475 .0426658
641.231 .0426468
641.988 .0426279
642.743 .0426092
643.499 .0425904
644.254 .0425717
645.009 .0425528
645.764 .0425339
646.518 .0425150
647.272 .0424960
648.026 .0424770
648.780 .0424580
649.533 .0424390
650.286 .0424200
651.039 .0424009
651.792 .0423818
652.544 .0423625
653.296 .0423430
654.048 .0423234
654.799 .0423035
655.550 .0422833
656.301 .0422630
657.052 .0422425
657.802 .0422218
658.552 .0422011
659.302 .0421803
660.052 .0421596
660.801 .0421390
661.550 .0421184
662.299 .0420979
663.048 .0420774
663.796 .0420567
664.544 .0420360
665.292 .0420150
666.040 .0419939
666.787 .0419727
667.534 .0419513
668.281 .0419299
669.028 .0419084
669.774 .0418870
670.521 .0418657
671.266 .0418443
672.012 .0418231
672.758 .0418019
673.503 .0417808
674.248 .0417597
674.992 .0417389
675.737 .0417182
676.481 .0416977
677.225 .0416774
677.969 .0416573
678.712 .0416373
679.455 .0416175
680.199 .0415979
680.941 .0415786
681.684 .0415595
682.426 .0415407
683.168 .0415222
683.910 .0415039
684.652 .0414858
685.393 .0414677
686.134 .0414497
686.875 .0414317
687.616 .0414137
688.356 .0413956
689.097 .0413774
689.837 .0413592
690.576 .0413409
691.316 .0413225
692.055 .0413040
692.794 .0412852
693.533 .0412662
694.272 .0412469
695.010 .0412273
695.748 .0412075
696.486 .0411874
697.224 .0411671
697.962 .0411467
698.699 .0411261
699.436 .0411054
700.173 .0410847
700.909 .0410638
701.646 .0410429
702.382 .0410220
703.118 .0410010
703.853 .0409800
704.589 .0409590
705.324 .0409381
706.059 .0409171
706.794 .0408961
707.529 .0408750
708.263 .0408538
708.997 .0408326
709.731 .0408115
710.465 .0407904
711.198 .0407694
711.931 .0407486
712.664 .0407280
713.397 .0407075
714.130 .0406870
714.862 .0406665
715.594 .0406459
716.326 .0406251
717.058 .0406041
717.789 .0405829
718.520 .0405615
719.251 .0405400
719.982 .0405184
720.713 .0404968
721.443 .0404753
722.173 .0404538
722.903 .0404323
723.633 .0404108
724.362 .0403892
725.091 .0403676
725.820 .0403460
726.549 .0403243
727.278 .0403026
728.006 .0402810
728.734 .0402597
729.462 .0402386
730.190 .0402181
730.917 .0401980
731.644 .0401785
732.371 .0401596
733.098 .0401414
733.825 .0401237
734.551 .0401066
735.277 .0400901
736.003 .0400741
736.728 .0400586
737.454 .0400436
738.179 .0400292
738.904 .0400154
739.629 .0400021
740.353 .0399895
741.077 .0399774
741.801 .0399658
742.525 .0399547
743.249 .0399439
743.972 .0399333
744.695 .0399228
745.418 .0399122
746.141 .0399015
746.863 .0398905
747.585 .0398792
748.307 .0398675
749.029 .0398554
749.750 .0398428
750.472 .0398297
751.193 .0398160
751.913 .0398019
752.634 .0397871
753.354 .0397718
754.074 .0397561
754.794 .0397398
755.514 .0397229
756.233 .0397056
756.952 .0396878
757.671 .0396695
758.390 .0396510
759.108 .0396322
759.826 .0396133
760.544 .0395942
761.262 .0395750
761.979 .0395558
762.697 .0395366
763.414 .0395175
764.130 .0394983
764.847 .0394791
765.563 .0394600
766.279 .0394410
766.995 .0394221
767.710 .0394034
768.426 .0393848
769.141 .0393665
769.855 .0393483
770.570 .0393303
771.284 .0393124
771.998 .0392947
772.712 .0392771
773.426 .0392596
774.139 .0392422
774.852 .0392250
775.565 .0392078
776.277 .0391908
776.990 .0391739
777.702 .0391571
778.414 .0391404
779.125 .0391238
779.836 .0391074
780.547 .0390912
781.258 .0390752
781.969 .0390594
782.679 .0390438
783.389 .0390217
784.099 .0390070
784.808 .0389927
785.517 .0389787
786.226 .0389653
786.935 .0389522
787.643 .0389396
788.352 .0389274
789.060 .0389156
789.767 .0389040
790.475 .0388928
791.182 .0388819
791.889 .0388772
792.595 .0388665
793.301 .0388560
794.008 .0388457
794.713 .0388356
795.419 .0388255
796.124 .0388154
796.829 .0388052
797.534 .0387949
798.238 .0387843
798.942 .0387736
799.646 .0387627
800.350 .0387515
801.053 .0387402
801.756 .0387287
802.459 .0387170
803.162 .0387052
803.864 .0386932
804.566 .0386810
805.267 .0386687
805.969 .0386561
806.670 .0386434
807.371 .0386305
808.071 .0386174
808.772 .0386042
809.472 .0385907
810.171 .0385770
810.871 .0385631
811.570 .0385490
812.269 .0385345
812.967 .0385197
813.666 .0385045
814.364 .0384890
815.061 .0384730
815.759 .0384567
816.456 .0384400
817.153 .0384228
817.849 .0384052
818.545 .0383871
819.241 .0383686
819.937 .0383497
820.632 .0383302
821.327 .0383103
822.022 .0382898
822.717 .0382690
823.411 .0382477
824.105 .0382260
824.798 .0382039
825.491 .0381815
826.184 .0381589
826.877 .0381359
827.569 .0381126
828.261 .0380891
828.953 .0380654
829.645 .0380415
830.336 .0380176
831.027 .0379938
831.717 .0379701
832.407 .0379469
833.097 .0379241
833.787 .0379018
834.476 .0378800
835.165 .0378587
835.854 .0378379
836.542 .0378175
837.230 .0377975
837.918 .0377779
838.605 .0377586
839.292 .0377397
839.979 .0377212
840.665 .0377031
841.352 .0376854
842.037 .0376681
842.723 .0376511
843.408 .0376344
844.093 .0376179
844.777 .0376016
845.462 .0375854
846.145 .0375693
846.829 .0375533
847.512 .0375375
848.195 .0375217
848.878 .0375060
849.560 .0374902
850.242 .0374743
850.923 .0374583
851.605 .0374421
852.286 .0374256
852.966 .0374089
853.646 .0373920
854.326 .0373750
855.006 .0373577
855.685 .0373402
856.364 .0373225
857.043 .0373046
857.721 .0372867
858.399 .0372686
859.077 .0372506
859.754 .0372327
860.431 .0372151
861.107 .0371978
861.784 .0371808
862.459 .0371643
863.135 .0371483
863.810 .0371327
864.485 .0371174
865.160 .0371025
865.834 .0370880
866.508 .0370739
867.181 .0370601
867.854 .0370467
868.527 .0370338
869.199 .0370212
869.872 .0370089
870.543 .0369969
871.215 .0369852
871.886 .0369736
872.557 .0369621
873.227 .0369508
873.897 .0369394
874.567 .0369278
875.236 .0369161
875.905 .0369042
876.573 .0368918
877.242 .0368791
877.909 .0368658
878.577 .0368521
879.244 .0368378
879.911 .0368230
880.577 .0368077
881.243 .0367919
881.909 .0367754
882.575 .0367585
883.240 .0367409
883.904 .0367227
884.569 .0367041
885.232 .0366850
885.896 .0366656
886.559 .0366459
887.222 .0366261
887.885 .0366062
888.547 .0365862
889.208 .0365664
889.870 .0365465
890.531 .0365269
891.192 .0365073
891.852 .0364879
892.512 .0364686
893.171 .0364495
893.830 .0364306
894.489 .0364118
895.148 .0363931
895.806 .0363745
896.464 .0363560
897.121 .0363376
897.778 .0363194
898.434 .0363013
899.091 .0362743
899.747 .0362562
900.402 .0362382
901.057 .0362202
901.712 .0362021
902.366 .0361838
903.020 .0361654
903.674 .0361468
904.327 .0361281
904.980 .0361092
905.633 .0360901
906.285 .0360707
906.936 .0360511
907.588 .0360406
908.239 .0360205
908.889 .0360001
909.540 .0359794
910.190 .0359584
910.839 .0359371
911.488 .0359156
912.137 .0358939
912.785 .0358719
913.433 .0358498
914.081 .0358274
914.728 .0358047
915.375 .0357819
916.021 .0357589
916.668 .0357358
917.313 .0357127
917.959 .0356896
918.604 .0356667
919.248 .0356439
919.892 .0356212
920.536 .0355985
921.180 .0355759
921.823 .0355531
922.465 .0355303
923.108 .0355073
923.750 .0354843
924.391 .0354612
925.032 .0354382
925.673 .0354154
926.313 .0353929
926.953 .0353706
927.593 .0353486
928.232 .0353269
928.871 .0353056
929.510 .0352847
930.148 .0352642
930.786 .0352442
931.423 .0352247
932.060 .0352058
932.697 .0351876
933.333 .0351702
933.969 .0351534
934.604 .0351374
935.239 .0351220
935.874 .0351073
936.508 .0350931
937.142 .0350795
937.776 .0350664
938.409 .0350539
939.042 .0350419
939.674 .0350306
940.306 .0350198
940.938 .0350096
941.569 .0349999
942.200 .0349906
942.830 .0349817
943.460 .0349730
944.090 .0349645
944.720 .0349561
945.349 .0349478
945.977 .0349396
946.606 .0349312
947.233 .0349229
947.861 .0349143
948.488 .0349056
949.115 .0348966
949.741 .0348872
950.367 .0348772
950.993 .0348667
951.618 .0348554
952.243 .0348434
952.868 .0348308
953.492 .0348174
954.115 .0348035
954.739 .0347890
955.362 .0347741
955.984 .0347588
956.607 .0347433
957.229 .0347274
957.850 .0347113
958.471 .0346950
959.092 .0346785
959.713 .0346619
960.333 .0346452
960.952 .0346285
961.572 .0346119
962.191 .0345954
962.809 .0345789
963.428 .0345627
964.045 .0345466
964.663 .0345308
965.280 .0345151
965.897 .0344996
966.513 .0344842
967.129 .0344689
967.745 .0344536
968.361 .0344382
968.976 .0344229
969.590 .0344075
970.205 .0343920
970.818 .0343764
971.432 .0343607
972.045 .0343448
972.658 .0343287
973.271 .0343123
973.883 .0342955
974.495 .0342784
975.106 .0342609
975.717 .0342431
976.328 .0342250
976.938 .0342067
977.548 .0341882
978.158 .0341697
978.768 .0341414
979.377 .0341231
979.985 .0341047
980.594 .0340864
981.202 .0340680
981.809 .0340496
982.417 .0340314
983.024 .0340135
983.631 .0339959
984.237 .0339786
984.843 .0339618
985.449 .0339455
986.054 .0339296
986.659 .0339140
987.264 .0339078
987.868 .0338926
988.472 .0338777
989.076 .0338630
989.679 .0338487
990.282 .0338346
990.885 .0338210
991.487 .0338077
992.090 .0337948
992.691 .0337821
993.293 .0337697
993.894 .0337573
994.495 .0337449
995.095 .0337324
995.696 .0337197
996.296 .0337069
996.895 .0336939
997.494 .0336808
998.093 .0336676
998.692 .0336543
999.291 .0336408
999.889 .0336273
1000.487 .0336136
1001.084 .0335998
1001.681 .0335858
1002.278 .0335719
1002.875 .0335580
1003.471 .0335443
1004.067 .0335308
1004.663 .0335177
1005.258 .0335050
1005.854 .0334927
1006.449 .0334807
1007.043 .0334691
1007.638 .0334578
1008.232 .0334468
1008.826 .0334362
1009.419 .0334261
1010.012 .0334164
1010.605 .0334074
1011.198 .0333990
1011.791 .0333913
1012.383 .0333844
1012.975 .0333783
1013.566 .0333730
1014.158 .0333684
1014.749 .0333645
1015.340 .0333614
1015.931 .0333592
1016.521 .0333577
1017.111 .0333570
1017.701 .0333571
1018.291 .0333581
1018.880 .0333598
1019.470 .0333622
1020.059 .0333653
1020.647 .0333691
1021.236 .0333734
1021.824 .0333782
1022.412 .0333835
1023.000 .0333892
1023.588 .0333953
1024.175 .0334017
1024.762 .0334083
1025.349 .0334152
1025.936 .0334224
1026.523 .0334298
1027.109 .0334374
1027.695 .0334452
1028.281 .0334532
1028.867 .0334613
1029.452 .0334692
1030.038 .0334770
1030.623 .0334843
1031.208 .0334913
1031.792 .0334976
1032.377 .0335032
1032.961 .0335082
1033.546 .0335125
1034.130 .0335162
1034.714 .0335193
1035.297 .0335218
1035.881 .0335238
1036.464 .0335252
1037.047 .0335259
1037.630 .0335259
1038.213 .0335253
1038.796 .0335242
1039.378 .0335226
1039.961 .0335206
1040.543 .0335185
1041.125 .0335163
1041.707 .0335141
1042.289 .0335119
1042.871 .0335097
1043.452 .0335072
1044.034 .0335045
1044.615 .0335012
1045.196 .0334973
1045.777 .0334929
1046.358 .0334880
1046.939 .0334827
1047.520 .0334771
1048.101 .0334715
1048.681 .0334660
1049.262 .0334605
1049.842 .0334551
1050.422 .0334498
1051.002 .0334445
1051.582 .0334391
1052.162 .0334336
1052.742 .0334281
1053.322 .0334226
1053.902 .0334173
1054.482 .0334123
1055.061 .0334077
1055.641 .0334035
1056.220 .0333998
1056.800 .0333963
1057.379 .0333930
1057.958 .0333897
1058.538 .0333864
1059.117 .0333830
1059.696 .0333795
1060.275 .0333760
1060.854 .0333725
1061.433 .0333691
1062.012 .0333658
1062.592 .0333627
1063.171 .0333597
1063.750 .0333567
1064.329 .0333534
1064.908 .0333499
1065.487 .0333459
1066.066 .0333413
1066.645 .0333362
1067.224 .0333304
1067.803 .0333240
1068.382 .0333171
1068.961 .0333096
1069.540 .0333016
1070.119 .0332931
1070.698 .0332842
1071.278 .0332747
1071.857 .0332648
1072.436 .0332543
1073.016 .0332433
1073.595 .0332320
1074.175 .0332205
1074.754 .0332088
1075.334 .0331971
1075.913 .0331855
1076.493 .0331738
1077.073 .0331620
1077.653 .0331499
1078.233 .0331373
1078.813 .0331243
1079.393 .0331107
1079.974 .0330967
1080.554 .0330823
1081.135 .0330679
1081.716 .0330535
1082.296 .0330392
1082.877 .0330253
1083.458 .0330116
1084.040 .0329981
1084.621 .0329849
1085.202 .0329719
1085.784 .0329590
1086.366 .0329463
1086.948 .0329339
1087.530 .0329216
1088.112 .0329095
1088.695 .0328976
1089.277 .0328857
1089.860 .0328739
1090.443 .0328618
1091.026 .0328494
1091.610 .0328365
1092.193 .0328232
1092.777 .0328092
1093.361 .0327947
1093.946 .0327798
1094.530 .0327646
1095.115 .0327493
1095.700 .0327340
1096.285 .0327190
1096.871 .0327042
1097.456 .0326899
1098.042 .0326762
1098.628 .0326631
1099.215 .0326508
1099.802 .0326392
1100.389 .0326285
1100.976 .0326187
1101.564 .0326096
1102.152 .0326013
1102.740 .0325936
1103.329 .0325864
1103.917 .0325795
1104.507 .0325729
1105.096 .0325666
1105.686 .0325606
1106.276 .0325551
1106.867 .0325504
1107.457 .0325464
1108.049 .0325434
1108.640 .0325413
1109.232 .0325402
1109.825 .0325401
1110.417 .0325410
1111.010 .0325430
1111.604 .0325460
1112.198 .0325503
1112.792 .0325562
1113.387 .0325640
1113.982 .0325738
1114.577 .0325858
1115.173 .0325998
1115.769 .0326158
1116.366 .0326334
1116.963 .0326525
1117.561 .0326729
1118.159 .0326943
1118.758 .0327169
1119.357 .0327407
1119.957 .0327660
1120.557 .0327929
1121.157 .0328217
1121.758 .0328527
1122.360 .0328858
1122.962 .0329208
1123.564 .0329575
1124.167 .0329722
1124.771 .0330111
1125.375 .0330514
1125.980 .0330927
1126.585 .0331351
1127.191 .0331788
1127.797 .0332240
1128.404 .0332708
1129.012 .0333193
1129.620 .0333693
1130.229 .0334209
1130.838 .0334733
1131.448 .0335264
1132.058 .0335796
1132.669 .0336577
1133.281 .0337111
1133.894 .0337643
1134.507 .0338181
1135.120 .0338719
1135.735 .0339316
1136.350 .0339954
1136.965 .0340150
1137.582 .0340801
1138.199 .0341490
1138.816 .0342127
1139.435 .0342756
1140.054 .0343345
1140.674 .0343943
1141.294 .0344580
1141.916 .0345015
1142.538 .0345606
1143.160 .0345998
1143.784 .0347935
1144.408 .0349415
1145.033 .0343234
