Measurement Sequence started on: 14-45-04-498
Integration time: 36
Scans to Average: 2 
>>>>>Begin Spectral Data<<<<<
433.946 .0440279
434.870 .0484439
435.793 .0434731
436.715 .0419668
437.635 .0413798
438.555 .0415355
439.473 .0410061
440.389 .0404928
441.305 .0402180
442.219 .0400345
443.132 .0409397
444.044 .0405037
444.954 .0403298
445.863 .0402350
446.771 .0401708
447.678 .0400971
448.584 .0400498
449.488 .0400277
450.391 .0400175
451.293 .0400132
452.194 .0400112
453.094 .0400079
453.992 .0400000
454.890 .0399858
455.786 .0399634
456.681 .0399316
457.575 .0398901
458.468 .0398393
459.360 .0397801
460.250 .0397136
461.140 .0396405
462.028 .0395618
462.915 .0394778
463.801 .0393885
464.687 .0392942
465.571 .0391956
466.454 .0390932
467.335 .0389881
468.216 .0388819
469.096 .0387759
469.975 .0386714
470.853 .0385695
471.729 .0384708
472.605 .0383755
473.479 .0382836
474.353 .0381949
475.226 .0381090
476.097 .0380258
476.968 .0379452
477.838 .0378676
478.706 .0377934
479.574 .0377237
480.441 .0376587
481.306 .0375992
482.171 .0375452
483.035 .0374964
483.898 .0374524
484.760 .0374119
485.621 .0373743
486.481 .0373387
487.340 .0373044
488.198 .0372710
489.055 .0372380
489.912 .0372059
490.767 .0371745
491.622 .0371276
492.476 .0370973
493.329 .0370671
494.180 .0370364
495.032 .0370049
495.882 .0369717
496.731 .0369367
497.580 .0368999
498.427 .0368614
499.274 .0368218
500.120 .0368010
500.965 .0367617
501.809 .0367224
502.653 .0366833
503.495 .0366449
504.337 .0366070
505.178 .0365700
506.018 .0365340
506.858 .0364986
507.696 .0364641
508.534 .0364308
509.371 .0363986
510.208 .0363676
511.043 .0363380
511.878 .0363098
512.712 .0362824
513.545 .0362556
514.377 .0362292
515.209 .0362029
516.040 .0361766
516.870 .0361500
517.699 .0361231
518.528 .0360968
519.356 .0360716
520.183 .0360477
521.010 .0360256
521.836 .0360053
522.661 .0359864
523.485 .0359678
524.309 .0359486
525.132 .0359278
525.954 .0359045
526.776 .0358782
527.597 .0358486
528.417 .0358159
529.237 .0357808
530.056 .0357442
530.874 .0357072
531.692 .0356702
532.508 .0356334
533.325 .0355962
534.140 .0355586
534.955 .0355201
535.770 .0354799
536.583 .0354378
537.397 .0353937
538.209 .0353477
539.021 .0353001
539.832 .0352516
540.643 .0352033
541.453 .0351559
542.262 .0351099
543.071 .0350651
543.879 .0350214
544.687 .0349784
545.494 .0349355
546.300 .0348914
547.106 .0348452
547.911 .0347965
548.716 .0347448
549.520 .0346907
550.323 .0346349
551.126 .0345784
551.929 .0345219
552.731 .0344661
553.532 .0344111
554.332 .0343568
555.133 .0343031
555.932 .0342499
556.731 .0341968
557.530 .0341437
558.328 .0340908
559.125 .0340383
559.922 .0339871
560.719 .0339380
561.515 .0338913
562.310 .0338476
563.105 .0338072
563.899 .0337702
564.693 .0337361
565.487 .0337046
566.280 .0336749
567.072 .0336462
567.864 .0336176
568.655 .0335883
569.446 .0335578
570.236 .0335258
571.026 .0334924
571.816 .0334573
572.605 .0334207
573.393 .0333829
574.181 .0333439
574.969 .0333039
575.756 .0332630
576.543 .0332213
577.329 .0331787
578.115 .0331353
578.900 .0330914
579.685 .0330471
580.469 .0330027
581.253 .0329588
582.036 .0329156
582.820 .0328733
583.602 .0328320
584.384 .0327919
585.166 .0327528
585.947 .0327147
586.728 .0326773
587.509 .0326405
588.289 .0326042
589.069 .0325684
589.848 .0325328
590.627 .0324974
591.405 .0324622
592.183 .0324269
592.961 .0323916
593.738 .0323563
594.515 .0323210
595.291 .0322859
596.067 .0322513
596.843 .0322174
597.618 .0321842
598.393 .0321385
599.167 .0321084
599.941 .0320795
600.715 .0320517
601.488 .0320251
602.261 .0319993
603.034 .0319744
603.806 .0319503
604.578 .0319268
605.349 .0319039
606.121 .0318818
606.891 .0318722
607.662 .0318507
608.432 .0318296
609.201 .0318090
609.971 .0317887
610.740 .0317685
611.508 .0317484
612.277 .0317283
613.045 .0317080
613.812 .0316874
614.579 .0316666
615.346 .0316454
616.113 .0316238
616.879 .0316018
617.645 .0315793
618.411 .0315565
619.176 .0315332
619.941 .0315094
620.705 .0314852
621.470 .0314606
622.233 .0314356
622.997 .0314103
623.760 .0313845
624.523 .0313582
625.286 .0313313
626.048 .0313039
626.810 .0312760
627.572 .0312476
628.333 .0312188
629.095 .0311898
629.855 .0311606
630.616 .0311313
631.376 .0311021
632.136 .0310730
632.895 .0310440
633.655 .0310151
634.414 .0309864
635.172 .0309578
635.931 .0309295
636.689 .0309015
637.447 .0308741
638.204 .0308473
638.962 .0308212
639.718 .0307960
640.475 .0307717
641.231 .0307483
641.988 .0307260
642.743 .0307046
643.499 .0306843
644.254 .0306650
645.009 .0306467
645.764 .0306295
646.518 .0306133
647.272 .0305980
648.026 .0305835
648.780 .0305697
649.533 .0305565
650.286 .0305436
651.039 .0305311
651.792 .0305189
652.544 .0305067
653.296 .0304947
654.048 .0304828
654.799 .0304708
655.550 .0304589
656.301 .0304469
657.052 .0304349
657.802 .0304227
658.552 .0304103
659.302 .0303978
660.052 .0303850
660.801 .0303721
661.550 .0303590
662.299 .0303457
663.048 .0303322
663.796 .0303185
664.544 .0303044
665.292 .0302902
666.040 .0302757
666.787 .0302608
667.534 .0302456
668.281 .0302301
669.028 .0302142
669.774 .0301981
670.521 .0301815
671.266 .0301646
672.012 .0301473
672.758 .0301294
673.503 .0301110
674.248 .0300921
674.992 .0300727
675.737 .0300527
676.481 .0300324
677.225 .0300117
677.969 .0299909
678.712 .0299699
679.455 .0299490
680.199 .0299281
680.941 .0299074
681.684 .0298869
682.426 .0298666
683.168 .0298465
683.910 .0298268
684.652 .0298075
685.393 .0297886
686.134 .0297703
686.875 .0297526
687.616 .0297356
688.356 .0297193
689.097 .0297038
689.837 .0296891
690.576 .0296750
691.316 .0296615
692.055 .0296485
692.794 .0296361
693.533 .0296242
694.272 .0296128
695.010 .0296018
695.748 .0295912
696.486 .0295809
697.224 .0295709
697.962 .0295613
698.699 .0295520
699.436 .0295429
700.173 .0295340
700.909 .0295255
701.646 .0295173
702.382 .0295095
703.118 .0295020
703.853 .0294948
704.589 .0294880
705.324 .0294815
706.059 .0294753
706.794 .0294695
707.529 .0294640
708.263 .0294588
708.997 .0294540
709.731 .0294494
710.465 .0294451
711.198 .0294410
711.931 .0294370
712.664 .0294330
713.397 .0294290
714.130 .0294250
714.862 .0294207
715.594 .0294163
716.326 .0294116
717.058 .0294066
717.789 .0294013
718.520 .0293956
719.251 .0293893
719.982 .0293826
720.713 .0293754
721.443 .0293678
722.173 .0293599
722.903 .0293516
723.633 .0293431
724.362 .0293344
725.091 .0293256
725.820 .0293166
726.549 .0293076
727.278 .0292985
728.006 .0292893
728.734 .0292800
729.462 .0292706
730.190 .0292611
730.917 .0292516
731.644 .0292420
732.371 .0292323
733.098 .0292226
733.825 .0292126
734.551 .0292026
735.277 .0291924
736.003 .0291820
736.728 .0291715
737.454 .0291607
738.179 .0291497
738.904 .0291385
739.629 .0291269
740.353 .0291151
741.077 .0291029
741.801 .0290904
742.525 .0290775
743.249 .0290643
743.972 .0290509
744.695 .0290372
745.418 .0290234
746.141 .0290095
746.863 .0289955
747.585 .0289815
748.307 .0289674
749.029 .0289533
749.750 .0289390
750.472 .0289246
751.193 .0289102
751.913 .0288956
752.634 .0288809
753.354 .0288660
754.074 .0288510
754.794 .0288359
755.514 .0288208
756.233 .0288056
756.952 .0287905
757.671 .0287755
758.390 .0287606
759.108 .0287460
759.826 .0287316
760.544 .0287176
761.262 .0287039
761.979 .0286905
762.697 .0286774
763.414 .0286647
764.130 .0286525
764.847 .0286408
765.563 .0286299
766.279 .0286198
766.995 .0286107
767.710 .0286025
768.426 .0285954
769.141 .0285892
769.855 .0285840
770.570 .0285797
771.284 .0285761
771.998 .0285733
772.712 .0285711
773.426 .0285697
774.139 .0285691
774.852 .0285691
775.565 .0285699
776.277 .0285713
776.990 .0285732
777.702 .0285756
778.414 .0285782
779.125 .0285811
779.836 .0285841
780.547 .0285870
781.258 .0285899
781.969 .0285926
782.679 .0285950
783.389 .0285974
784.099 .0285990
784.808 .0286002
785.517 .0286010
786.226 .0286014
786.935 .0286016
787.643 .0286013
788.352 .0286008
789.060 .0285998
789.767 .0285984
790.475 .0285965
791.182 .0285940
791.889 .0285914
792.595 .0285880
793.301 .0285840
794.008 .0285795
794.713 .0285744
795.419 .0285688
796.124 .0285629
796.829 .0285564
797.534 .0285496
798.238 .0285423
798.942 .0285346
799.646 .0285265
800.350 .0285180
801.053 .0285091
801.756 .0285000
802.459 .0284906
803.162 .0284809
803.864 .0284710
804.566 .0284608
805.267 .0284503
805.969 .0284395
806.670 .0284283
807.371 .0284170
808.071 .0284053
808.772 .0283934
809.472 .0283814
810.171 .0283690
810.871 .0283565
811.570 .0283438
812.269 .0283308
812.967 .0283176
813.666 .0283043
814.364 .0282908
815.061 .0282772
815.759 .0282635
816.456 .0282496
817.153 .0282356
817.849 .0282213
818.545 .0282068
819.241 .0281920
819.937 .0281770
820.632 .0281617
821.327 .0281461
822.022 .0281302
822.717 .0281141
823.411 .0280978
824.105 .0280812
824.798 .0280644
825.491 .0280473
826.184 .0280299
826.877 .0280125
827.569 .0279949
828.261 .0279773
828.953 .0279598
829.645 .0279425
830.336 .0279253
831.027 .0279084
831.717 .0278916
832.407 .0278752
833.097 .0278589
833.787 .0278430
834.476 .0278273
835.165 .0278120
835.854 .0277969
836.542 .0277822
837.230 .0277677
837.918 .0277537
838.605 .0277399
839.292 .0277264
839.979 .0277132
840.665 .0277002
841.352 .0276875
842.037 .0276751
842.723 .0276630
843.408 .0276511
844.093 .0276396
844.777 .0276285
845.462 .0276177
846.145 .0276073
846.829 .0275972
847.512 .0275876
848.195 .0275782
848.878 .0275693
849.560 .0275606
850.242 .0275523
850.923 .0275443
851.605 .0275368
852.286 .0275296
852.966 .0275229
853.646 .0275165
854.326 .0275106
855.006 .0275050
855.685 .0274998
856.364 .0274950
857.043 .0274905
857.721 .0274864
858.399 .0274828
859.077 .0274795
859.754 .0274767
860.431 .0274744
861.107 .0274725
861.784 .0274709
862.459 .0274696
863.135 .0274684
863.810 .0274674
864.485 .0274665
865.160 .0274656
865.834 .0274646
866.508 .0274634
867.181 .0274622
867.854 .0274607
868.527 .0274589
869.199 .0274569
869.872 .0274546
870.543 .0274519
871.215 .0274487
871.886 .0274451
872.557 .0274411
873.227 .0274367
873.897 .0274319
874.567 .0274268
875.236 .0274214
875.905 .0274158
876.573 .0274101
877.242 .0274042
877.909 .0273983
878.577 .0273922
879.244 .0273860
879.911 .0273796
880.577 .0273731
881.243 .0273665
881.909 .0273598
882.575 .0273531
883.240 .0273465
883.904 .0273400
884.569 .0273337
885.232 .0273274
885.896 .0273213
886.559 .0273154
887.222 .0273095
887.885 .0273038
888.547 .0272982
889.208 .0272927
889.870 .0272873
890.531 .0272819
891.192 .0272766
891.852 .0272711
892.512 .0272655
893.171 .0272596
893.830 .0272534
894.489 .0272468
895.148 .0272398
895.806 .0272323
896.464 .0272244
897.121 .0272161
897.778 .0272073
898.434 .0271980
899.091 .0271820
899.747 .0271715
900.402 .0271605
901.057 .0271490
901.712 .0271370
902.366 .0271245
903.020 .0271117
903.674 .0270984
904.327 .0270848
904.980 .0270708
905.633 .0270566
906.285 .0270420
906.936 .0270271
907.588 .0270189
908.239 .0270034
908.889 .0269877
909.540 .0269718
910.190 .0269558
910.839 .0269395
911.488 .0269232
912.137 .0269069
912.785 .0268904
913.433 .0268740
914.081 .0268574
914.728 .0268408
915.375 .0268240
916.021 .0268071
916.668 .0267901
917.313 .0267728
917.959 .0267554
918.604 .0267377
919.248 .0267197
919.892 .0267013
920.536 .0266825
921.180 .0266632
921.823 .0266434
922.465 .0266231
923.108 .0266023
923.750 .0265811
924.391 .0265594
925.032 .0265374
925.673 .0265151
926.313 .0264925
926.953 .0264697
927.593 .0264468
928.232 .0264237
928.871 .0264004
929.510 .0263771
930.148 .0263536
930.786 .0263300
931.423 .0263063
932.060 .0262826
932.697 .0262588
933.333 .0262350
933.969 .0262113
934.604 .0261877
935.239 .0261643
935.874 .0261411
936.508 .0261180
937.142 .0260952
937.776 .0260727
938.409 .0260506
939.042 .0260288
939.674 .0260075
940.306 .0259867
940.938 .0259665
941.569 .0259469
942.200 .0259279
942.830 .0259096
943.460 .0258919
944.090 .0258748
944.720 .0258582
945.349 .0258421
945.977 .0258266
946.606 .0258116
947.233 .0257972
947.861 .0257834
948.488 .0257702
949.115 .0257576
949.741 .0257455
950.367 .0257338
950.993 .0257224
951.618 .0257113
952.243 .0257003
952.868 .0256895
953.492 .0256789
954.115 .0256685
954.739 .0256584
955.362 .0256485
955.984 .0256390
956.607 .0256299
957.229 .0256211
957.850 .0256125
958.471 .0256043
959.092 .0255963
959.713 .0255885
960.333 .0255809
960.952 .0255736
961.572 .0255666
962.191 .0255598
962.809 .0255533
963.428 .0255472
964.045 .0255412
964.663 .0255354
965.280 .0255299
965.897 .0255244
966.513 .0255190
967.129 .0255137
967.745 .0255085
968.361 .0255035
968.976 .0254987
969.590 .0254941
970.205 .0254898
970.818 .0254859
971.432 .0254823
972.045 .0254790
972.658 .0254760
973.271 .0254733
973.883 .0254710
974.495 .0254689
975.106 .0254671
975.717 .0254657
976.328 .0254646
976.938 .0254637
977.548 .0254632
978.158 .0254628
978.768 .0254629
979.377 .0254627
979.985 .0254624
980.594 .0254621
981.202 .0254617
981.809 .0254613
982.417 .0254611
983.024 .0254612
983.631 .0254616
984.237 .0254624
984.843 .0254636
985.449 .0254652
986.054 .0254671
986.659 .0254694
987.264 .0254710
987.868 .0254734
988.472 .0254761
989.076 .0254790
989.679 .0254821
990.282 .0254853
990.885 .0254887
991.487 .0254922
992.090 .0254956
992.691 .0254989
993.293 .0255019
993.894 .0255046
994.495 .0255068
995.095 .0255086
995.696 .0255099
996.296 .0255107
996.895 .0255112
997.494 .0255113
998.093 .0255111
998.692 .0255106
999.291 .0255097
999.889 .0255084
1000.487 .0255067
1001.084 .0255047
1001.681 .0255023
1002.278 .0254997
1002.875 .0254968
1003.471 .0254938
1004.067 .0254908
1004.663 .0254877
1005.258 .0254847
1005.854 .0254816
1006.449 .0254785
1007.043 .0254753
1007.638 .0254720
1008.232 .0254687
1008.826 .0254654
1009.419 .0254622
1010.012 .0254592
1010.605 .0254564
1011.198 .0254538
1011.791 .0254515
1012.383 .0254494
1012.975 .0254474
1013.566 .0254456
1014.158 .0254439
1014.749 .0254422
1015.340 .0254407
1015.931 .0254392
1016.521 .0254378
1017.111 .0254364
1017.701 .0254351
1018.291 .0254338
1018.880 .0254324
1019.470 .0254309
1020.059 .0254291
1020.647 .0254272
1021.236 .0254251
1021.824 .0254228
1022.412 .0254202
1023.000 .0254174
1023.588 .0254143
1024.175 .0254110
1024.762 .0254075
1025.349 .0254037
1025.936 .0253996
1026.523 .0253952
1027.109 .0253905
1027.695 .0253856
1028.281 .0253803
1028.867 .0253748
1029.452 .0253690
1030.038 .0253629
1030.623 .0253565
1031.208 .0253497
1031.792 .0253426
1032.377 .0253352
1032.961 .0253276
1033.546 .0253197
1034.130 .0253116
1034.714 .0253032
1035.297 .0252946
1035.881 .0252857
1036.464 .0252765
1037.047 .0252669
1037.630 .0252569
1038.213 .0252463
1038.796 .0252354
1039.378 .0252240
1039.961 .0252123
1040.543 .0252005
1041.125 .0251885
1041.707 .0251763
1042.289 .0251642
1042.871 .0251519
1043.452 .0251395
1044.034 .0251270
1044.615 .0251146
1045.196 .0251021
1045.777 .0250897
1046.358 .0250776
1046.939 .0250659
1047.520 .0250547
1048.101 .0250441
1048.681 .0250339
1049.262 .0250241
1049.842 .0250147
1050.422 .0250054
1051.002 .0249962
1051.582 .0249871
1052.162 .0249780
1052.742 .0249689
1053.322 .0249599
1053.902 .0249511
1054.482 .0249424
1055.061 .0249340
1055.641 .0249258
1056.220 .0249179
1056.800 .0249101
1057.379 .0249025
1057.958 .0248950
1058.538 .0248876
1059.117 .0248804
1059.696 .0248736
1060.275 .0248672
1060.854 .0248616
1061.433 .0248566
1062.012 .0248524
1062.592 .0248491
1063.171 .0248465
1063.750 .0248447
1064.329 .0248435
1064.908 .0248428
1065.487 .0248426
1066.066 .0248428
1066.645 .0248437
1067.224 .0248449
1067.803 .0248467
1068.382 .0248490
1068.961 .0248516
1069.540 .0248544
1070.119 .0248573
1070.698 .0248601
1071.278 .0248628
1071.857 .0248651
1072.436 .0248669
1073.016 .0248682
1073.595 .0248689
1074.175 .0248691
1074.754 .0248687
1075.334 .0248676
1075.913 .0248658
1076.493 .0248632
1077.073 .0248598
1077.653 .0248555
1078.233 .0248502
1078.813 .0248442
1079.393 .0248373
1079.974 .0248296
1080.554 .0248213
1081.135 .0248123
1081.716 .0248030
1082.296 .0247932
1082.877 .0247831
1083.458 .0247726
1084.040 .0247619
1084.621 .0247510
1085.202 .0247402
1085.784 .0247296
1086.366 .0247194
1086.948 .0247097
1087.530 .0247009
1088.112 .0246929
1088.695 .0246861
1089.277 .0246805
1089.860 .0246762
1090.443 .0246732
1091.026 .0246715
1091.610 .0246709
1092.193 .0246715
1092.777 .0246731
1093.361 .0246756
1093.946 .0246786
1094.530 .0246822
1095.115 .0246862
1095.700 .0246903
1096.285 .0246945
1096.871 .0246987
1097.456 .0247028
1098.042 .0247067
1098.628 .0247103
1099.215 .0247138
1099.802 .0247172
1100.389 .0247205
1100.976 .0247241
1101.564 .0247281
1102.152 .0247327
1102.740 .0247381
1103.329 .0247445
1103.917 .0247522
1104.507 .0247610
1105.096 .0247709
1105.686 .0247819
1106.276 .0247938
1106.867 .0248065
1107.457 .0248197
1108.049 .0248333
1108.640 .0248472
1109.232 .0248612
1109.825 .0248754
1110.417 .0248897
1111.010 .0249042
1111.604 .0249188
1112.198 .0249337
1112.792 .0249492
1113.387 .0249652
1113.982 .0249819
1114.577 .0249994
1115.173 .0250177
1115.769 .0250369
1116.366 .0250570
1116.963 .0250777
1117.561 .0250991
1118.159 .0251213
1118.758 .0251442
1119.357 .0251675
1119.957 .0251915
1120.557 .0252160
1121.157 .0252411
1121.758 .0252668
1122.360 .0252928
1122.962 .0253191
1123.564 .0253454
1124.167 .0253550
1124.771 .0253809
1125.375 .0254069
1125.980 .0254331
1126.585 .0254599
1127.191 .0254877
1127.797 .0255167
1128.404 .0255471
1129.012 .0255793
1129.620 .0256131
1130.229 .0256486
1130.838 .0256851
1131.448 .0257226
1132.058 .0257614
1132.669 .0258201
1133.281 .0258621
1133.894 .0259068
1134.507 .0259501
1135.120 .0260039
1135.735 .0260619
1136.350 .0260961
1136.965 .0260946
1137.582 .0261486
1138.199 .0262029
1138.816 .0262498
1139.435 .0262952
1140.054 .0263470
1140.674 .0264090
1141.294 .0264570
1141.916 .0265462
1142.538 .0265335
1143.160 .0268415
1143.784 .0269908
1144.408 .0263823
1145.033 .0275844
