Measurement Sequence started on: 14-45-04-498
Integration time: 36
Scans to Average: 2 
>>>>>Begin Spectral Data<<<<<
433.946 .0309678
434.870 .0399920
435.793 .0372698
436.715 .0375364
437.635 .0377108
438.555 .0381495
439.473 .0384714
440.389 .0384816
441.305 .0385359
442.219 .0385361
443.132 .0383043
444.044 .0382031
444.954 .0382420
445.863 .0382636
446.771 .0382728
447.678 .0382559
448.584 .0382193
449.488 .0381795
450.391 .0381342
451.293 .0380861
452.194 .0380368
453.094 .0379878
453.992 .0379389
454.890 .0378884
455.786 .0378356
456.681 .0377800
457.575 .0377216
458.468 .0376605
459.360 .0375975
460.250 .0375333
461.140 .0374685
462.028 .0374034
462.915 .0373381
463.801 .0372727
464.687 .0372068
465.571 .0371400
466.454 .0370718
467.335 .0370020
468.216 .0369307
469.096 .0368577
469.975 .0367835
470.853 .0367083
471.729 .0366330
472.605 .0365583
473.479 .0364850
474.353 .0364136
475.226 .0363441
476.097 .0362764
476.968 .0362103
477.838 .0361456
478.706 .0360822
479.574 .0360203
480.441 .0359599
481.306 .0359016
482.171 .0358458
483.035 .0357929
483.898 .0357432
484.760 .0356968
485.621 .0356539
486.481 .0356143
487.340 .0355774
488.198 .0355432
489.055 .0355113
489.912 .0354816
490.767 .0354540
491.622 .0354193
492.476 .0353957
493.329 .0353735
494.180 .0353524
495.032 .0353321
495.882 .0353123
496.731 .0352930
497.580 .0352740
498.427 .0352550
499.274 .0352359
500.120 .0352252
500.965 .0352048
501.809 .0351832
502.653 .0351602
503.495 .0351355
504.337 .0351090
505.178 .0350807
506.018 .0350506
506.858 .0350188
507.696 .0349853
508.534 .0349504
509.371 .0349141
510.208 .0348766
511.043 .0348379
511.878 .0347981
512.712 .0347571
513.545 .0347153
514.377 .0346728
515.209 .0346294
516.040 .0345854
516.870 .0345406
517.699 .0344950
518.528 .0344487
519.356 .0344016
520.183 .0343534
521.010 .0343044
521.836 .0342543
522.661 .0342031
523.485 .0341506
524.309 .0340970
525.132 .0340422
525.954 .0339862
526.776 .0339290
527.597 .0338706
528.417 .0338113
529.237 .0337515
530.056 .0336917
530.874 .0336317
531.692 .0335718
532.508 .0335122
533.325 .0334530
534.140 .0333946
534.955 .0333373
535.770 .0332815
536.583 .0332276
537.397 .0331759
538.209 .0331269
539.021 .0330806
539.832 .0330371
540.643 .0329965
541.453 .0329582
542.262 .0329218
543.071 .0328867
543.879 .0328529
544.687 .0328201
545.494 .0327877
546.300 .0327554
547.106 .0327230
547.911 .0326904
548.716 .0326575
549.520 .0326244
550.323 .0325913
551.126 .0325583
551.929 .0325256
552.731 .0324933
553.532 .0324616
554.332 .0324307
555.133 .0324009
555.932 .0323723
556.731 .0323451
557.530 .0323192
558.328 .0322949
559.125 .0322728
559.922 .0322533
560.719 .0322365
561.515 .0322227
562.310 .0322120
563.105 .0322041
563.899 .0321988
564.693 .0321955
565.487 .0321938
566.280 .0321934
567.072 .0321938
567.864 .0321943
568.655 .0321950
569.446 .0321954
570.236 .0321953
571.026 .0321940
571.816 .0321910
572.605 .0321859
573.393 .0321782
574.181 .0321680
574.969 .0321549
575.756 .0321390
576.543 .0321203
577.329 .0320991
578.115 .0320754
578.900 .0320496
579.685 .0320219
580.469 .0319927
581.253 .0319621
582.036 .0319303
582.820 .0318976
583.602 .0318640
584.384 .0318300
585.166 .0317956
585.947 .0317611
586.728 .0317268
587.509 .0316930
588.289 .0316602
589.069 .0316287
589.848 .0315987
590.627 .0315705
591.405 .0315440
592.183 .0315191
592.961 .0314956
593.738 .0314735
594.515 .0314525
595.291 .0314326
596.067 .0314138
596.843 .0313961
597.618 .0313797
598.393 .0313590
599.167 .0313457
599.941 .0313335
600.715 .0313224
601.488 .0313122
602.261 .0313026
603.034 .0312935
603.806 .0312846
604.578 .0312760
605.349 .0312675
606.121 .0312591
606.891 .0312551
607.662 .0312466
608.432 .0312380
609.201 .0312294
609.971 .0312206
610.740 .0312115
611.508 .0312023
612.277 .0311927
613.045 .0311827
613.812 .0311723
614.579 .0311614
615.346 .0311498
616.113 .0311375
616.879 .0311245
617.645 .0311107
618.411 .0310962
619.176 .0310810
619.941 .0310652
620.705 .0310489
621.470 .0310321
622.233 .0310148
622.997 .0309971
623.760 .0309789
624.523 .0309602
625.286 .0309410
626.048 .0309214
626.810 .0309014
627.572 .0308811
628.333 .0308606
629.095 .0308400
629.855 .0308194
630.616 .0307988
631.376 .0307782
632.136 .0307577
632.895 .0307371
633.655 .0307166
634.414 .0306959
635.172 .0306752
635.931 .0306546
636.689 .0306340
637.447 .0306136
638.204 .0305935
638.962 .0305737
639.718 .0305545
640.475 .0305357
641.231 .0305176
641.988 .0305002
642.743 .0304834
643.499 .0304672
644.254 .0304516
645.009 .0304365
645.764 .0304220
646.518 .0304080
647.272 .0303944
648.026 .0303813
648.780 .0303687
649.533 .0303566
650.286 .0303448
651.039 .0303335
651.792 .0303225
652.544 .0303116
653.296 .0303009
654.048 .0302901
654.799 .0302793
655.550 .0302684
656.301 .0302573
657.052 .0302460
657.802 .0302346
658.552 .0302229
659.302 .0302111
660.052 .0301990
660.801 .0301868
661.550 .0301744
662.299 .0301618
663.048 .0301490
663.796 .0301361
664.544 .0301231
665.292 .0301100
666.040 .0300968
666.787 .0300837
667.534 .0300706
668.281 .0300576
669.028 .0300448
669.774 .0300321
670.521 .0300196
671.266 .0300073
672.012 .0299952
672.758 .0299833
673.503 .0299716
674.248 .0299601
674.992 .0299487
675.737 .0299374
676.481 .0299262
677.225 .0299151
677.969 .0299041
678.712 .0298932
679.455 .0298824
680.199 .0298716
680.941 .0298610
681.684 .0298505
682.426 .0298401
683.168 .0298298
683.910 .0298196
684.652 .0298095
685.393 .0297995
686.134 .0297894
686.875 .0297794
687.616 .0297693
688.356 .0297592
689.097 .0297490
689.837 .0297387
690.576 .0297283
691.316 .0297176
692.055 .0297067
692.794 .0296954
693.533 .0296838
694.272 .0296719
695.010 .0296597
695.748 .0296473
696.486 .0296346
697.224 .0296218
697.962 .0296089
698.699 .0295958
699.436 .0295827
700.173 .0295695
700.909 .0295562
701.646 .0295430
702.382 .0295297
703.118 .0295166
703.853 .0295036
704.589 .0294908
705.324 .0294781
706.059 .0294657
706.794 .0294535
707.529 .0294415
708.263 .0294297
708.997 .0294182
709.731 .0294068
710.465 .0293957
711.198 .0293848
711.931 .0293740
712.664 .0293634
713.397 .0293528
714.130 .0293422
714.862 .0293317
715.594 .0293210
716.326 .0293103
717.058 .0292996
717.789 .0292887
718.520 .0292777
719.251 .0292666
719.982 .0292553
720.713 .0292439
721.443 .0292322
722.173 .0292204
722.903 .0292083
723.633 .0291961
724.362 .0291837
725.091 .0291712
725.820 .0291586
726.549 .0291460
727.278 .0291334
728.006 .0291209
728.734 .0291084
729.462 .0290960
730.190 .0290837
730.917 .0290715
731.644 .0290593
732.371 .0290473
733.098 .0290355
733.825 .0290238
734.551 .0290124
735.277 .0290013
736.003 .0289905
736.728 .0289801
737.454 .0289701
738.179 .0289605
738.904 .0289512
739.629 .0289422
740.353 .0289334
741.077 .0289249
741.801 .0289165
742.525 .0289083
743.249 .0289001
743.972 .0288920
744.695 .0288839
745.418 .0288757
746.141 .0288675
746.863 .0288592
747.585 .0288506
748.307 .0288418
749.029 .0288326
749.750 .0288230
750.472 .0288130
751.193 .0288024
751.913 .0287914
752.634 .0287798
753.354 .0287678
754.074 .0287554
754.794 .0287428
755.514 .0287301
756.233 .0287172
756.952 .0287043
757.671 .0286913
758.390 .0286784
759.108 .0286655
759.826 .0286526
760.544 .0286398
761.262 .0286273
761.979 .0286151
762.697 .0286032
763.414 .0285918
764.130 .0285809
764.847 .0285706
765.563 .0285609
766.279 .0285517
766.995 .0285431
767.710 .0285350
768.426 .0285273
769.141 .0285201
769.855 .0285132
770.570 .0285067
771.284 .0285004
771.998 .0284943
772.712 .0284884
773.426 .0284827
774.139 .0284771
774.852 .0284717
775.565 .0284665
776.277 .0284615
776.990 .0284565
777.702 .0284516
778.414 .0284467
779.125 .0284418
779.836 .0284367
780.547 .0284315
781.258 .0284262
781.969 .0284208
782.679 .0284154
783.389 .0284068
784.099 .0284011
784.808 .0283953
785.517 .0283894
786.226 .0283834
786.935 .0283773
787.643 .0283711
788.352 .0283648
789.060 .0283584
789.767 .0283520
790.475 .0283455
791.182 .0283390
791.889 .0283355
792.595 .0283288
793.301 .0283220
794.008 .0283151
794.713 .0283080
795.419 .0283007
796.124 .0282933
796.829 .0282857
797.534 .0282779
798.238 .0282698
798.942 .0282615
799.646 .0282528
800.350 .0282438
801.053 .0282344
801.756 .0282247
802.459 .0282146
803.162 .0282043
803.864 .0281936
804.566 .0281826
805.267 .0281713
805.969 .0281597
806.670 .0281478
807.371 .0281356
808.071 .0281231
808.772 .0281103
809.472 .0280972
810.171 .0280840
810.871 .0280705
811.570 .0280568
812.269 .0280429
812.967 .0280289
813.666 .0280147
814.364 .0280003
815.061 .0279857
815.759 .0279709
816.456 .0279561
817.153 .0279411
817.849 .0279263
818.545 .0279115
819.241 .0278968
819.937 .0278824
820.632 .0278681
821.327 .0278540
822.022 .0278400
822.717 .0278262
823.411 .0278126
824.105 .0277991
824.798 .0277859
825.491 .0277728
826.184 .0277601
826.877 .0277477
827.569 .0277357
828.261 .0277240
828.953 .0277128
829.645 .0277019
830.336 .0276914
831.027 .0276813
831.717 .0276716
832.407 .0276625
833.097 .0276538
833.787 .0276456
834.476 .0276379
835.165 .0276306
835.854 .0276237
836.542 .0276171
837.230 .0276109
837.918 .0276049
838.605 .0275991
839.292 .0275936
839.979 .0275882
840.665 .0275829
841.352 .0275776
842.037 .0275725
842.723 .0275672
843.408 .0275620
844.093 .0275566
844.777 .0275511
845.462 .0275455
846.145 .0275398
846.829 .0275340
847.512 .0275281
848.195 .0275222
848.878 .0275162
849.560 .0275101
850.242 .0275039
850.923 .0274976
851.605 .0274912
852.286 .0274845
852.966 .0274776
853.646 .0274705
854.326 .0274631
855.006 .0274553
855.685 .0274473
856.364 .0274390
857.043 .0274303
857.721 .0274215
858.399 .0274123
859.077 .0274029
859.754 .0273933
860.431 .0273835
861.107 .0273734
861.784 .0273631
862.459 .0273525
863.135 .0273418
863.810 .0273308
864.485 .0273196
865.160 .0273082
865.834 .0272967
866.508 .0272850
867.181 .0272732
867.854 .0272613
868.527 .0272492
869.199 .0272370
869.872 .0272247
870.543 .0272123
871.215 .0271999
871.886 .0271874
872.557 .0271749
873.227 .0271623
873.897 .0271498
874.567 .0271372
875.236 .0271246
875.905 .0271120
876.573 .0270995
877.242 .0270870
877.909 .0270745
878.577 .0270620
879.244 .0270495
879.911 .0270369
880.577 .0270242
881.243 .0270114
881.909 .0269984
882.575 .0269853
883.240 .0269720
883.904 .0269587
884.569 .0269453
885.232 .0269318
885.896 .0269182
886.559 .0269047
887.222 .0268911
887.885 .0268776
888.547 .0268642
889.208 .0268510
889.870 .0268379
890.531 .0268250
891.192 .0268123
891.852 .0267999
892.512 .0267877
893.171 .0267755
893.830 .0267635
894.489 .0267517
895.148 .0267399
895.806 .0267283
896.464 .0267168
897.121 .0267055
897.778 .0266945
898.434 .0266836
899.091 .0266679
899.747 .0266573
900.402 .0266469
901.057 .0266366
901.712 .0266264
902.366 .0266163
903.020 .0266063
903.674 .0265965
904.327 .0265868
904.980 .0265772
905.633 .0265678
906.285 .0265584
906.936 .0265491
907.588 .0265448
908.239 .0265357
908.889 .0265266
909.540 .0265177
910.190 .0265087
910.839 .0264998
911.488 .0264909
912.137 .0264820
912.785 .0264732
913.433 .0264645
914.081 .0264558
914.728 .0264473
915.375 .0264388
916.021 .0264304
916.668 .0264220
917.313 .0264136
917.959 .0264051
918.604 .0263966
919.248 .0263880
919.892 .0263793
920.536 .0263705
921.180 .0263617
921.823 .0263527
922.465 .0263436
923.108 .0263342
923.750 .0263246
924.391 .0263148
925.032 .0263047
925.673 .0262943
926.313 .0262837
926.953 .0262730
927.593 .0262622
928.232 .0262514
928.871 .0262406
929.510 .0262297
930.148 .0262188
930.786 .0262077
931.423 .0261966
932.060 .0261854
932.697 .0261742
933.333 .0261628
933.969 .0261515
934.604 .0261403
935.239 .0261291
935.874 .0261179
936.508 .0261069
937.142 .0260958
937.776 .0260848
938.409 .0260737
939.042 .0260625
939.674 .0260514
940.306 .0260401
940.938 .0260288
941.569 .0260174
942.200 .0260059
942.830 .0259943
943.460 .0259825
944.090 .0259705
944.720 .0259584
945.349 .0259461
945.977 .0259335
946.606 .0259208
947.233 .0259078
947.861 .0258946
948.488 .0258811
949.115 .0258673
949.741 .0258533
950.367 .0258391
950.993 .0258247
951.618 .0258103
952.243 .0257958
952.868 .0257814
953.492 .0257671
954.115 .0257529
954.739 .0257389
955.362 .0257250
955.984 .0257113
956.607 .0256978
957.229 .0256845
957.850 .0256713
958.471 .0256584
959.092 .0256457
959.713 .0256333
960.333 .0256212
960.952 .0256092
961.572 .0255975
962.191 .0255858
962.809 .0255743
963.428 .0255629
964.045 .0255515
964.663 .0255403
965.280 .0255291
965.897 .0255180
966.513 .0255070
967.129 .0254960
967.745 .0254851
968.361 .0254741
968.976 .0254631
969.590 .0254520
970.205 .0254408
970.818 .0254295
971.432 .0254181
972.045 .0254067
972.658 .0253952
973.271 .0253837
973.883 .0253721
974.495 .0253606
975.106 .0253492
975.717 .0253377
976.328 .0253263
976.938 .0253150
977.548 .0253037
978.158 .0252924
978.768 .0252761
979.377 .0252651
979.985 .0252541
980.594 .0252433
981.202 .0252327
981.809 .0252223
982.417 .0252122
983.024 .0252024
983.631 .0251929
984.237 .0251836
984.843 .0251745
985.449 .0251656
986.054 .0251568
986.659 .0251480
987.264 .0251440
987.868 .0251354
988.472 .0251268
989.076 .0251184
989.679 .0251100
990.282 .0251018
990.885 .0250936
991.487 .0250856
992.090 .0250776
992.691 .0250696
993.293 .0250617
993.894 .0250538
994.495 .0250460
995.095 .0250382
995.696 .0250306
996.296 .0250233
996.895 .0250162
997.494 .0250094
998.093 .0250030
998.692 .0249968
999.291 .0249909
999.889 .0249853
1000.487 .0249798
1001.084 .0249744
1001.681 .0249693
1002.278 .0249644
1002.875 .0249597
1003.471 .0249553
1004.067 .0249513
1004.663 .0249476
1005.258 .0249442
1005.854 .0249411
1006.449 .0249382
1007.043 .0249355
1007.638 .0249331
1008.232 .0249309
1008.826 .0249290
1009.419 .0249275
1010.012 .0249264
1010.605 .0249258
1011.198 .0249255
1011.791 .0249257
1012.383 .0249261
1012.975 .0249268
1013.566 .0249277
1014.158 .0249287
1014.749 .0249298
1015.340 .0249310
1015.931 .0249324
1016.521 .0249338
1017.111 .0249355
1017.701 .0249372
1018.291 .0249390
1018.880 .0249409
1019.470 .0249427
1020.059 .0249445
1020.647 .0249462
1021.236 .0249478
1021.824 .0249493
1022.412 .0249509
1023.000 .0249525
1023.588 .0249542
1024.175 .0249559
1024.762 .0249576
1025.349 .0249594
1025.936 .0249612
1026.523 .0249629
1027.109 .0249646
1027.695 .0249664
1028.281 .0249683
1028.867 .0249704
1029.452 .0249728
1030.038 .0249757
1030.623 .0249791
1031.208 .0249829
1031.792 .0249872
1032.377 .0249917
1032.961 .0249964
1033.546 .0250013
1034.130 .0250063
1034.714 .0250113
1035.297 .0250165
1035.881 .0250218
1036.464 .0250273
1037.047 .0250329
1037.630 .0250387
1038.213 .0250446
1038.796 .0250504
1039.378 .0250560
1039.961 .0250611
1040.543 .0250658
1041.125 .0250699
1041.707 .0250734
1042.289 .0250765
1042.871 .0250791
1043.452 .0250814
1044.034 .0250834
1044.615 .0250851
1045.196 .0250863
1045.777 .0250871
1046.358 .0250874
1046.939 .0250869
1047.520 .0250857
1048.101 .0250838
1048.681 .0250813
1049.262 .0250784
1049.842 .0250752
1050.422 .0250719
1051.002 .0250686
1051.582 .0250653
1052.162 .0250621
1052.742 .0250588
1053.322 .0250554
1053.902 .0250520
1054.482 .0250486
1055.061 .0250452
1055.641 .0250419
1056.220 .0250390
1056.800 .0250365
1057.379 .0250345
1057.958 .0250329
1058.538 .0250318
1059.117 .0250310
1059.696 .0250303
1060.275 .0250297
1060.854 .0250290
1061.433 .0250283
1062.012 .0250277
1062.592 .0250270
1063.171 .0250264
1063.750 .0250258
1064.329 .0250251
1064.908 .0250243
1065.487 .0250231
1066.066 .0250216
1066.645 .0250196
1067.224 .0250172
1067.803 .0250143
1068.382 .0250111
1068.961 .0250076
1069.540 .0250039
1070.119 .0250001
1070.698 .0249962
1071.278 .0249922
1071.857 .0249879
1072.436 .0249835
1073.016 .0249789
1073.595 .0249743
1074.175 .0249696
1074.754 .0249652
1075.334 .0249609
1075.913 .0249569
1076.493 .0249531
1077.073 .0249494
1077.653 .0249456
1078.233 .0249416
1078.813 .0249372
1079.393 .0249324
1079.974 .0249272
1080.554 .0249215
1081.135 .0249156
1081.716 .0249096
1082.296 .0249034
1082.877 .0248972
1083.458 .0248909
1084.040 .0248844
1084.621 .0248775
1085.202 .0248703
1085.784 .0248627
1086.366 .0248546
1086.948 .0248462
1087.530 .0248374
1088.112 .0248283
1088.695 .0248191
1089.277 .0248097
1089.860 .0248000
1090.443 .0247900
1091.026 .0247797
1091.610 .0247690
1092.193 .0247578
1092.777 .0247462
1093.361 .0247342
1093.946 .0247219
1094.530 .0247095
1095.115 .0246970
1095.700 .0246848
1096.285 .0246727
1096.871 .0246611
1097.456 .0246499
1098.042 .0246392
1098.628 .0246290
1099.215 .0246195
1099.802 .0246106
1100.389 .0246024
1100.976 .0245948
1101.564 .0245880
1102.152 .0245820
1102.740 .0245768
1103.329 .0245725
1103.917 .0245691
1104.507 .0245665
1105.096 .0245647
1105.686 .0245638
1106.276 .0245638
1106.867 .0245648
1107.457 .0245667
1108.049 .0245696
1108.640 .0245736
1109.232 .0245787
1109.825 .0245851
1110.417 .0245929
1111.010 .0246019
1111.604 .0246123
1112.198 .0246241
1112.792 .0246373
1113.387 .0246518
1113.982 .0246676
1114.577 .0246847
1115.173 .0247029
1115.769 .0247220
1116.366 .0247419
1116.963 .0247623
1117.561 .0247832
1118.159 .0248044
1118.758 .0248259
1119.357 .0248475
1119.957 .0248692
1120.557 .0248910
1121.157 .0249129
1121.758 .0249349
1122.360 .0249569
1122.962 .0249786
1123.564 .0249999
1124.167 .0250120
1124.771 .0250326
1125.375 .0250523
1125.980 .0250713
1126.585 .0250897
1127.191 .0251077
1127.797 .0251256
1128.404 .0251437
1129.012 .0251621
1129.620 .0251811
1130.229 .0252006
1130.838 .0252208
1131.448 .0252416
1132.058 .0252631
1132.669 .0252935
1133.281 .0253169
1133.894 .0253417
1134.507 .0253683
1135.120 .0254027
1135.735 .0254319
1136.350 .0254629
1136.965 .0253705
1137.582 .0254139
1138.199 .0254609
1138.816 .0255075
1139.435 .0255557
1140.054 .0256111
1140.674 .0256666
1141.294 .0257253
1141.916 .0257812
1142.538 .0258490
1143.160 .0260751
1143.784 .0259464
1144.408 .0260085
1145.033 .0259728
