Measurement Sequence started on: 14-45-04-498
Integration time: 36
Scans to Average: 2 
>>>>>Begin Spectral Data<<<<<
433.946 .0472030
434.870 .0399522
435.793 .0356329
436.715 .0373345
437.635 .0370500
438.555 .0369954
439.473 .0364879
440.389 .0363304
441.305 .0363468
442.219 .0363580
443.132 .0370553
444.044 .0369506
444.954 .0370775
445.863 .0371176
446.771 .0371742
447.678 .0372338
448.584 .0373189
449.488 .0374099
450.391 .0374969
451.293 .0375795
452.194 .0376540
453.094 .0377162
453.992 .0377649
454.890 .0377985
455.786 .0378159
456.681 .0378170
457.575 .0378021
458.468 .0377722
459.360 .0377287
460.250 .0376733
461.140 .0376077
462.028 .0375337
462.915 .0374533
463.801 .0373682
464.687 .0372800
465.571 .0371902
466.454 .0370996
467.335 .0370089
468.216 .0369188
469.096 .0368300
469.975 .0367433
470.853 .0366593
471.729 .0365786
472.605 .0365021
473.479 .0364299
474.353 .0363621
475.226 .0362983
476.097 .0362382
476.968 .0361812
477.838 .0361264
478.706 .0360732
479.574 .0360211
480.441 .0359697
481.306 .0359190
482.171 .0358689
483.035 .0358198
483.898 .0357718
484.760 .0357250
485.621 .0356794
486.481 .0356351
487.340 .0355920
488.198 .0355500
489.055 .0355089
489.912 .0354687
490.767 .0354294
491.622 .0353733
492.476 .0353352
493.329 .0352974
494.180 .0352598
495.032 .0352223
495.882 .0351849
496.731 .0351472
497.580 .0351090
498.427 .0350701
499.274 .0350302
500.120 .0350072
500.965 .0349652
501.809 .0349224
502.653 .0348788
503.495 .0348346
504.337 .0347902
505.178 .0347457
506.018 .0347016
506.858 .0346580
507.696 .0346155
508.534 .0345748
509.371 .0345363
510.208 .0345003
511.043 .0344674
511.878 .0344379
512.712 .0344120
513.545 .0343892
514.377 .0343697
515.209 .0343529
516.040 .0343383
516.870 .0343252
517.699 .0343126
518.528 .0342999
519.356 .0342868
520.183 .0342720
521.010 .0342551
521.836 .0342349
522.661 .0342111
523.485 .0341828
524.309 .0341498
525.132 .0341118
525.954 .0340686
526.776 .0340205
527.597 .0339676
528.417 .0339102
529.237 .0338494
530.056 .0337855
530.874 .0337198
531.692 .0336528
532.508 .0335849
533.325 .0335169
534.140 .0334494
534.955 .0333830
535.770 .0333181
536.583 .0332551
537.397 .0331946
538.209 .0331373
539.021 .0330838
539.832 .0330346
540.643 .0329905
541.453 .0329514
542.262 .0329171
543.071 .0328867
543.879 .0328593
544.687 .0328339
545.494 .0328095
546.300 .0327848
547.106 .0327589
547.911 .0327313
548.716 .0327018
549.520 .0326705
550.323 .0326378
551.126 .0326042
551.929 .0325702
552.731 .0325360
553.532 .0325019
554.332 .0324680
555.133 .0324345
555.932 .0324015
556.731 .0323694
557.530 .0323377
558.328 .0323068
559.125 .0322770
559.922 .0322486
560.719 .0322218
561.515 .0321968
562.310 .0321736
563.105 .0321522
563.899 .0321325
564.693 .0321141
565.487 .0320967
566.280 .0320801
567.072 .0320638
567.864 .0320473
568.655 .0320301
569.446 .0320123
570.236 .0319933
571.026 .0319729
571.816 .0319509
572.605 .0319269
573.393 .0319009
574.181 .0318728
574.969 .0318426
575.756 .0318105
576.543 .0317768
577.329 .0317419
578.115 .0317061
578.900 .0316696
579.685 .0316327
580.469 .0315959
581.253 .0315591
582.036 .0315227
582.820 .0314869
583.602 .0314520
584.384 .0314183
585.166 .0313860
585.947 .0313555
586.728 .0313268
587.509 .0313001
588.289 .0312755
589.069 .0312527
589.848 .0312316
590.627 .0312120
591.405 .0311937
592.183 .0311765
592.961 .0311602
593.738 .0311447
594.515 .0311301
595.291 .0311163
596.067 .0311033
596.843 .0310910
597.618 .0310794
598.393 .0310640
599.167 .0310532
599.941 .0310427
600.715 .0310322
601.488 .0310214
602.261 .0310105
603.034 .0309991
603.806 .0309873
604.578 .0309750
605.349 .0309621
606.121 .0309485
606.891 .0309395
607.662 .0309248
608.432 .0309093
609.201 .0308930
609.971 .0308760
610.740 .0308582
611.508 .0308397
612.277 .0308205
613.045 .0308006
613.812 .0307801
614.579 .0307591
615.346 .0307377
616.113 .0307158
616.879 .0306937
617.645 .0306713
618.411 .0306489
619.176 .0306264
619.941 .0306040
620.705 .0305816
621.470 .0305594
622.233 .0305374
622.997 .0305156
623.760 .0304940
624.523 .0304727
625.286 .0304517
626.048 .0304310
626.810 .0304108
627.572 .0303909
628.333 .0303715
629.095 .0303524
629.855 .0303337
630.616 .0303153
631.376 .0302972
632.136 .0302795
632.895 .0302620
633.655 .0302449
634.414 .0302281
635.172 .0302116
635.931 .0301954
636.689 .0301796
637.447 .0301641
638.204 .0301489
638.962 .0301339
639.718 .0301192
640.475 .0301047
641.231 .0300904
641.988 .0300764
642.743 .0300626
643.499 .0300490
644.254 .0300355
645.009 .0300223
645.764 .0300091
646.518 .0299961
647.272 .0299831
648.026 .0299702
648.780 .0299574
649.533 .0299447
650.286 .0299320
651.039 .0299195
651.792 .0299071
652.544 .0298947
653.296 .0298825
654.048 .0298703
654.799 .0298581
655.550 .0298459
656.301 .0298336
657.052 .0298211
657.802 .0298086
658.552 .0297960
659.302 .0297832
660.052 .0297704
660.801 .0297574
661.550 .0297444
662.299 .0297313
663.048 .0297181
663.796 .0297048
664.544 .0296916
665.292 .0296784
666.040 .0296652
666.787 .0296521
667.534 .0296390
668.281 .0296259
669.028 .0296128
669.774 .0295996
670.521 .0295865
671.266 .0295734
672.012 .0295603
672.758 .0295474
673.503 .0295345
674.248 .0295219
674.992 .0295094
675.737 .0294969
676.481 .0294845
677.225 .0294720
677.969 .0294594
678.712 .0294467
679.455 .0294339
680.199 .0294211
680.941 .0294082
681.684 .0293953
682.426 .0293825
683.168 .0293696
683.910 .0293569
684.652 .0293441
685.393 .0293314
686.134 .0293187
686.875 .0293060
687.616 .0292934
688.356 .0292808
689.097 .0292683
689.837 .0292558
690.576 .0292433
691.316 .0292308
692.055 .0292184
692.794 .0292062
693.533 .0291941
694.272 .0291822
695.010 .0291706
695.748 .0291593
696.486 .0291481
697.224 .0291371
697.962 .0291262
698.699 .0291152
699.436 .0291043
700.173 .0290934
700.909 .0290826
701.646 .0290718
702.382 .0290611
703.118 .0290505
703.853 .0290400
704.589 .0290296
705.324 .0290193
706.059 .0290089
706.794 .0289986
707.529 .0289883
708.263 .0289780
708.997 .0289677
709.731 .0289575
710.465 .0289473
711.198 .0289371
711.931 .0289269
712.664 .0289165
713.397 .0289059
714.130 .0288951
714.862 .0288841
715.594 .0288729
716.326 .0288615
717.058 .0288498
717.789 .0288379
718.520 .0288258
719.251 .0288134
719.982 .0288007
720.713 .0287876
721.443 .0287741
722.173 .0287604
722.903 .0287463
723.633 .0287320
724.362 .0287176
725.091 .0287031
725.820 .0286885
726.549 .0286739
727.278 .0286593
728.006 .0286446
728.734 .0286299
729.462 .0286152
730.190 .0286006
730.917 .0285861
731.644 .0285717
732.371 .0285574
733.098 .0285433
733.825 .0285295
734.551 .0285158
735.277 .0285023
736.003 .0284890
736.728 .0284758
737.454 .0284629
738.179 .0284502
738.904 .0284378
739.629 .0284258
740.353 .0284140
741.077 .0284026
741.801 .0283914
742.525 .0283806
743.249 .0283700
743.972 .0283596
744.695 .0283496
745.418 .0283398
746.141 .0283305
746.863 .0283215
747.585 .0283129
748.307 .0283047
749.029 .0282967
749.750 .0282889
750.472 .0282813
751.193 .0282737
751.913 .0282663
752.634 .0282590
753.354 .0282519
754.074 .0282450
754.794 .0282383
755.514 .0282317
756.233 .0282253
756.952 .0282188
757.671 .0282123
758.390 .0282057
759.108 .0281990
759.826 .0281922
760.544 .0281853
761.262 .0281783
761.979 .0281713
762.697 .0281643
763.414 .0281573
764.130 .0281501
764.847 .0281429
765.563 .0281355
766.279 .0281281
766.995 .0281206
767.710 .0281131
768.426 .0281056
769.141 .0280980
769.855 .0280902
770.570 .0280823
771.284 .0280742
771.998 .0280658
772.712 .0280573
773.426 .0280486
774.139 .0280397
774.852 .0280307
775.565 .0280217
776.277 .0280125
776.990 .0280032
777.702 .0279937
778.414 .0279840
779.125 .0279740
779.836 .0279637
780.547 .0279533
781.258 .0279427
781.969 .0279319
782.679 .0279212
783.389 .0279049
784.099 .0278942
784.808 .0278833
785.517 .0278724
786.226 .0278613
786.935 .0278501
787.643 .0278387
788.352 .0278272
789.060 .0278155
789.767 .0278036
790.475 .0277917
791.182 .0277797
791.889 .0277733
792.595 .0277613
793.301 .0277492
794.008 .0277371
794.713 .0277250
795.419 .0277129
796.124 .0277009
796.829 .0276889
797.534 .0276770
798.238 .0276653
798.942 .0276537
799.646 .0276423
800.350 .0276311
801.053 .0276201
801.756 .0276094
802.459 .0275989
803.162 .0275887
803.864 .0275788
804.566 .0275693
805.267 .0275600
805.969 .0275512
806.670 .0275427
807.371 .0275345
808.071 .0275268
808.772 .0275193
809.472 .0275123
810.171 .0275055
810.871 .0274990
811.570 .0274928
812.269 .0274867
812.967 .0274808
813.666 .0274750
814.364 .0274693
815.061 .0274636
815.759 .0274579
816.456 .0274522
817.153 .0274465
817.849 .0274406
818.545 .0274347
819.241 .0274285
819.937 .0274221
820.632 .0274155
821.327 .0274087
822.022 .0274016
822.717 .0273942
823.411 .0273866
824.105 .0273789
824.798 .0273710
825.491 .0273629
826.184 .0273546
826.877 .0273462
827.569 .0273376
828.261 .0273289
828.953 .0273201
829.645 .0273111
830.336 .0273022
831.027 .0272932
831.717 .0272841
832.407 .0272751
833.097 .0272662
833.787 .0272572
834.476 .0272482
835.165 .0272391
835.854 .0272301
836.542 .0272210
837.230 .0272118
837.918 .0272026
838.605 .0271933
839.292 .0271838
839.979 .0271741
840.665 .0271641
841.352 .0271537
842.037 .0271430
842.723 .0271318
843.408 .0271202
844.093 .0271081
844.777 .0270955
845.462 .0270824
846.145 .0270689
846.829 .0270550
847.512 .0270406
848.195 .0270258
848.878 .0270107
849.560 .0269951
850.242 .0269792
850.923 .0269630
851.605 .0269464
852.286 .0269296
852.966 .0269125
853.646 .0268952
854.326 .0268778
855.006 .0268604
855.685 .0268431
856.364 .0268260
857.043 .0268092
857.721 .0267927
858.399 .0267766
859.077 .0267608
859.754 .0267454
860.431 .0267303
861.107 .0267157
861.784 .0267014
862.459 .0266875
863.135 .0266740
863.810 .0266609
864.485 .0266482
865.160 .0266358
865.834 .0266238
866.508 .0266119
867.181 .0266001
867.854 .0265886
868.527 .0265771
869.199 .0265658
869.872 .0265546
870.543 .0265437
871.215 .0265329
871.886 .0265223
872.557 .0265119
873.227 .0265017
873.897 .0264917
874.567 .0264819
875.236 .0264723
875.905 .0264630
876.573 .0264539
877.242 .0264451
877.909 .0264366
878.577 .0264283
879.244 .0264203
879.911 .0264126
880.577 .0264051
881.243 .0263979
881.909 .0263909
882.575 .0263842
883.240 .0263779
883.904 .0263720
884.569 .0263664
885.232 .0263613
885.896 .0263566
886.559 .0263524
887.222 .0263486
887.885 .0263452
888.547 .0263422
889.208 .0263395
889.870 .0263372
890.531 .0263353
891.192 .0263336
891.852 .0263321
892.512 .0263308
893.171 .0263296
893.830 .0263284
894.489 .0263272
895.148 .0263259
895.806 .0263244
896.464 .0263228
897.121 .0263211
897.778 .0263192
898.434 .0263173
899.091 .0263135
899.747 .0263111
900.402 .0263086
901.057 .0263059
901.712 .0263030
902.366 .0262996
903.020 .0262958
903.674 .0262916
904.327 .0262869
904.980 .0262817
905.633 .0262760
906.285 .0262699
906.936 .0262633
907.588 .0262589
908.239 .0262517
908.889 .0262439
909.540 .0262356
910.190 .0262267
910.839 .0262174
911.488 .0262075
912.137 .0261972
912.785 .0261865
913.433 .0261755
914.081 .0261642
914.728 .0261526
915.375 .0261408
916.021 .0261286
916.668 .0261160
917.313 .0261030
917.959 .0260896
918.604 .0260756
919.248 .0260613
919.892 .0260465
920.536 .0260314
921.180 .0260159
921.823 .0260000
922.465 .0259837
923.108 .0259670
923.750 .0259499
924.391 .0259323
925.032 .0259143
925.673 .0258960
926.313 .0258773
926.953 .0258584
927.593 .0258393
928.232 .0258200
928.871 .0258006
929.510 .0257809
930.148 .0257611
930.786 .0257410
931.423 .0257206
932.060 .0256999
932.697 .0256790
933.333 .0256578
933.969 .0256365
934.604 .0256150
935.239 .0255934
935.874 .0255718
936.508 .0255501
937.142 .0255285
937.776 .0255068
938.409 .0254852
939.042 .0254637
939.674 .0254422
940.306 .0254207
940.938 .0253994
941.569 .0253782
942.200 .0253572
942.830 .0253364
943.460 .0253159
944.090 .0252956
944.720 .0252756
945.349 .0252560
945.977 .0252367
946.606 .0252178
947.233 .0251993
947.861 .0251812
948.488 .0251635
949.115 .0251462
949.741 .0251293
950.367 .0251129
950.993 .0250969
951.618 .0250813
952.243 .0250662
952.868 .0250514
953.492 .0250370
954.115 .0250230
954.739 .0250094
955.362 .0249962
955.984 .0249834
956.607 .0249710
957.229 .0249590
957.850 .0249475
958.471 .0249364
959.092 .0249258
959.713 .0249157
960.333 .0249061
960.952 .0248971
961.572 .0248885
962.191 .0248805
962.809 .0248731
963.428 .0248662
964.045 .0248600
964.663 .0248543
965.280 .0248491
965.897 .0248444
966.513 .0248403
967.129 .0248366
967.745 .0248333
968.361 .0248305
968.976 .0248282
969.590 .0248263
970.205 .0248250
970.818 .0248241
971.432 .0248238
972.045 .0248238
972.658 .0248242
973.271 .0248250
973.883 .0248260
974.495 .0248273
975.106 .0248289
975.717 .0248308
976.328 .0248328
976.938 .0248350
977.548 .0248374
978.158 .0248397
978.768 .0248428
979.377 .0248448
979.985 .0248466
980.594 .0248482
981.202 .0248497
981.809 .0248512
982.417 .0248527
983.024 .0248542
983.631 .0248558
984.237 .0248574
984.843 .0248589
985.449 .0248604
986.054 .0248617
986.659 .0248630
987.264 .0248636
987.868 .0248648
988.472 .0248659
989.076 .0248672
989.679 .0248685
990.282 .0248698
990.885 .0248711
991.487 .0248723
992.090 .0248733
992.691 .0248741
993.293 .0248746
993.894 .0248749
994.495 .0248750
995.095 .0248750
995.696 .0248749
996.296 .0248749
996.895 .0248749
997.494 .0248749
998.093 .0248748
998.692 .0248745
999.291 .0248740
999.889 .0248730
1000.487 .0248717
1001.084 .0248700
1001.681 .0248679
1002.278 .0248657
1002.875 .0248633
1003.471 .0248608
1004.067 .0248582
1004.663 .0248555
1005.258 .0248525
1005.854 .0248492
1006.449 .0248455
1007.043 .0248415
1007.638 .0248371
1008.232 .0248324
1008.826 .0248276
1009.419 .0248226
1010.012 .0248176
1010.605 .0248125
1011.198 .0248074
1011.791 .0248022
1012.383 .0247967
1012.975 .0247910
1013.566 .0247850
1014.158 .0247785
1014.749 .0247718
1015.340 .0247648
1015.931 .0247577
1016.521 .0247504
1017.111 .0247432
1017.701 .0247359
1018.291 .0247288
1018.880 .0247217
1019.470 .0247145
1020.059 .0247074
1020.647 .0247001
1021.236 .0246928
1021.824 .0246853
1022.412 .0246778
1023.000 .0246701
1023.588 .0246625
1024.175 .0246548
1024.762 .0246471
1025.349 .0246394
1025.936 .0246317
1026.523 .0246239
1027.109 .0246161
1027.695 .0246082
1028.281 .0246002
1028.867 .0245921
1029.452 .0245840
1030.038 .0245758
1030.623 .0245677
1031.208 .0245596
1031.792 .0245516
1032.377 .0245438
1032.961 .0245361
1033.546 .0245285
1034.130 .0245210
1034.714 .0245135
1035.297 .0245061
1035.881 .0244987
1036.464 .0244912
1037.047 .0244835
1037.630 .0244758
1038.213 .0244679
1038.796 .0244600
1039.378 .0244522
1039.961 .0244443
1040.543 .0244366
1041.125 .0244291
1041.707 .0244218
1042.289 .0244146
1042.871 .0244076
1043.452 .0244007
1044.034 .0243939
1044.615 .0243871
1045.196 .0243804
1045.777 .0243736
1046.358 .0243670
1046.939 .0243604
1047.520 .0243540
1048.101 .0243477
1048.681 .0243415
1049.262 .0243356
1049.842 .0243298
1050.422 .0243242
1051.002 .0243187
1051.582 .0243133
1052.162 .0243079
1052.742 .0243026
1053.322 .0242973
1053.902 .0242922
1054.482 .0242873
1055.061 .0242827
1055.641 .0242785
1056.220 .0242748
1056.800 .0242714
1057.379 .0242684
1057.958 .0242656
1058.538 .0242631
1059.117 .0242607
1059.696 .0242583
1060.275 .0242560
1060.854 .0242538
1061.433 .0242518
1062.012 .0242502
1062.592 .0242490
1063.171 .0242482
1063.750 .0242479
1064.329 .0242480
1064.908 .0242485
1065.487 .0242492
1066.066 .0242500
1066.645 .0242508
1067.224 .0242517
1067.803 .0242525
1068.382 .0242534
1068.961 .0242543
1069.540 .0242554
1070.119 .0242567
1070.698 .0242581
1071.278 .0242597
1071.857 .0242615
1072.436 .0242634
1073.016 .0242654
1073.595 .0242676
1074.175 .0242699
1074.754 .0242723
1075.334 .0242750
1075.913 .0242780
1076.493 .0242814
1077.073 .0242851
1077.653 .0242894
1078.233 .0242941
1078.813 .0242994
1079.393 .0243052
1079.974 .0243115
1080.554 .0243183
1081.135 .0243254
1081.716 .0243328
1082.296 .0243404
1082.877 .0243482
1083.458 .0243562
1084.040 .0243642
1084.621 .0243724
1085.202 .0243808
1085.784 .0243895
1086.366 .0243984
1086.948 .0244075
1087.530 .0244167
1088.112 .0244259
1088.695 .0244350
1089.277 .0244438
1089.860 .0244520
1090.443 .0244598
1091.026 .0244669
1091.610 .0244733
1092.193 .0244791
1092.777 .0244843
1093.361 .0244890
1093.946 .0244931
1094.530 .0244965
1095.115 .0244994
1095.700 .0245015
1096.285 .0245028
1096.871 .0245033
1097.456 .0245032
1098.042 .0245026
1098.628 .0245015
1099.215 .0245004
1099.802 .0244994
1100.389 .0244986
1100.976 .0244982
1101.564 .0244984
1102.152 .0244989
1102.740 .0245000
1103.329 .0245015
1103.917 .0245035
1104.507 .0245060
1105.096 .0245092
1105.686 .0245131
1106.276 .0245179
1106.867 .0245236
1107.457 .0245302
1108.049 .0245376
1108.640 .0245457
1109.232 .0245544
1109.825 .0245635
1110.417 .0245730
1111.010 .0245825
1111.604 .0245923
1112.198 .0246021
1112.792 .0246121
1113.387 .0246222
1113.982 .0246326
1114.577 .0246431
1115.173 .0246538
1115.769 .0246646
1116.366 .0246755
1116.963 .0246864
1117.561 .0246975
1118.159 .0247089
1118.758 .0247206
1119.357 .0247331
1119.957 .0247465
1120.557 .0247608
1121.157 .0247762
1121.758 .0247926
1122.360 .0248100
1122.962 .0248284
1123.564 .0248475
1124.167 .0248527
1124.771 .0248725
1125.375 .0248931
1125.980 .0249145
1126.585 .0249368
1127.191 .0249599
1127.797 .0249839
1128.404 .0250084
1129.012 .0250335
1129.620 .0250588
1130.229 .0250844
1130.838 .0251098
1131.448 .0251350
1132.058 .0251597
1132.669 .0251991
1133.281 .0252235
1133.894 .0252472
1134.507 .0252681
1135.120 .0252880
1135.735 .0253087
1136.350 .0253363
1136.965 .0254530
1137.582 .0254603
1138.199 .0254640
1138.816 .0254641
1139.435 .0254589
1140.054 .0254498
1140.674 .0254407
1141.294 .0254403
1141.916 .0254303
1142.538 .0253714
1143.160 .0253716
1143.784 .0254209
1144.408 .0256450
1145.033 .0252035
