Measurement Sequence started on: 14-45-04-498
Integration time: 36
Scans to Average: 2 
>>>>>Begin Spectral Data<<<<<
433.946 .0694676
434.870 .0650660
435.793 .0573755
436.715 .0568501
437.635 .0552678
438.555 .0565414
439.473 .0555990
440.389 .0550164
441.305 .0547414
442.219 .0545017
443.132 .0551565
444.044 .0545163
444.954 .0542716
445.863 .0540459
446.771 .0538948
447.678 .0536691
448.584 .0534851
449.488 .0533243
450.391 .0531700
451.293 .0530205
452.194 .0528728
453.094 .0527263
453.992 .0525801
454.890 .0524343
455.786 .0522878
456.681 .0521404
457.575 .0519922
458.468 .0518442
459.360 .0516970
460.250 .0515515
461.140 .0514074
462.028 .0512647
462.915 .0511231
463.801 .0509831
464.687 .0508440
465.571 .0507066
466.454 .0505708
467.335 .0504374
468.216 .0503063
469.096 .0501777
469.975 .0500516
470.853 .0499277
471.729 .0498059
472.605 .0496865
473.479 .0495699
474.353 .0494568
475.226 .0493479
476.097 .0492442
476.968 .0491461
477.838 .0490544
478.706 .0489686
479.574 .0488887
480.441 .0488140
481.306 .0487440
482.171 .0486779
483.035 .0486152
483.898 .0485554
484.760 .0484982
485.621 .0484435
486.481 .0483910
487.340 .0483399
488.198 .0482901
489.055 .0482404
489.912 .0481902
490.767 .0481384
491.622 .0480505
492.476 .0479916
493.329 .0479296
494.180 .0478643
495.032 .0477960
495.882 .0477247
496.731 .0476507
497.580 .0475741
498.427 .0474952
499.274 .0474139
500.120 .0473689
500.965 .0472851
501.809 .0471994
502.653 .0471121
503.495 .0470235
504.337 .0469345
505.178 .0468452
506.018 .0467565
506.858 .0466686
507.696 .0465822
508.534 .0464970
509.371 .0464135
510.208 .0463311
511.043 .0462500
511.878 .0461701
512.712 .0460914
513.545 .0460137
514.377 .0459377
515.209 .0458636
516.040 .0457919
516.870 .0457225
517.699 .0456556
518.528 .0455904
519.356 .0455271
520.183 .0454647
521.010 .0454031
521.836 .0453417
522.661 .0452804
523.485 .0452189
524.309 .0451577
525.132 .0450967
525.954 .0450365
526.776 .0449775
527.597 .0449198
528.417 .0448631
529.237 .0448075
530.056 .0447524
530.874 .0446977
531.692 .0446429
532.508 .0445874
533.325 .0445308
534.140 .0444734
534.955 .0444156
535.770 .0443578
536.583 .0443005
537.397 .0442444
538.209 .0441897
539.021 .0441369
539.832 .0440859
540.643 .0440365
541.453 .0439886
542.262 .0439419
543.071 .0438959
543.879 .0438503
544.687 .0438051
545.494 .0437602
546.300 .0437159
547.106 .0436720
547.911 .0436284
548.716 .0435848
549.520 .0435414
550.323 .0434983
551.126 .0434549
551.929 .0434111
552.731 .0433667
553.532 .0433215
554.332 .0432751
555.133 .0432271
555.932 .0431771
556.731 .0431249
557.530 .0430704
558.328 .0430134
559.125 .0429539
559.922 .0428923
560.719 .0428287
561.515 .0427636
562.310 .0426973
563.105 .0426298
563.899 .0425613
564.693 .0424922
565.487 .0424225
566.280 .0423522
567.072 .0422814
567.864 .0422104
568.655 .0421394
569.446 .0420687
570.236 .0419985
571.026 .0419291
571.816 .0418610
572.605 .0417944
573.393 .0417294
574.181 .0416663
574.969 .0416053
575.756 .0415463
576.543 .0414892
577.329 .0414342
578.115 .0413809
578.900 .0413292
579.685 .0412794
580.469 .0412312
581.253 .0411847
582.036 .0411398
582.820 .0410967
583.602 .0410551
584.384 .0410152
585.166 .0409767
585.947 .0409394
586.728 .0409031
587.509 .0408677
588.289 .0408329
589.069 .0407985
589.848 .0407644
590.627 .0407305
591.405 .0406968
592.183 .0406633
592.961 .0406297
593.738 .0405963
594.515 .0405629
595.291 .0405296
596.067 .0404964
596.843 .0404634
597.618 .0404308
598.393 .0403835
599.167 .0403521
599.941 .0403212
600.715 .0402906
601.488 .0402603
602.261 .0402301
603.034 .0402001
603.806 .0401701
604.578 .0401404
605.349 .0401108
606.121 .0400816
606.891 .0400675
607.662 .0400388
608.432 .0400106
609.201 .0399827
609.971 .0399550
610.740 .0399274
611.508 .0398998
612.277 .0398720
613.045 .0398440
613.812 .0398158
614.579 .0397874
615.346 .0397587
616.113 .0397298
616.879 .0397007
617.645 .0396715
618.411 .0396422
619.176 .0396128
619.941 .0395833
620.705 .0395539
621.470 .0395243
622.233 .0394948
622.997 .0394650
623.760 .0394352
624.523 .0394051
625.286 .0393748
626.048 .0393442
626.810 .0393135
627.572 .0392827
628.333 .0392519
629.095 .0392211
629.855 .0391904
630.616 .0391598
631.376 .0391293
632.136 .0390987
632.895 .0390682
633.655 .0390375
634.414 .0390067
635.172 .0389758
635.931 .0389448
636.689 .0389136
637.447 .0388825
638.204 .0388513
638.962 .0388203
639.718 .0387895
640.475 .0387588
641.231 .0387285
641.988 .0386984
642.743 .0386686
643.499 .0386390
644.254 .0386097
645.009 .0385805
645.764 .0385516
646.518 .0385229
647.272 .0384945
648.026 .0384664
648.780 .0384386
649.533 .0384111
650.286 .0383839
651.039 .0383572
651.792 .0383307
652.544 .0383046
653.296 .0382788
654.048 .0382533
654.799 .0382281
655.550 .0382032
656.301 .0381785
657.052 .0381539
657.802 .0381295
658.552 .0381051
659.302 .0380806
660.052 .0380562
660.801 .0380318
661.550 .0380074
662.299 .0379831
663.048 .0379589
663.796 .0379348
664.544 .0379110
665.292 .0378874
666.040 .0378641
666.787 .0378410
667.534 .0378181
668.281 .0377955
669.028 .0377730
669.774 .0377506
670.521 .0377283
671.266 .0377061
672.012 .0376840
672.758 .0376620
673.503 .0376402
674.248 .0376186
674.992 .0375973
675.737 .0375763
676.481 .0375554
677.225 .0375346
677.969 .0375140
678.712 .0374933
679.455 .0374726
680.199 .0374518
680.941 .0374309
681.684 .0374099
682.426 .0373889
683.168 .0373678
683.910 .0373468
684.652 .0373259
685.393 .0373052
686.134 .0372847
686.875 .0372644
687.616 .0372444
688.356 .0372248
689.097 .0372055
689.837 .0371866
690.576 .0371680
691.316 .0371498
692.055 .0371319
692.794 .0371143
693.533 .0370969
694.272 .0370798
695.010 .0370629
695.748 .0370463
696.486 .0370299
697.224 .0370137
697.962 .0369978
698.699 .0369820
699.436 .0369664
700.173 .0369508
700.909 .0369352
701.646 .0369195
702.382 .0369036
703.118 .0368875
703.853 .0368711
704.589 .0368545
705.324 .0368375
706.059 .0368203
706.794 .0368027
707.529 .0367849
708.263 .0367667
708.997 .0367483
709.731 .0367297
710.465 .0367109
711.198 .0366918
711.931 .0366726
712.664 .0366532
713.397 .0366334
714.130 .0366134
714.862 .0365931
715.594 .0365724
716.326 .0365514
717.058 .0365300
717.789 .0365083
718.520 .0364863
719.251 .0364641
719.982 .0364418
720.713 .0364193
721.443 .0363968
722.173 .0363742
722.903 .0363515
723.633 .0363287
724.362 .0363059
725.091 .0362831
725.820 .0362604
726.549 .0362379
727.278 .0362157
728.006 .0361940
728.734 .0361728
729.462 .0361523
730.190 .0361324
730.917 .0361132
731.644 .0360947
732.371 .0360770
733.098 .0360600
733.825 .0360439
734.551 .0360286
735.277 .0360140
736.003 .0360002
736.728 .0359870
737.454 .0359743
738.179 .0359620
738.904 .0359500
739.629 .0359382
740.353 .0359266
741.077 .0359149
741.801 .0359031
742.525 .0358912
743.249 .0358790
743.972 .0358665
744.695 .0358535
745.418 .0358399
746.141 .0358257
746.863 .0358109
747.585 .0357953
748.307 .0357790
749.029 .0357620
749.750 .0357443
750.472 .0357260
751.193 .0357070
751.913 .0356876
752.634 .0356677
753.354 .0356477
754.074 .0356274
754.794 .0356071
755.514 .0355870
756.233 .0355669
756.952 .0355471
757.671 .0355275
758.390 .0355081
759.108 .0354890
759.826 .0354700
760.544 .0354513
761.262 .0354329
761.979 .0354148
762.697 .0353971
763.414 .0353798
764.130 .0353628
764.847 .0353462
765.563 .0353299
766.279 .0353138
766.995 .0352980
767.710 .0352822
768.426 .0352667
769.141 .0352512
769.855 .0352358
770.570 .0352206
771.284 .0352054
771.998 .0351903
772.712 .0351754
773.426 .0351605
774.139 .0351457
774.852 .0351310
775.565 .0351166
776.277 .0351023
776.990 .0350883
777.702 .0350746
778.414 .0350612
779.125 .0350482
779.836 .0350356
780.547 .0350233
781.258 .0350114
781.969 .0349998
782.679 .0349886
783.389 .0349729
784.099 .0349622
784.808 .0349517
785.517 .0349414
786.226 .0349312
786.935 .0349210
787.643 .0349108
788.352 .0349005
789.060 .0348902
789.767 .0348798
790.475 .0348693
791.182 .0348588
791.889 .0348528
792.595 .0348421
793.301 .0348311
794.008 .0348200
794.713 .0348086
795.419 .0347968
796.124 .0347845
796.829 .0347718
797.534 .0347585
798.238 .0347448
798.942 .0347306
799.646 .0347160
800.350 .0347010
801.053 .0346856
801.756 .0346698
802.459 .0346536
803.162 .0346371
803.864 .0346202
804.566 .0346029
805.267 .0345854
805.969 .0345677
806.670 .0345498
807.371 .0345319
808.071 .0345140
808.772 .0344962
809.472 .0344785
810.171 .0344608
810.871 .0344434
811.570 .0344261
812.269 .0344089
812.967 .0343920
813.666 .0343752
814.364 .0343586
815.061 .0343422
815.759 .0343259
816.456 .0343097
817.153 .0342936
817.849 .0342776
818.545 .0342615
819.241 .0342455
819.937 .0342294
820.632 .0342132
821.327 .0341969
822.022 .0341805
822.717 .0341639
823.411 .0341471
824.105 .0341301
824.798 .0341128
825.491 .0340951
826.184 .0340771
826.877 .0340586
827.569 .0340397
828.261 .0340204
828.953 .0340007
829.645 .0339806
830.336 .0339603
831.027 .0339397
831.717 .0339190
832.407 .0338983
833.097 .0338777
833.787 .0338572
834.476 .0338368
835.165 .0338167
835.854 .0337969
836.542 .0337774
837.230 .0337583
837.918 .0337397
838.605 .0337216
839.292 .0337041
839.979 .0336872
840.665 .0336708
841.352 .0336551
842.037 .0336400
842.723 .0336254
843.408 .0336114
844.093 .0335979
844.777 .0335848
845.462 .0335722
846.145 .0335601
846.829 .0335483
847.512 .0335368
848.195 .0335255
848.878 .0335144
849.560 .0335033
850.242 .0334923
850.923 .0334812
851.605 .0334701
852.286 .0334589
852.966 .0334478
853.646 .0334367
854.326 .0334256
855.006 .0334146
855.685 .0334035
856.364 .0333923
857.043 .0333810
857.721 .0333697
858.399 .0333582
859.077 .0333467
859.754 .0333351
860.431 .0333236
861.107 .0333121
861.784 .0333007
862.459 .0332893
863.135 .0332779
863.810 .0332665
864.485 .0332550
865.160 .0332435
865.834 .0332320
866.508 .0332205
867.181 .0332091
867.854 .0331977
868.527 .0331865
869.199 .0331754
869.872 .0331643
870.543 .0331533
871.215 .0331421
871.886 .0331309
872.557 .0331195
873.227 .0331081
873.897 .0330964
874.567 .0330847
875.236 .0330727
875.905 .0330606
876.573 .0330481
877.242 .0330354
877.909 .0330222
878.577 .0330085
879.244 .0329944
879.911 .0329797
880.577 .0329644
881.243 .0329487
881.909 .0329324
882.575 .0329156
883.240 .0328983
883.904 .0328805
884.569 .0328622
885.232 .0328435
885.896 .0328244
886.559 .0328050
887.222 .0327852
887.885 .0327652
888.547 .0327451
889.208 .0327249
889.870 .0327047
890.531 .0326848
891.192 .0326650
891.852 .0326455
892.512 .0326262
893.171 .0326072
893.830 .0325884
894.489 .0325700
895.148 .0325519
895.806 .0325341
896.464 .0325166
897.121 .0324996
897.778 .0324831
898.434 .0324670
899.091 .0324447
899.747 .0324295
900.402 .0324147
901.057 .0324001
901.712 .0323857
902.366 .0323714
903.020 .0323572
903.674 .0323431
904.327 .0323290
904.980 .0323149
905.633 .0323009
906.285 .0322869
906.936 .0322729
907.588 .0322654
908.239 .0322513
908.889 .0322370
909.540 .0322225
910.190 .0322078
910.839 .0321929
911.488 .0321778
912.137 .0321627
912.785 .0321475
913.433 .0321324
914.081 .0321175
914.728 .0321027
915.375 .0320881
916.021 .0320737
916.668 .0320593
917.313 .0320451
917.959 .0320311
918.604 .0320172
919.248 .0320034
919.892 .0319898
920.536 .0319764
921.180 .0319630
921.823 .0319496
922.465 .0319361
923.108 .0319224
923.750 .0319085
924.391 .0318942
925.032 .0318796
925.673 .0318648
926.313 .0318497
926.953 .0318343
927.593 .0318188
928.232 .0318030
928.871 .0317870
929.510 .0317708
930.148 .0317544
930.786 .0317378
931.423 .0317208
932.060 .0317036
932.697 .0316861
933.333 .0316683
933.969 .0316504
934.604 .0316323
935.239 .0316140
935.874 .0315956
936.508 .0315771
937.142 .0315585
937.776 .0315399
938.409 .0315212
939.042 .0315024
939.674 .0314837
940.306 .0314650
940.938 .0314463
941.569 .0314276
942.200 .0314090
942.830 .0313903
943.460 .0313717
944.090 .0313531
944.720 .0313345
945.349 .0313160
945.977 .0312975
946.606 .0312790
947.233 .0312605
947.861 .0312420
948.488 .0312234
949.115 .0312048
949.741 .0311861
950.367 .0311674
950.993 .0311487
951.618 .0311300
952.243 .0311114
952.868 .0310930
953.492 .0310747
954.115 .0310567
954.739 .0310388
955.362 .0310213
955.984 .0310039
956.607 .0309869
957.229 .0309701
957.850 .0309535
958.471 .0309373
959.092 .0309213
959.713 .0309056
960.333 .0308902
960.952 .0308750
961.572 .0308602
962.191 .0308455
962.809 .0308312
963.428 .0308171
964.045 .0308031
964.663 .0307894
965.280 .0307757
965.897 .0307620
966.513 .0307484
967.129 .0307346
967.745 .0307207
968.361 .0307067
968.976 .0306924
969.590 .0306779
970.205 .0306631
970.818 .0306481
971.432 .0306328
972.045 .0306171
972.658 .0306011
973.271 .0305848
973.883 .0305682
974.495 .0305513
975.106 .0305342
975.717 .0305169
976.328 .0304994
976.938 .0304818
977.548 .0304642
978.158 .0304465
978.768 .0304202
979.377 .0304028
979.985 .0303854
980.594 .0303681
981.202 .0303511
981.809 .0303342
982.417 .0303178
983.024 .0303017
983.631 .0302863
984.237 .0302714
984.843 .0302573
985.449 .0302439
986.054 .0302313
986.659 .0302195
987.264 .0302159
987.868 .0302051
988.472 .0301950
989.076 .0301853
989.679 .0301763
990.282 .0301677
990.885 .0301598
991.487 .0301524
992.090 .0301456
992.691 .0301393
993.293 .0301334
993.894 .0301279
994.495 .0301226
995.095 .0301175
995.696 .0301124
996.296 .0301075
996.895 .0301025
997.494 .0300977
998.093 .0300929
998.692 .0300883
999.291 .0300838
999.889 .0300794
1000.487 .0300750
1001.084 .0300705
1001.681 .0300659
1002.278 .0300610
1002.875 .0300557
1003.471 .0300501
1004.067 .0300440
1004.663 .0300374
1005.258 .0300305
1005.854 .0300232
1006.449 .0300156
1007.043 .0300078
1007.638 .0299998
1008.232 .0299918
1008.826 .0299837
1009.419 .0299757
1010.012 .0299679
1010.605 .0299603
1011.198 .0299532
1011.791 .0299466
1012.383 .0299405
1012.975 .0299351
1013.566 .0299304
1014.158 .0299264
1014.749 .0299232
1015.340 .0299206
1015.931 .0299188
1016.521 .0299176
1017.111 .0299170
1017.701 .0299169
1018.291 .0299175
1018.880 .0299186
1019.470 .0299202
1020.059 .0299223
1020.647 .0299251
1021.236 .0299283
1021.824 .0299322
1022.412 .0299367
1023.000 .0299418
1023.588 .0299475
1024.175 .0299538
1024.762 .0299606
1025.349 .0299679
1025.936 .0299756
1026.523 .0299836
1027.109 .0299919
1027.695 .0300003
1028.281 .0300089
1028.867 .0300175
1029.452 .0300260
1030.038 .0300345
1030.623 .0300429
1031.208 .0300511
1031.792 .0300590
1032.377 .0300667
1032.961 .0300740
1033.546 .0300810
1034.130 .0300877
1034.714 .0300939
1035.297 .0300997
1035.881 .0301050
1036.464 .0301098
1037.047 .0301140
1037.630 .0301178
1038.213 .0301210
1038.796 .0301237
1039.378 .0301260
1039.961 .0301280
1040.543 .0301295
1041.125 .0301308
1041.707 .0301319
1042.289 .0301326
1042.871 .0301331
1043.452 .0301333
1044.034 .0301332
1044.615 .0301330
1045.196 .0301325
1045.777 .0301319
1046.358 .0301313
1046.939 .0301309
1047.520 .0301305
1048.101 .0301303
1048.681 .0301303
1049.262 .0301306
1049.842 .0301309
1050.422 .0301314
1051.002 .0301320
1051.582 .0301327
1052.162 .0301335
1052.742 .0301345
1053.322 .0301356
1053.902 .0301369
1054.482 .0301383
1055.061 .0301399
1055.641 .0301417
1056.220 .0301435
1056.800 .0301453
1057.379 .0301471
1057.958 .0301488
1058.538 .0301502
1059.117 .0301514
1059.696 .0301523
1060.275 .0301528
1060.854 .0301529
1061.433 .0301527
1062.012 .0301522
1062.592 .0301514
1063.171 .0301505
1063.750 .0301494
1064.329 .0301482
1064.908 .0301468
1065.487 .0301453
1066.066 .0301437
1066.645 .0301420
1067.224 .0301402
1067.803 .0301383
1068.382 .0301363
1068.961 .0301342
1069.540 .0301320
1070.119 .0301295
1070.698 .0301268
1071.278 .0301236
1071.857 .0301199
1072.436 .0301155
1073.016 .0301103
1073.595 .0301043
1074.175 .0300976
1074.754 .0300901
1075.334 .0300819
1075.913 .0300731
1076.493 .0300639
1077.073 .0300541
1077.653 .0300439
1078.233 .0300333
1078.813 .0300222
1079.393 .0300106
1079.974 .0299985
1080.554 .0299860
1081.135 .0299732
1081.716 .0299600
1082.296 .0299466
1082.877 .0299329
1083.458 .0299190
1084.040 .0299049
1084.621 .0298907
1085.202 .0298764
1085.784 .0298622
1086.366 .0298483
1086.948 .0298347
1087.530 .0298218
1088.112 .0298096
1088.695 .0297983
1089.277 .0297881
1089.860 .0297788
1090.443 .0297702
1091.026 .0297623
1091.610 .0297551
1092.193 .0297483
1092.777 .0297420
1093.361 .0297362
1093.946 .0297309
1094.530 .0297261
1095.115 .0297217
1095.700 .0297177
1096.285 .0297139
1096.871 .0297102
1097.456 .0297064
1098.042 .0297024
1098.628 .0296982
1099.215 .0296940
1099.802 .0296900
1100.389 .0296862
1100.976 .0296829
1101.564 .0296801
1102.152 .0296779
1102.740 .0296762
1103.329 .0296748
1103.917 .0296736
1104.507 .0296725
1105.096 .0296714
1105.686 .0296701
1106.276 .0296689
1106.867 .0296679
1107.457 .0296673
1108.049 .0296674
1108.640 .0296683
1109.232 .0296700
1109.825 .0296728
1110.417 .0296765
1111.010 .0296813
1111.604 .0296870
1112.198 .0296938
1112.792 .0297016
1113.387 .0297107
1113.982 .0297212
1114.577 .0297332
1115.173 .0297469
1115.769 .0297623
1116.366 .0297793
1116.963 .0297976
1117.561 .0298170
1118.159 .0298371
1118.758 .0298575
1119.357 .0298781
1119.957 .0298986
1120.557 .0299190
1121.157 .0299394
1121.758 .0299601
1122.360 .0299811
1122.962 .0300028
1123.564 .0300253
1124.167 .0300364
1124.771 .0300603
1125.375 .0300851
1125.980 .0301110
1126.585 .0301380
1127.191 .0301665
1127.797 .0301965
1128.404 .0302282
1129.012 .0302620
1129.620 .0302980
1130.229 .0303365
1130.838 .0303775
1131.448 .0304210
1132.058 .0304671
1132.669 .0305326
1133.281 .0305834
1133.894 .0306369
1134.507 .0306934
1135.120 .0307554
1135.735 .0308137
1136.350 .0308725
1136.965 .0307827
1137.582 .0308685
1138.199 .0309590
1138.816 .0310557
1139.435 .0311566
1140.054 .0312626
1140.674 .0313674
1141.294 .0314687
1141.916 .0315853
1142.538 .0317054
1143.160 .0318872
1143.784 .0318109
1144.408 .0318393
1145.033 .0324830
