Measurement Sequence started on: 14-45-04-498
Integration time: 36
Scans to Average: 2 
>>>>>Begin Spectral Data<<<<<
433.946 .0392284
434.870 .0450386
435.793 .0434975
436.715 .0422227
437.635 .0399893
438.555 .0402992
439.473 .0398129
440.389 .0392164
441.305 .0387575
442.219 .0383964
443.132 .0391569
444.044 .0387634
444.954 .0384516
445.863 .0382075
446.771 .0380814
447.678 .0379392
448.584 .0378228
449.488 .0377377
450.391 .0376760
451.293 .0376323
452.194 .0376007
453.094 .0375784
453.992 .0375620
454.890 .0375488
455.786 .0375357
456.681 .0375210
457.575 .0375028
458.468 .0374799
459.360 .0374517
460.250 .0374183
461.140 .0373790
462.028 .0373347
462.915 .0372853
463.801 .0372315
464.687 .0371733
465.571 .0371115
466.454 .0370465
467.335 .0369791
468.216 .0369102
469.096 .0368402
469.975 .0367700
470.853 .0367005
471.729 .0366321
472.605 .0365659
473.479 .0365026
474.353 .0364425
475.226 .0363861
476.097 .0363338
476.968 .0362853
477.838 .0362406
478.706 .0361991
479.574 .0361606
480.441 .0361245
481.306 .0360903
482.171 .0360572
483.035 .0360247
483.898 .0359924
484.760 .0359599
485.621 .0359267
486.481 .0358930
487.340 .0358584
488.198 .0358232
489.055 .0357872
489.912 .0357504
490.767 .0357130
491.622 .0356544
492.476 .0356161
493.329 .0355774
494.180 .0355383
495.032 .0354990
495.882 .0354598
496.731 .0354210
497.580 .0353827
498.427 .0353451
499.274 .0353084
500.120 .0352920
500.965 .0352547
501.809 .0352167
502.653 .0351777
503.495 .0351372
504.337 .0350950
505.178 .0350510
506.018 .0350053
506.858 .0349582
507.696 .0349101
508.534 .0348612
509.371 .0348122
510.208 .0347635
511.043 .0347156
511.878 .0346688
512.712 .0346234
513.545 .0345796
514.377 .0345379
515.209 .0344987
516.040 .0344623
516.870 .0344288
517.699 .0343984
518.528 .0343714
519.356 .0343480
520.183 .0343283
521.010 .0343119
521.836 .0342982
522.661 .0342868
523.485 .0342769
524.309 .0342676
525.132 .0342580
525.954 .0342474
526.776 .0342352
527.597 .0342209
528.417 .0342036
529.237 .0341834
530.056 .0341605
530.874 .0341350
531.692 .0341066
532.508 .0340753
533.325 .0340409
534.140 .0340034
534.955 .0339626
535.770 .0339185
536.583 .0338709
537.397 .0338201
538.209 .0337665
539.021 .0337109
539.832 .0336542
540.643 .0335973
541.453 .0335410
542.262 .0334863
543.071 .0334333
543.879 .0333823
544.687 .0333334
545.494 .0332869
546.300 .0332425
547.106 .0331996
547.911 .0331577
548.716 .0331170
549.520 .0330774
550.323 .0330392
551.126 .0330024
551.929 .0329676
552.731 .0329351
553.532 .0329049
554.332 .0328771
555.133 .0328515
555.932 .0328280
556.731 .0328058
557.530 .0327845
558.328 .0327637
559.125 .0327428
559.922 .0327218
560.719 .0327004
561.515 .0326785
562.310 .0326558
563.105 .0326322
563.899 .0326075
564.693 .0325818
565.487 .0325549
566.280 .0325269
567.072 .0324979
567.864 .0324679
568.655 .0324372
569.446 .0324059
570.236 .0323745
571.026 .0323429
571.816 .0323114
572.605 .0322800
573.393 .0322487
574.181 .0322174
574.969 .0321863
575.756 .0321551
576.543 .0321242
577.329 .0320935
578.115 .0320634
578.900 .0320340
579.685 .0320054
580.469 .0319777
581.253 .0319507
582.036 .0319243
582.820 .0318983
583.602 .0318726
584.384 .0318470
585.166 .0318213
585.947 .0317955
586.728 .0317697
587.509 .0317440
588.289 .0317188
589.069 .0316942
589.848 .0316704
590.627 .0316473
591.405 .0316251
592.183 .0316038
592.961 .0315831
593.738 .0315630
594.515 .0315434
595.291 .0315243
596.067 .0315058
596.843 .0314877
597.618 .0314704
598.393 .0314465
599.167 .0314304
599.941 .0314147
600.715 .0313993
601.488 .0313840
602.261 .0313686
603.034 .0313531
603.806 .0313372
604.578 .0313208
605.349 .0313037
606.121 .0312860
606.891 .0312754
607.662 .0312567
608.432 .0312374
609.201 .0312177
609.971 .0311975
610.740 .0311770
611.508 .0311562
612.277 .0311353
613.045 .0311143
613.812 .0310932
614.579 .0310722
615.346 .0310511
616.113 .0310301
616.879 .0310093
617.645 .0309888
618.411 .0309686
619.176 .0309488
619.941 .0309295
620.705 .0309107
621.470 .0308925
622.233 .0308748
622.997 .0308577
623.760 .0308413
624.523 .0308254
625.286 .0308101
626.048 .0307952
626.810 .0307809
627.572 .0307669
628.333 .0307534
629.095 .0307402
629.855 .0307273
630.616 .0307146
631.376 .0307022
632.136 .0306899
632.895 .0306778
633.655 .0306657
634.414 .0306535
635.172 .0306410
635.931 .0306283
636.689 .0306152
637.447 .0306016
638.204 .0305875
638.962 .0305730
639.718 .0305580
640.475 .0305426
641.231 .0305268
641.988 .0305107
642.743 .0304943
643.499 .0304775
644.254 .0304604
645.009 .0304430
645.764 .0304253
646.518 .0304074
647.272 .0303892
648.026 .0303711
648.780 .0303529
649.533 .0303349
650.286 .0303170
651.039 .0302995
651.792 .0302824
652.544 .0302658
653.296 .0302496
654.048 .0302339
654.799 .0302187
655.550 .0302039
656.301 .0301895
657.052 .0301756
657.802 .0301621
658.552 .0301489
659.302 .0301362
660.052 .0301239
660.801 .0301120
661.550 .0301004
662.299 .0300891
663.048 .0300780
663.796 .0300671
664.544 .0300561
665.292 .0300451
666.040 .0300340
666.787 .0300227
667.534 .0300112
668.281 .0299997
669.028 .0299881
669.774 .0299766
670.521 .0299650
671.266 .0299535
672.012 .0299420
672.758 .0299306
673.503 .0299193
674.248 .0299081
674.992 .0298969
675.737 .0298858
676.481 .0298747
677.225 .0298637
677.969 .0298529
678.712 .0298421
679.455 .0298315
680.199 .0298210
680.941 .0298106
681.684 .0298004
682.426 .0297902
683.168 .0297800
683.910 .0297699
684.652 .0297596
685.393 .0297492
686.134 .0297387
686.875 .0297279
687.616 .0297170
688.356 .0297059
689.097 .0296947
689.837 .0296834
690.576 .0296720
691.316 .0296607
692.055 .0296492
692.794 .0296378
693.533 .0296262
694.272 .0296145
695.010 .0296027
695.748 .0295908
696.486 .0295789
697.224 .0295668
697.962 .0295547
698.699 .0295427
699.436 .0295306
700.173 .0295186
700.909 .0295066
701.646 .0294945
702.382 .0294825
703.118 .0294705
703.853 .0294583
704.589 .0294461
705.324 .0294338
706.059 .0294213
706.794 .0294088
707.529 .0293962
708.263 .0293835
708.997 .0293707
709.731 .0293580
710.465 .0293452
711.198 .0293325
711.931 .0293197
712.664 .0293068
713.397 .0292939
714.130 .0292809
714.862 .0292677
715.594 .0292545
716.326 .0292411
717.058 .0292277
717.789 .0292142
718.520 .0292008
719.251 .0291874
719.982 .0291742
720.713 .0291610
721.443 .0291479
722.173 .0291350
722.903 .0291222
723.633 .0291094
724.362 .0290966
725.091 .0290839
725.820 .0290712
726.549 .0290585
727.278 .0290458
728.006 .0290331
728.734 .0290205
729.462 .0290078
730.190 .0289953
730.917 .0289828
731.644 .0289704
732.371 .0289581
733.098 .0289458
733.825 .0289337
734.551 .0289216
735.277 .0289095
736.003 .0288974
736.728 .0288854
737.454 .0288735
738.179 .0288617
738.904 .0288501
739.629 .0288388
740.353 .0288277
741.077 .0288168
741.801 .0288061
742.525 .0287957
743.249 .0287854
743.972 .0287752
744.695 .0287652
745.418 .0287554
746.141 .0287457
746.863 .0287362
747.585 .0287268
748.307 .0287177
749.029 .0287087
749.750 .0286999
750.472 .0286912
751.193 .0286826
751.913 .0286741
752.634 .0286656
753.354 .0286572
754.074 .0286489
754.794 .0286405
755.514 .0286322
756.233 .0286239
756.952 .0286156
757.671 .0286073
758.390 .0285990
759.108 .0285908
759.826 .0285825
760.544 .0285744
761.262 .0285664
761.979 .0285585
762.697 .0285506
763.414 .0285429
764.130 .0285352
764.847 .0285274
765.563 .0285196
766.279 .0285118
766.995 .0285039
767.710 .0284959
768.426 .0284879
769.141 .0284799
769.855 .0284718
770.570 .0284636
771.284 .0284554
771.998 .0284472
772.712 .0284390
773.426 .0284306
774.139 .0284222
774.852 .0284137
775.565 .0284052
776.277 .0283966
776.990 .0283879
777.702 .0283792
778.414 .0283704
779.125 .0283616
779.836 .0283527
780.547 .0283439
781.258 .0283350
781.969 .0283261
782.679 .0283171
783.389 .0283037
784.099 .0282946
784.808 .0282855
785.517 .0282763
786.226 .0282670
786.935 .0282575
787.643 .0282480
788.352 .0282383
789.060 .0282285
789.767 .0282186
790.475 .0282085
791.182 .0281983
791.889 .0281927
792.595 .0281823
793.301 .0281717
794.008 .0281609
794.713 .0281499
795.419 .0281387
796.124 .0281273
796.829 .0281157
797.534 .0281038
798.238 .0280917
798.942 .0280794
799.646 .0280670
800.350 .0280545
801.053 .0280418
801.756 .0280292
802.459 .0280166
803.162 .0280040
803.864 .0279915
804.566 .0279791
805.267 .0279667
805.969 .0279544
806.670 .0279422
807.371 .0279300
808.071 .0279178
808.772 .0279057
809.472 .0278937
810.171 .0278817
810.871 .0278699
811.570 .0278581
812.269 .0278465
812.967 .0278349
813.666 .0278235
814.364 .0278120
815.061 .0278006
815.759 .0277892
816.456 .0277779
817.153 .0277666
817.849 .0277553
818.545 .0277442
819.241 .0277333
819.937 .0277226
820.632 .0277121
821.327 .0277019
822.022 .0276920
822.717 .0276823
823.411 .0276730
824.105 .0276639
824.798 .0276552
825.491 .0276468
826.184 .0276387
826.877 .0276309
827.569 .0276234
828.261 .0276163
828.953 .0276095
829.645 .0276030
830.336 .0275967
831.027 .0275908
831.717 .0275851
832.407 .0275797
833.097 .0275745
833.787 .0275695
834.476 .0275647
835.165 .0275601
835.854 .0275555
836.542 .0275508
837.230 .0275461
837.918 .0275412
838.605 .0275361
839.292 .0275307
839.979 .0275250
840.665 .0275191
841.352 .0275130
842.037 .0275066
842.723 .0274999
843.408 .0274929
844.093 .0274856
844.777 .0274779
845.462 .0274698
846.145 .0274613
846.829 .0274524
847.512 .0274431
848.195 .0274334
848.878 .0274235
849.560 .0274132
850.242 .0274026
850.923 .0273918
851.605 .0273807
852.286 .0273692
852.966 .0273574
853.646 .0273452
854.326 .0273326
855.006 .0273196
855.685 .0273062
856.364 .0272924
857.043 .0272784
857.721 .0272640
858.399 .0272494
859.077 .0272346
859.754 .0272197
860.431 .0272047
861.107 .0271896
861.784 .0271744
862.459 .0271593
863.135 .0271441
863.810 .0271289
864.485 .0271138
865.160 .0270986
865.834 .0270833
866.508 .0270681
867.181 .0270528
867.854 .0270376
868.527 .0270223
869.199 .0270071
869.872 .0269919
870.543 .0269768
871.215 .0269618
871.886 .0269469
872.557 .0269322
873.227 .0269177
873.897 .0269033
874.567 .0268890
875.236 .0268749
875.905 .0268608
876.573 .0268468
877.242 .0268328
877.909 .0268189
878.577 .0268050
879.244 .0267912
879.911 .0267775
880.577 .0267641
881.243 .0267508
881.909 .0267378
882.575 .0267250
883.240 .0267123
883.904 .0266998
884.569 .0266874
885.232 .0266753
885.896 .0266635
886.559 .0266521
887.222 .0266412
887.885 .0266307
888.547 .0266207
889.208 .0266113
889.870 .0266024
890.531 .0265939
891.192 .0265860
891.852 .0265784
892.512 .0265714
893.171 .0265647
893.830 .0265585
894.489 .0265527
895.148 .0265472
895.806 .0265419
896.464 .0265369
897.121 .0265321
897.778 .0265274
898.434 .0265229
899.091 .0265169
899.747 .0265127
900.402 .0265087
901.057 .0265049
901.712 .0265013
902.366 .0264977
903.020 .0264941
903.674 .0264904
904.327 .0264865
904.980 .0264824
905.633 .0264781
906.285 .0264736
906.936 .0264688
907.588 .0264659
908.239 .0264608
908.889 .0264556
909.540 .0264501
910.190 .0264445
910.839 .0264386
911.488 .0264325
912.137 .0264263
912.785 .0264198
913.433 .0264131
914.081 .0264062
914.728 .0263992
915.375 .0263920
916.021 .0263846
916.668 .0263771
917.313 .0263695
917.959 .0263618
918.604 .0263539
919.248 .0263459
919.892 .0263377
920.536 .0263294
921.180 .0263208
921.823 .0263119
922.465 .0263027
923.108 .0262932
923.750 .0262833
924.391 .0262731
925.032 .0262626
925.673 .0262517
926.313 .0262406
926.953 .0262292
927.593 .0262174
928.232 .0262054
928.871 .0261930
929.510 .0261803
930.148 .0261672
930.786 .0261538
931.423 .0261399
932.060 .0261258
932.697 .0261112
933.333 .0260964
933.969 .0260812
934.604 .0260658
935.239 .0260499
935.874 .0260337
936.508 .0260171
937.142 .0260002
937.776 .0259830
938.409 .0259655
939.042 .0259479
939.674 .0259302
940.306 .0259124
940.938 .0258945
941.569 .0258766
942.200 .0258585
942.830 .0258404
943.460 .0258221
944.090 .0258037
944.720 .0257852
945.349 .0257667
945.977 .0257481
946.606 .0257295
947.233 .0257110
947.861 .0256925
948.488 .0256741
949.115 .0256558
949.741 .0256374
950.367 .0256190
950.993 .0256007
951.618 .0255823
952.243 .0255640
952.868 .0255457
953.492 .0255276
954.115 .0255095
954.739 .0254917
955.362 .0254739
955.984 .0254564
956.607 .0254390
957.229 .0254219
957.850 .0254050
958.471 .0253883
959.092 .0253720
959.713 .0253559
960.333 .0253401
960.952 .0253245
961.572 .0253093
962.191 .0252943
962.809 .0252796
963.428 .0252652
964.045 .0252510
964.663 .0252370
965.280 .0252233
965.897 .0252099
966.513 .0251966
967.129 .0251835
967.745 .0251706
968.361 .0251579
968.976 .0251453
969.590 .0251328
970.205 .0251206
970.818 .0251086
971.432 .0250968
972.045 .0250854
972.658 .0250742
973.271 .0250632
973.883 .0250526
974.495 .0250421
975.106 .0250319
975.717 .0250220
976.328 .0250123
976.938 .0250029
977.548 .0249939
978.158 .0249851
978.768 .0249735
979.377 .0249655
979.985 .0249578
980.594 .0249504
981.202 .0249432
981.809 .0249364
982.417 .0249300
983.024 .0249240
983.631 .0249185
984.237 .0249134
984.843 .0249088
985.449 .0249048
986.054 .0249012
986.659 .0248982
987.264 .0248976
987.868 .0248952
988.472 .0248933
989.076 .0248918
989.679 .0248906
990.282 .0248896
990.885 .0248890
991.487 .0248885
992.090 .0248882
992.691 .0248880
993.293 .0248879
993.894 .0248878
994.495 .0248879
995.095 .0248879
995.696 .0248880
996.296 .0248881
996.895 .0248882
997.494 .0248883
998.093 .0248886
998.692 .0248888
999.291 .0248892
999.889 .0248897
1000.487 .0248903
1001.084 .0248909
1001.681 .0248917
1002.278 .0248926
1002.875 .0248935
1003.471 .0248945
1004.067 .0248955
1004.663 .0248966
1005.258 .0248977
1005.854 .0248988
1006.449 .0249000
1007.043 .0249012
1007.638 .0249026
1008.232 .0249041
1008.826 .0249056
1009.419 .0249073
1010.012 .0249091
1010.605 .0249110
1011.198 .0249130
1011.791 .0249152
1012.383 .0249175
1012.975 .0249201
1013.566 .0249228
1014.158 .0249258
1014.749 .0249290
1015.340 .0249323
1015.931 .0249358
1016.521 .0249394
1017.111 .0249431
1017.701 .0249467
1018.291 .0249504
1018.880 .0249542
1019.470 .0249579
1020.059 .0249616
1020.647 .0249652
1021.236 .0249687
1021.824 .0249720
1022.412 .0249750
1023.000 .0249777
1023.588 .0249802
1024.175 .0249824
1024.762 .0249843
1025.349 .0249860
1025.936 .0249876
1026.523 .0249890
1027.109 .0249904
1027.695 .0249917
1028.281 .0249929
1028.867 .0249941
1029.452 .0249952
1030.038 .0249962
1030.623 .0249974
1031.208 .0249987
1031.792 .0250003
1032.377 .0250020
1032.961 .0250040
1033.546 .0250061
1034.130 .0250083
1034.714 .0250105
1035.297 .0250126
1035.881 .0250146
1036.464 .0250164
1037.047 .0250181
1037.630 .0250197
1038.213 .0250212
1038.796 .0250226
1039.378 .0250240
1039.961 .0250253
1040.543 .0250265
1041.125 .0250274
1041.707 .0250280
1042.289 .0250283
1042.871 .0250282
1043.452 .0250277
1044.034 .0250268
1044.615 .0250257
1045.196 .0250243
1045.777 .0250227
1046.358 .0250207
1046.939 .0250184
1047.520 .0250154
1048.101 .0250119
1048.681 .0250076
1049.262 .0250025
1049.842 .0249967
1050.422 .0249901
1051.002 .0249829
1051.582 .0249752
1052.162 .0249671
1052.742 .0249587
1053.322 .0249501
1053.902 .0249413
1054.482 .0249324
1055.061 .0249234
1055.641 .0249144
1056.220 .0249055
1056.800 .0248966
1057.379 .0248878
1057.958 .0248792
1058.538 .0248708
1059.117 .0248626
1059.696 .0248545
1060.275 .0248464
1060.854 .0248383
1061.433 .0248302
1062.012 .0248218
1062.592 .0248132
1063.171 .0248043
1063.750 .0247950
1064.329 .0247854
1064.908 .0247754
1065.487 .0247651
1066.066 .0247545
1066.645 .0247438
1067.224 .0247329
1067.803 .0247220
1068.382 .0247111
1068.961 .0247002
1069.540 .0246894
1070.119 .0246787
1070.698 .0246681
1071.278 .0246577
1071.857 .0246473
1072.436 .0246372
1073.016 .0246272
1073.595 .0246175
1074.175 .0246082
1074.754 .0245993
1075.334 .0245908
1075.913 .0245827
1076.493 .0245751
1077.073 .0245680
1077.653 .0245613
1078.233 .0245550
1078.813 .0245492
1079.393 .0245437
1079.974 .0245388
1080.554 .0245346
1081.135 .0245310
1081.716 .0245281
1082.296 .0245259
1082.877 .0245244
1083.458 .0245235
1084.040 .0245231
1084.621 .0245231
1085.202 .0245235
1085.784 .0245241
1086.366 .0245248
1086.948 .0245256
1087.530 .0245264
1088.112 .0245271
1088.695 .0245277
1089.277 .0245280
1089.860 .0245282
1090.443 .0245280
1091.026 .0245274
1091.610 .0245264
1092.193 .0245250
1092.777 .0245231
1093.361 .0245209
1093.946 .0245182
1094.530 .0245150
1095.115 .0245113
1095.700 .0245072
1096.285 .0245027
1096.871 .0244980
1097.456 .0244931
1098.042 .0244883
1098.628 .0244834
1099.215 .0244787
1099.802 .0244741
1100.389 .0244697
1100.976 .0244655
1101.564 .0244615
1102.152 .0244578
1102.740 .0244543
1103.329 .0244514
1103.917 .0244490
1104.507 .0244473
1105.096 .0244465
1105.686 .0244465
1106.276 .0244473
1106.867 .0244490
1107.457 .0244514
1108.049 .0244544
1108.640 .0244580
1109.232 .0244620
1109.825 .0244665
1110.417 .0244717
1111.010 .0244776
1111.604 .0244845
1112.198 .0244926
1112.792 .0245019
1113.387 .0245124
1113.982 .0245239
1114.577 .0245364
1115.173 .0245496
1115.769 .0245633
1116.366 .0245774
1116.963 .0245920
1117.561 .0246073
1118.159 .0246232
1118.758 .0246401
1119.357 .0246580
1119.957 .0246769
1120.557 .0246968
1121.157 .0247176
1121.758 .0247390
1122.360 .0247607
1122.962 .0247825
1123.564 .0248042
1124.167 .0248133
1124.771 .0248351
1125.375 .0248571
1125.980 .0248795
1126.585 .0249025
1127.191 .0249263
1127.797 .0249511
1128.404 .0249767
1129.012 .0250032
1129.620 .0250306
1130.229 .0250586
1130.838 .0250870
1131.448 .0251161
1132.058 .0251459
1132.669 .0251909
1133.281 .0252232
1133.894 .0252568
1134.507 .0252932
1135.120 .0253313
1135.735 .0253705
1136.350 .0253980
1136.965 .0253897
1137.582 .0254327
1138.199 .0254742
1138.816 .0255111
1139.435 .0255510
1140.054 .0255938
1140.674 .0256415
1141.294 .0256816
1141.916 .0257380
1142.538 .0258320
1143.160 .0259079
1143.784 .0259686
1144.408 .0256862
1145.033 .0262314
