Measurement Sequence started on: 14-45-04-498
Integration time: 36
Scans to Average: 2 
>>>>>Begin Spectral Data<<<<<
433.946 .0582779
434.870 .0505241
435.793 .0496641
436.715 .0506554
437.635 .0498939
438.555 .0499730
439.473 .0495441
440.389 .0493939
441.305 .0492604
442.219 .0490899
443.132 .0491514
444.044 .0490373
444.954 .0489641
445.863 .0488336
446.771 .0487378
447.678 .0486326
448.584 .0485447
449.488 .0484602
450.391 .0483785
451.293 .0483014
452.194 .0482275
453.094 .0481547
453.992 .0480833
454.890 .0480121
455.786 .0479384
456.681 .0478611
457.575 .0477792
458.468 .0476929
459.360 .0476032
460.250 .0475110
461.140 .0474174
462.028 .0473239
462.915 .0472314
463.801 .0471401
464.687 .0470498
465.571 .0469607
466.454 .0468723
467.335 .0467842
468.216 .0466964
469.096 .0466091
469.975 .0465228
470.853 .0464376
471.729 .0463540
472.605 .0462726
473.479 .0461939
474.353 .0461183
475.226 .0460458
476.097 .0459768
476.968 .0459107
477.838 .0458474
478.706 .0457864
479.574 .0457275
480.441 .0456707
481.306 .0456159
482.171 .0455635
483.035 .0455135
483.898 .0454664
484.760 .0454220
485.621 .0453804
486.481 .0453412
487.340 .0453037
488.198 .0452666
489.055 .0452289
489.912 .0451897
490.767 .0451485
491.622 .0450789
492.476 .0450340
493.329 .0449888
494.180 .0449436
495.032 .0448986
495.882 .0448535
496.731 .0448080
497.580 .0447615
498.427 .0447132
499.274 .0446626
500.120 .0446344
500.965 .0445803
501.809 .0445242
502.653 .0444670
503.495 .0444091
504.337 .0443510
505.178 .0442935
506.018 .0442364
506.858 .0441795
507.696 .0441227
508.534 .0440659
509.371 .0440086
510.208 .0439504
511.043 .0438915
511.878 .0438324
512.712 .0437740
513.545 .0437169
514.377 .0436616
515.209 .0436086
516.040 .0435579
516.870 .0435090
517.699 .0434614
518.528 .0434145
519.356 .0433679
520.183 .0433208
521.010 .0432732
521.836 .0432251
522.661 .0431766
523.485 .0431283
524.309 .0430804
525.132 .0430328
525.954 .0429852
526.776 .0429369
527.597 .0428872
528.417 .0428355
529.237 .0427815
530.056 .0427250
530.874 .0426661
531.692 .0426055
532.508 .0425435
533.325 .0424807
534.140 .0424177
534.955 .0423549
535.770 .0422927
536.583 .0422311
537.397 .0421704
538.209 .0421107
539.021 .0420526
539.832 .0419961
540.643 .0419418
541.453 .0418900
542.262 .0418411
543.071 .0417952
543.879 .0417526
544.687 .0417132
545.494 .0416771
546.300 .0416435
547.106 .0416118
547.911 .0415814
548.716 .0415515
549.520 .0415219
550.323 .0414925
551.126 .0414635
551.929 .0414353
552.731 .0414083
553.532 .0413828
554.332 .0413587
555.133 .0413361
555.932 .0413146
556.731 .0412944
557.530 .0412750
558.328 .0412561
559.125 .0412378
559.922 .0412202
560.719 .0412031
561.515 .0411867
562.310 .0411708
563.105 .0411554
563.899 .0411401
564.693 .0411247
565.487 .0411086
566.280 .0410919
567.072 .0410743
567.864 .0410557
568.655 .0410356
569.446 .0410139
570.236 .0409901
571.026 .0409641
571.816 .0409357
572.605 .0409050
573.393 .0408718
574.181 .0408362
574.969 .0407985
575.756 .0407589
576.543 .0407176
577.329 .0406749
578.115 .0406312
578.900 .0405867
579.685 .0405415
580.469 .0404961
581.253 .0404508
582.036 .0404061
582.820 .0403622
583.602 .0403193
584.384 .0402776
585.166 .0402371
585.947 .0401977
586.728 .0401597
587.509 .0401229
588.289 .0400872
589.069 .0400526
589.848 .0400189
590.627 .0399857
591.405 .0399530
592.183 .0399206
592.961 .0398882
593.738 .0398559
594.515 .0398235
595.291 .0397912
596.067 .0397591
596.843 .0397272
597.618 .0396958
598.393 .0396498
599.167 .0396195
599.941 .0395895
600.715 .0395599
601.488 .0395306
602.261 .0395016
603.034 .0394730
603.806 .0394449
604.578 .0394172
605.349 .0393900
606.121 .0393632
606.891 .0393511
607.662 .0393250
608.432 .0392993
609.201 .0392740
609.971 .0392489
610.740 .0392241
611.508 .0391994
612.277 .0391749
613.045 .0391505
613.812 .0391261
614.579 .0391017
615.346 .0390773
616.113 .0390527
616.879 .0390280
617.645 .0390031
618.411 .0389780
619.176 .0389527
619.941 .0389270
620.705 .0389011
621.470 .0388748
622.233 .0388483
622.997 .0388214
623.760 .0387942
624.523 .0387666
625.286 .0387387
626.048 .0387104
626.810 .0386819
627.572 .0386531
628.333 .0386240
629.095 .0385948
629.855 .0385653
630.616 .0385358
631.376 .0385063
632.136 .0384768
632.895 .0384474
633.655 .0384180
634.414 .0383889
635.172 .0383598
635.931 .0383309
636.689 .0383022
637.447 .0382735
638.204 .0382450
638.962 .0382166
639.718 .0381883
640.475 .0381602
641.231 .0381321
641.988 .0381042
642.743 .0380763
643.499 .0380484
644.254 .0380207
645.009 .0379930
645.764 .0379655
646.518 .0379381
647.272 .0379110
648.026 .0378842
648.780 .0378578
649.533 .0378319
650.286 .0378064
651.039 .0377815
651.792 .0377572
652.544 .0377335
653.296 .0377107
654.048 .0376886
654.799 .0376675
655.550 .0376474
656.301 .0376283
657.052 .0376102
657.802 .0375931
658.552 .0375770
659.302 .0375619
660.052 .0375477
660.801 .0375344
661.550 .0375220
662.299 .0375103
663.048 .0374993
663.796 .0374888
664.544 .0374787
665.292 .0374689
666.040 .0374591
666.787 .0374493
667.534 .0374393
668.281 .0374290
669.028 .0374183
669.774 .0374071
670.521 .0373954
671.266 .0373830
672.012 .0373699
672.758 .0373561
673.503 .0373415
674.248 .0373261
674.992 .0373099
675.737 .0372929
676.481 .0372751
677.225 .0372566
677.969 .0372372
678.712 .0372172
679.455 .0371967
680.199 .0371756
680.941 .0371540
681.684 .0371321
682.426 .0371099
683.168 .0370875
683.910 .0370648
684.652 .0370420
685.393 .0370190
686.134 .0369959
686.875 .0369728
687.616 .0369497
688.356 .0369267
689.097 .0369038
689.837 .0368811
690.576 .0368587
691.316 .0368365
692.055 .0368146
692.794 .0367931
693.533 .0367720
694.272 .0367514
695.010 .0367312
695.748 .0367116
696.486 .0366924
697.224 .0366736
697.962 .0366551
698.699 .0366370
699.436 .0366192
700.173 .0366016
700.909 .0365843
701.646 .0365673
702.382 .0365505
703.118 .0365340
703.853 .0365177
704.589 .0365015
705.324 .0364853
706.059 .0364690
706.794 .0364526
707.529 .0364361
708.263 .0364194
708.997 .0364025
709.731 .0363856
710.465 .0363687
711.198 .0363517
711.931 .0363346
712.664 .0363175
713.397 .0363003
714.130 .0362830
714.862 .0362656
715.594 .0362481
716.326 .0362306
717.058 .0362129
717.789 .0361952
718.520 .0361775
719.251 .0361597
719.982 .0361418
720.713 .0361239
721.443 .0361058
722.173 .0360876
722.903 .0360692
723.633 .0360507
724.362 .0360321
725.091 .0360133
725.820 .0359944
726.549 .0359753
727.278 .0359560
728.006 .0359365
728.734 .0359168
729.462 .0358970
730.190 .0358770
730.917 .0358568
731.644 .0358365
732.371 .0358162
733.098 .0357958
733.825 .0357755
734.551 .0357551
735.277 .0357347
736.003 .0357143
736.728 .0356938
737.454 .0356734
738.179 .0356531
738.904 .0356329
739.629 .0356128
740.353 .0355930
741.077 .0355732
741.801 .0355537
742.525 .0355342
743.249 .0355147
743.972 .0354952
744.695 .0354755
745.418 .0354556
746.141 .0354355
746.863 .0354150
747.585 .0353943
748.307 .0353733
749.029 .0353521
749.750 .0353307
750.472 .0353090
751.193 .0352873
751.913 .0352655
752.634 .0352437
753.354 .0352219
754.074 .0352003
754.794 .0351787
755.514 .0351574
756.233 .0351363
756.952 .0351155
757.671 .0350951
758.390 .0350751
759.108 .0350557
759.826 .0350370
760.544 .0350189
761.262 .0350016
761.979 .0349850
762.697 .0349693
763.414 .0349542
764.130 .0349397
764.847 .0349257
765.563 .0349122
766.279 .0348990
766.995 .0348862
767.710 .0348736
768.426 .0348612
769.141 .0348490
769.855 .0348369
770.570 .0348247
771.284 .0348126
771.998 .0348003
772.712 .0347877
773.426 .0347748
774.139 .0347616
774.852 .0347479
775.565 .0347338
776.277 .0347193
776.990 .0347045
777.702 .0346893
778.414 .0346740
779.125 .0346585
779.836 .0346430
780.547 .0346276
781.258 .0346124
781.969 .0345974
782.679 .0345826
783.389 .0345614
784.099 .0345471
784.808 .0345329
785.517 .0345188
786.226 .0345047
786.935 .0344906
787.643 .0344767
788.352 .0344629
789.060 .0344493
789.767 .0344358
790.475 .0344225
791.182 .0344092
791.889 .0344022
792.595 .0343886
793.301 .0343748
794.008 .0343607
794.713 .0343464
795.419 .0343318
796.124 .0343169
796.829 .0343017
797.534 .0342861
798.238 .0342700
798.942 .0342536
799.646 .0342367
800.350 .0342193
801.053 .0342014
801.756 .0341832
802.459 .0341646
803.162 .0341457
803.864 .0341265
804.566 .0341071
805.267 .0340875
805.969 .0340677
806.670 .0340477
807.371 .0340277
808.071 .0340075
808.772 .0339874
809.472 .0339673
810.171 .0339473
810.871 .0339273
811.570 .0339075
812.269 .0338877
812.967 .0338679
813.666 .0338481
814.364 .0338281
815.061 .0338079
815.759 .0337877
816.456 .0337673
817.153 .0337469
817.849 .0337265
818.545 .0337062
819.241 .0336858
819.937 .0336655
820.632 .0336451
821.327 .0336247
822.022 .0336043
822.717 .0335839
823.411 .0335634
824.105 .0335429
824.798 .0335224
825.491 .0335020
826.184 .0334816
826.877 .0334614
827.569 .0334412
828.261 .0334212
828.953 .0334013
829.645 .0333816
830.336 .0333622
831.027 .0333431
831.717 .0333244
832.407 .0333061
833.097 .0332883
833.787 .0332710
834.476 .0332542
835.165 .0332379
835.854 .0332222
836.542 .0332070
837.230 .0331924
837.918 .0331784
838.605 .0331649
839.292 .0331518
839.979 .0331393
840.665 .0331271
841.352 .0331153
842.037 .0331038
842.723 .0330925
843.408 .0330816
844.093 .0330708
844.777 .0330601
845.462 .0330496
846.145 .0330391
846.829 .0330287
847.512 .0330182
848.195 .0330077
848.878 .0329970
849.560 .0329863
850.242 .0329755
850.923 .0329645
851.605 .0329533
852.286 .0329419
852.966 .0329303
853.646 .0329184
854.326 .0329061
855.006 .0328934
855.685 .0328803
856.364 .0328669
857.043 .0328530
857.721 .0328388
858.399 .0328243
859.077 .0328094
859.754 .0327943
860.431 .0327790
861.107 .0327634
861.784 .0327477
862.459 .0327318
863.135 .0327157
863.810 .0326996
864.485 .0326833
865.160 .0326670
865.834 .0326506
866.508 .0326340
867.181 .0326173
867.854 .0326005
868.527 .0325835
869.199 .0325663
869.872 .0325490
870.543 .0325315
871.215 .0325139
871.886 .0324961
872.557 .0324783
873.227 .0324605
873.897 .0324426
874.567 .0324246
875.236 .0324067
875.905 .0323886
876.573 .0323706
877.242 .0323525
877.909 .0323343
878.577 .0323161
879.244 .0322979
879.911 .0322797
880.577 .0322615
881.243 .0322433
881.909 .0322251
882.575 .0322068
883.240 .0321885
883.904 .0321702
884.569 .0321519
885.232 .0321335
885.896 .0321150
886.559 .0320966
887.222 .0320782
887.885 .0320597
888.547 .0320413
889.208 .0320229
889.870 .0320046
890.531 .0319864
891.192 .0319682
891.852 .0319500
892.512 .0319319
893.171 .0319138
893.830 .0318957
894.489 .0318775
895.148 .0318592
895.806 .0318408
896.464 .0318222
897.121 .0318036
897.778 .0317848
898.434 .0317659
899.091 .0317373
899.747 .0317182
900.402 .0316992
901.057 .0316802
901.712 .0316612
902.366 .0316424
903.020 .0316237
903.674 .0316051
904.327 .0315866
904.980 .0315682
905.633 .0315499
906.285 .0315316
906.936 .0315134
907.588 .0315046
908.239 .0314866
908.889 .0314687
909.540 .0314508
910.190 .0314330
910.839 .0314153
911.488 .0313977
912.137 .0313802
912.785 .0313628
913.433 .0313455
914.081 .0313283
914.728 .0313114
915.375 .0312947
916.021 .0312782
916.668 .0312618
917.313 .0312457
917.959 .0312297
918.604 .0312137
919.248 .0311979
919.892 .0311821
920.536 .0311664
921.180 .0311508
921.823 .0311353
922.465 .0311198
923.108 .0311044
923.750 .0310890
924.391 .0310735
925.032 .0310580
925.673 .0310425
926.313 .0310268
926.953 .0310112
927.593 .0309955
928.232 .0309798
928.871 .0309642
929.510 .0309485
930.148 .0309330
930.786 .0309174
931.423 .0309019
932.060 .0308865
932.697 .0308711
933.333 .0308559
933.969 .0308408
934.604 .0308258
935.239 .0308110
935.874 .0307962
936.508 .0307815
937.142 .0307669
937.776 .0307522
938.409 .0307375
939.042 .0307228
939.674 .0307081
940.306 .0306934
940.938 .0306787
941.569 .0306640
942.200 .0306494
942.830 .0306348
943.460 .0306203
944.090 .0306058
944.720 .0305914
945.349 .0305770
945.977 .0305628
946.606 .0305486
947.233 .0305345
947.861 .0305204
948.488 .0305064
949.115 .0304924
949.741 .0304785
950.367 .0304646
950.993 .0304508
951.618 .0304370
952.243 .0304232
952.868 .0304094
953.492 .0303955
954.115 .0303816
954.739 .0303677
955.362 .0303536
955.984 .0303394
956.607 .0303252
957.229 .0303109
957.850 .0302966
958.471 .0302823
959.092 .0302680
959.713 .0302537
960.333 .0302394
960.952 .0302250
961.572 .0302106
962.191 .0301962
962.809 .0301817
963.428 .0301672
964.045 .0301527
964.663 .0301383
965.280 .0301238
965.897 .0301093
966.513 .0300948
967.129 .0300801
967.745 .0300653
968.361 .0300504
968.976 .0300354
969.590 .0300205
970.205 .0300057
970.818 .0299909
971.432 .0299764
972.045 .0299621
972.658 .0299479
973.271 .0299338
973.883 .0299198
974.495 .0299058
975.106 .0298917
975.717 .0298776
976.328 .0298635
976.938 .0298495
977.548 .0298354
978.158 .0298214
978.768 .0298001
979.377 .0297860
979.985 .0297717
980.594 .0297572
981.202 .0297426
981.809 .0297278
982.417 .0297129
983.024 .0296978
983.631 .0296826
984.237 .0296674
984.843 .0296520
985.449 .0296366
986.054 .0296210
986.659 .0296053
987.264 .0295972
987.868 .0295815
988.472 .0295657
989.076 .0295498
989.679 .0295340
990.282 .0295183
990.885 .0295027
991.487 .0294873
992.090 .0294720
992.691 .0294570
993.293 .0294420
993.894 .0294272
994.495 .0294125
995.095 .0293980
995.696 .0293836
996.296 .0293695
996.895 .0293555
997.494 .0293418
998.093 .0293284
998.692 .0293151
999.291 .0293022
999.889 .0292894
1000.487 .0292768
1001.084 .0292644
1001.681 .0292522
1002.278 .0292403
1002.875 .0292287
1003.471 .0292174
1004.067 .0292064
1004.663 .0291958
1005.258 .0291855
1005.854 .0291757
1006.449 .0291661
1007.043 .0291570
1007.638 .0291481
1008.232 .0291397
1008.826 .0291316
1009.419 .0291238
1010.012 .0291165
1010.605 .0291094
1011.198 .0291026
1011.791 .0290962
1012.383 .0290899
1012.975 .0290838
1013.566 .0290780
1014.158 .0290723
1014.749 .0290668
1015.340 .0290615
1015.931 .0290564
1016.521 .0290515
1017.111 .0290468
1017.701 .0290423
1018.291 .0290380
1018.880 .0290339
1019.470 .0290299
1020.059 .0290262
1020.647 .0290226
1021.236 .0290191
1021.824 .0290157
1022.412 .0290124
1023.000 .0290090
1023.588 .0290056
1024.175 .0290022
1024.762 .0289986
1025.349 .0289951
1025.936 .0289914
1026.523 .0289878
1027.109 .0289843
1027.695 .0289809
1028.281 .0289778
1028.867 .0289748
1029.452 .0289721
1030.038 .0289696
1030.623 .0289674
1031.208 .0289655
1031.792 .0289640
1032.377 .0289628
1032.961 .0289619
1033.546 .0289613
1034.130 .0289611
1034.714 .0289611
1035.297 .0289612
1035.881 .0289615
1036.464 .0289617
1037.047 .0289620
1037.630 .0289621
1038.213 .0289620
1038.796 .0289619
1039.378 .0289617
1039.961 .0289614
1040.543 .0289609
1041.125 .0289604
1041.707 .0289598
1042.289 .0289591
1042.871 .0289583
1043.452 .0289574
1044.034 .0289564
1044.615 .0289554
1045.196 .0289543
1045.777 .0289532
1046.358 .0289520
1046.939 .0289508
1047.520 .0289495
1048.101 .0289479
1048.681 .0289461
1049.262 .0289440
1049.842 .0289417
1050.422 .0289390
1051.002 .0289362
1051.582 .0289332
1052.162 .0289303
1052.742 .0289274
1053.322 .0289247
1053.902 .0289221
1054.482 .0289198
1055.061 .0289178
1055.641 .0289160
1056.220 .0289146
1056.800 .0289136
1057.379 .0289129
1057.958 .0289125
1058.538 .0289125
1059.117 .0289127
1059.696 .0289129
1060.275 .0289131
1060.854 .0289132
1061.433 .0289129
1062.012 .0289122
1062.592 .0289111
1063.171 .0289097
1063.750 .0289080
1064.329 .0289060
1064.908 .0289037
1065.487 .0289013
1066.066 .0288988
1066.645 .0288961
1067.224 .0288932
1067.803 .0288901
1068.382 .0288868
1068.961 .0288832
1069.540 .0288793
1070.119 .0288752
1070.698 .0288708
1071.278 .0288661
1071.857 .0288610
1072.436 .0288556
1073.016 .0288496
1073.595 .0288431
1074.175 .0288360
1074.754 .0288283
1075.334 .0288201
1075.913 .0288113
1076.493 .0288021
1077.073 .0287926
1077.653 .0287829
1078.233 .0287733
1078.813 .0287639
1079.393 .0287549
1079.974 .0287462
1080.554 .0287380
1081.135 .0287303
1081.716 .0287231
1082.296 .0287164
1082.877 .0287101
1083.458 .0287042
1084.040 .0286985
1084.621 .0286930
1085.202 .0286876
1085.784 .0286822
1086.366 .0286768
1086.948 .0286713
1087.530 .0286658
1088.112 .0286603
1088.695 .0286549
1089.277 .0286497
1089.860 .0286448
1090.443 .0286404
1091.026 .0286365
1091.610 .0286331
1092.193 .0286303
1092.777 .0286281
1093.361 .0286265
1093.946 .0286255
1094.530 .0286248
1095.115 .0286245
1095.700 .0286244
1096.285 .0286245
1096.871 .0286246
1097.456 .0286247
1098.042 .0286246
1098.628 .0286242
1099.215 .0286234
1099.802 .0286221
1100.389 .0286203
1100.976 .0286178
1101.564 .0286147
1102.152 .0286111
1102.740 .0286071
1103.329 .0286028
1103.917 .0285985
1104.507 .0285944
1105.096 .0285906
1105.686 .0285870
1106.276 .0285838
1106.867 .0285806
1107.457 .0285775
1108.049 .0285741
1108.640 .0285703
1109.232 .0285663
1109.825 .0285620
1110.417 .0285575
1111.010 .0285532
1111.604 .0285492
1112.198 .0285457
1112.792 .0285428
1113.387 .0285404
1113.982 .0285386
1114.577 .0285372
1115.173 .0285363
1115.769 .0285360
1116.366 .0285365
1116.963 .0285380
1117.561 .0285410
1118.159 .0285458
1118.758 .0285527
1119.357 .0285618
1119.957 .0285734
1120.557 .0285873
1121.157 .0286035
1121.758 .0286218
1122.360 .0286420
1122.962 .0286641
1123.564 .0286883
1124.167 .0286947
1124.771 .0287219
1125.375 .0287514
1125.980 .0287834
1126.585 .0288179
1127.191 .0288546
1127.797 .0288934
1128.404 .0289340
1129.012 .0289763
1129.620 .0290200
1130.229 .0290650
1130.838 .0291113
1131.448 .0291589
1132.058 .0292079
1132.669 .0292818
1133.281 .0293352
1133.894 .0293906
1134.507 .0294428
1135.120 .0294965
1135.735 .0295583
1136.350 .0296226
1136.965 .0296837
1137.582 .0297416
1138.199 .0297974
1138.816 .0298560
1139.435 .0299119
1140.054 .0299648
1140.674 .0300217
1141.294 .0300835
1141.916 .0301595
1142.538 .0300969
1143.160 .0301741
1143.784 .0304305
1144.408 .0305436
1145.033 .0308927
