Measurement Sequence started on: 14-45-04-498
Integration time: 36
Scans to Average: 2 
>>>>>Begin Spectral Data<<<<<
433.946 .0447145
434.870 .0481608
435.793 .0439136
436.715 .0410927
437.635 .0409561
438.555 .0404153
439.473 .0396801
440.389 .0390419
441.305 .0386784
442.219 .0384810
443.132 .0397905
444.044 .0393022
444.954 .0390365
445.863 .0389168
446.771 .0388019
447.678 .0387130
448.584 .0386606
449.488 .0386402
450.391 .0386373
451.293 .0386430
452.194 .0386532
453.094 .0386610
453.992 .0386644
454.890 .0386612
455.786 .0386490
456.681 .0386266
457.575 .0385939
458.468 .0385521
459.360 .0385035
460.250 .0384499
461.140 .0383933
462.028 .0383355
462.915 .0382775
463.801 .0382191
464.687 .0381600
465.571 .0380999
466.454 .0380381
467.335 .0379744
468.216 .0379091
469.096 .0378431
469.975 .0377776
470.853 .0377134
471.729 .0376513
472.605 .0375921
473.479 .0375363
474.353 .0374838
475.226 .0374342
476.097 .0373869
476.968 .0373416
477.838 .0372976
478.706 .0372547
479.574 .0372129
480.441 .0371727
481.306 .0371339
482.171 .0370968
483.035 .0370611
483.898 .0370267
484.760 .0369932
485.621 .0369602
486.481 .0369273
487.340 .0368942
488.198 .0368604
489.055 .0368255
489.912 .0367896
490.767 .0367528
491.622 .0366936
492.476 .0366554
493.329 .0366164
494.180 .0365765
495.032 .0365355
495.882 .0364935
496.731 .0364502
497.580 .0364059
498.427 .0363604
499.274 .0363141
500.120 .0362907
500.965 .0362436
501.809 .0361962
502.653 .0361486
503.495 .0361012
504.337 .0360535
505.178 .0360055
506.018 .0359572
506.858 .0359085
507.696 .0358595
508.534 .0358105
509.371 .0357618
510.208 .0357138
511.043 .0356673
511.878 .0356229
512.712 .0355812
513.545 .0355428
514.377 .0355076
515.209 .0354756
516.040 .0354466
516.870 .0354202
517.699 .0353960
518.528 .0353739
519.356 .0353536
520.183 .0353343
521.010 .0353153
521.836 .0352963
522.661 .0352766
523.485 .0352557
524.309 .0352331
525.132 .0352081
525.954 .0351803
526.776 .0351496
527.597 .0351158
528.417 .0350789
529.237 .0350394
530.056 .0349966
530.874 .0349503
531.692 .0349006
532.508 .0348472
533.325 .0347906
534.140 .0347314
534.955 .0346700
535.770 .0346071
536.583 .0345436
537.397 .0344809
538.209 .0344203
539.021 .0343630
539.832 .0343099
540.643 .0342614
541.453 .0342175
542.262 .0341778
543.071 .0341415
543.879 .0341080
544.687 .0340764
545.494 .0340457
546.300 .0340154
547.106 .0339852
547.911 .0339552
548.716 .0339256
549.520 .0338967
550.323 .0338685
551.126 .0338408
551.929 .0338133
552.731 .0337855
553.532 .0337568
554.332 .0337266
555.133 .0336944
555.932 .0336597
556.731 .0336222
557.530 .0335818
558.328 .0335391
559.125 .0334946
559.922 .0334490
560.719 .0334028
561.515 .0333566
562.310 .0333107
563.105 .0332655
563.899 .0332209
564.693 .0331768
565.487 .0331331
566.280 .0330897
567.072 .0330465
567.864 .0330036
568.655 .0329610
569.446 .0329190
570.236 .0328777
571.026 .0328373
571.816 .0327978
572.605 .0327591
573.393 .0327215
574.181 .0326852
574.969 .0326499
575.756 .0326158
576.543 .0325827
577.329 .0325505
578.115 .0325191
578.900 .0324884
579.685 .0324581
580.469 .0324285
581.253 .0323994
582.036 .0323711
582.820 .0323433
583.602 .0323163
584.384 .0322898
585.166 .0322639
585.947 .0322383
586.728 .0322128
587.509 .0321873
588.289 .0321616
589.069 .0321355
589.848 .0321092
590.627 .0320823
591.405 .0320551
592.183 .0320276
592.961 .0320000
593.738 .0319722
594.515 .0319444
595.291 .0319167
596.067 .0318893
596.843 .0318620
597.618 .0318350
598.393 .0317954
599.167 .0317689
599.941 .0317427
600.715 .0317168
601.488 .0316913
602.261 .0316663
603.034 .0316418
603.806 .0316179
604.578 .0315947
605.349 .0315722
606.121 .0315501
606.891 .0315405
607.662 .0315189
608.432 .0314975
609.201 .0314763
609.971 .0314553
610.740 .0314344
611.508 .0314136
612.277 .0313928
613.045 .0313720
613.812 .0313513
614.579 .0313305
615.346 .0313096
616.113 .0312888
616.879 .0312679
617.645 .0312469
618.411 .0312258
619.176 .0312046
619.941 .0311831
620.705 .0311615
621.470 .0311396
622.233 .0311175
622.997 .0310952
623.760 .0310728
624.523 .0310505
625.286 .0310282
626.048 .0310060
626.810 .0309840
627.572 .0309621
628.333 .0309403
629.095 .0309186
629.855 .0308968
630.616 .0308750
631.376 .0308531
632.136 .0308311
632.895 .0308090
633.655 .0307869
634.414 .0307647
635.172 .0307424
635.931 .0307201
636.689 .0306977
637.447 .0306753
638.204 .0306529
638.962 .0306305
639.718 .0306082
640.475 .0305859
641.231 .0305637
641.988 .0305416
642.743 .0305195
643.499 .0304974
644.254 .0304753
645.009 .0304533
645.764 .0304313
646.518 .0304094
647.272 .0303875
648.026 .0303658
648.780 .0303441
649.533 .0303227
650.286 .0303014
651.039 .0302803
651.792 .0302594
652.544 .0302387
653.296 .0302182
654.048 .0301979
654.799 .0301778
655.550 .0301579
656.301 .0301383
657.052 .0301189
657.802 .0300998
658.552 .0300811
659.302 .0300628
660.052 .0300451
660.801 .0300280
661.550 .0300116
662.299 .0299959
663.048 .0299810
663.796 .0299667
664.544 .0299531
665.292 .0299400
666.040 .0299274
666.787 .0299154
667.534 .0299038
668.281 .0298928
669.028 .0298822
669.774 .0298721
670.521 .0298624
671.266 .0298531
672.012 .0298439
672.758 .0298348
673.503 .0298258
674.248 .0298166
674.992 .0298072
675.737 .0297977
676.481 .0297879
677.225 .0297778
677.969 .0297674
678.712 .0297567
679.455 .0297456
680.199 .0297342
680.941 .0297225
681.684 .0297104
682.426 .0296982
683.168 .0296856
683.910 .0296729
684.652 .0296600
685.393 .0296469
686.134 .0296336
686.875 .0296200
687.616 .0296062
688.356 .0295922
689.097 .0295781
689.837 .0295639
690.576 .0295498
691.316 .0295357
692.055 .0295216
692.794 .0295074
693.533 .0294931
694.272 .0294787
695.010 .0294641
695.748 .0294493
696.486 .0294344
697.224 .0294193
697.962 .0294042
698.699 .0293890
699.436 .0293739
700.173 .0293587
700.909 .0293436
701.646 .0293285
702.382 .0293134
703.118 .0292984
703.853 .0292835
704.589 .0292689
705.324 .0292545
706.059 .0292404
706.794 .0292266
707.529 .0292131
708.263 .0292000
708.997 .0291871
709.731 .0291746
710.465 .0291623
711.198 .0291503
711.931 .0291386
712.664 .0291271
713.397 .0291159
714.130 .0291049
714.862 .0290941
715.594 .0290834
716.326 .0290728
717.058 .0290622
717.789 .0290518
718.520 .0290414
719.251 .0290312
719.982 .0290211
720.713 .0290112
721.443 .0290014
722.173 .0289918
722.903 .0289825
723.633 .0289733
724.362 .0289644
725.091 .0289557
725.820 .0289473
726.549 .0289393
727.278 .0289316
728.006 .0289243
728.734 .0289174
729.462 .0289109
730.190 .0289046
730.917 .0288986
731.644 .0288929
732.371 .0288872
733.098 .0288817
733.825 .0288763
734.551 .0288710
735.277 .0288657
736.003 .0288605
736.728 .0288552
737.454 .0288498
738.179 .0288442
738.904 .0288382
739.629 .0288319
740.353 .0288251
741.077 .0288179
741.801 .0288102
742.525 .0288020
743.249 .0287934
743.972 .0287844
744.695 .0287749
745.418 .0287649
746.141 .0287545
746.863 .0287437
747.585 .0287323
748.307 .0287206
749.029 .0287084
749.750 .0286959
750.472 .0286830
751.193 .0286699
751.913 .0286565
752.634 .0286429
753.354 .0286291
754.074 .0286152
754.794 .0286012
755.514 .0285872
756.233 .0285732
756.952 .0285593
757.671 .0285455
758.390 .0285317
759.108 .0285182
759.826 .0285049
760.544 .0284918
761.262 .0284790
761.979 .0284666
762.697 .0284546
763.414 .0284429
764.130 .0284317
764.847 .0284208
765.563 .0284104
766.279 .0284004
766.995 .0283907
767.710 .0283815
768.426 .0283727
769.141 .0283642
769.855 .0283561
770.570 .0283483
771.284 .0283408
771.998 .0283335
772.712 .0283264
773.426 .0283195
774.139 .0283127
774.852 .0283060
775.565 .0282995
776.277 .0282929
776.990 .0282863
777.702 .0282796
778.414 .0282728
779.125 .0282660
779.836 .0282592
780.547 .0282523
781.258 .0282455
781.969 .0282388
782.679 .0282322
783.389 .0282224
784.099 .0282160
784.808 .0282095
785.517 .0282029
786.226 .0281962
786.935 .0281895
787.643 .0281828
788.352 .0281761
789.060 .0281695
789.767 .0281630
790.475 .0281567
791.182 .0281506
791.889 .0281478
792.595 .0281419
793.301 .0281361
794.008 .0281304
794.713 .0281249
795.419 .0281194
796.124 .0281142
796.829 .0281092
797.534 .0281044
798.238 .0280998
798.942 .0280955
799.646 .0280913
800.350 .0280874
801.053 .0280836
801.756 .0280799
802.459 .0280764
803.162 .0280729
803.864 .0280695
804.566 .0280662
805.267 .0280628
805.969 .0280594
806.670 .0280558
807.371 .0280521
808.071 .0280482
808.772 .0280441
809.472 .0280397
810.171 .0280351
810.871 .0280302
811.570 .0280250
812.269 .0280195
812.967 .0280137
813.666 .0280075
814.364 .0280009
815.061 .0279940
815.759 .0279866
816.456 .0279787
817.153 .0279705
817.849 .0279619
818.545 .0279529
819.241 .0279435
819.937 .0279339
820.632 .0279238
821.327 .0279135
822.022 .0279028
822.717 .0278918
823.411 .0278804
824.105 .0278688
824.798 .0278570
825.491 .0278450
826.184 .0278329
826.877 .0278206
827.569 .0278083
828.261 .0277958
828.953 .0277832
829.645 .0277705
830.336 .0277576
831.027 .0277445
831.717 .0277313
832.407 .0277180
833.097 .0277047
833.787 .0276914
834.476 .0276781
835.165 .0276647
835.854 .0276514
836.542 .0276380
837.230 .0276245
837.918 .0276109
838.605 .0275972
839.292 .0275834
839.979 .0275695
840.665 .0275556
841.352 .0275415
842.037 .0275275
842.723 .0275133
843.408 .0274990
844.093 .0274846
844.777 .0274701
845.462 .0274555
846.145 .0274409
846.829 .0274262
847.512 .0274116
848.195 .0273969
848.878 .0273823
849.560 .0273677
850.242 .0273529
850.923 .0273381
851.605 .0273230
852.286 .0273079
852.966 .0272927
853.646 .0272775
854.326 .0272624
855.006 .0272475
855.685 .0272329
856.364 .0272186
857.043 .0272047
857.721 .0271910
858.399 .0271777
859.077 .0271646
859.754 .0271518
860.431 .0271392
861.107 .0271270
861.784 .0271150
862.459 .0271035
863.135 .0270924
863.810 .0270816
864.485 .0270712
865.160 .0270611
865.834 .0270513
866.508 .0270418
867.181 .0270324
867.854 .0270233
868.527 .0270142
869.199 .0270053
869.872 .0269965
870.543 .0269878
871.215 .0269792
871.886 .0269706
872.557 .0269622
873.227 .0269538
873.897 .0269456
874.567 .0269375
875.236 .0269296
875.905 .0269218
876.573 .0269141
877.242 .0269064
877.909 .0268988
878.577 .0268913
879.244 .0268838
879.911 .0268763
880.577 .0268689
881.243 .0268617
881.909 .0268546
882.575 .0268476
883.240 .0268407
883.904 .0268340
884.569 .0268275
885.232 .0268211
885.896 .0268149
886.559 .0268090
887.222 .0268033
887.885 .0267978
888.547 .0267925
889.208 .0267875
889.870 .0267828
890.531 .0267783
891.192 .0267739
891.852 .0267698
892.512 .0267660
893.171 .0267623
893.830 .0267590
894.489 .0267558
895.148 .0267529
895.806 .0267502
896.464 .0267477
897.121 .0267452
897.778 .0267429
898.434 .0267406
899.091 .0267374
899.747 .0267350
900.402 .0267326
901.057 .0267302
901.712 .0267277
902.366 .0267252
903.020 .0267227
903.674 .0267200
904.327 .0267172
904.980 .0267142
905.633 .0267110
906.285 .0267075
906.936 .0267035
907.588 .0267005
908.239 .0266958
908.889 .0266907
909.540 .0266850
910.190 .0266788
910.839 .0266721
911.488 .0266648
912.137 .0266571
912.785 .0266489
913.433 .0266402
914.081 .0266310
914.728 .0266213
915.375 .0266112
916.021 .0266005
916.668 .0265893
917.313 .0265777
917.959 .0265657
918.604 .0265533
919.248 .0265406
919.892 .0265276
920.536 .0265142
921.180 .0265005
921.823 .0264864
922.465 .0264718
923.108 .0264568
923.750 .0264414
924.391 .0264255
925.032 .0264092
925.673 .0263925
926.313 .0263754
926.953 .0263580
927.593 .0263404
928.232 .0263224
928.871 .0263042
929.510 .0262857
930.148 .0262669
930.786 .0262479
931.423 .0262287
932.060 .0262092
932.697 .0261895
933.333 .0261697
933.969 .0261497
934.604 .0261294
935.239 .0261090
935.874 .0260884
936.508 .0260675
937.142 .0260464
937.776 .0260249
938.409 .0260032
939.042 .0259812
939.674 .0259590
940.306 .0259366
940.938 .0259142
941.569 .0258917
942.200 .0258692
942.830 .0258469
943.460 .0258247
944.090 .0258026
944.720 .0257808
945.349 .0257591
945.977 .0257376
946.606 .0257163
947.233 .0256952
947.861 .0256742
948.488 .0256533
949.115 .0256327
949.741 .0256124
950.367 .0255922
950.993 .0255724
951.618 .0255529
952.243 .0255337
952.868 .0255148
953.492 .0254962
954.115 .0254778
954.739 .0254598
955.362 .0254420
955.984 .0254247
956.607 .0254077
957.229 .0253911
957.850 .0253750
958.471 .0253593
959.092 .0253441
959.713 .0253292
960.333 .0253147
960.952 .0253006
961.572 .0252867
962.191 .0252730
962.809 .0252596
963.428 .0252464
964.045 .0252335
964.663 .0252208
965.280 .0252084
965.897 .0251963
966.513 .0251845
967.129 .0251729
967.745 .0251615
968.361 .0251504
968.976 .0251395
969.590 .0251288
970.205 .0251185
970.818 .0251085
971.432 .0250988
972.045 .0250896
972.658 .0250809
973.271 .0250726
973.883 .0250648
974.495 .0250575
975.106 .0250505
975.717 .0250438
976.328 .0250375
976.938 .0250315
977.548 .0250258
978.158 .0250204
978.768 .0250140
979.377 .0250096
979.985 .0250055
980.594 .0250017
981.202 .0249983
981.809 .0249951
982.417 .0249920
983.024 .0249891
983.631 .0249863
984.237 .0249835
984.843 .0249809
985.449 .0249783
986.054 .0249760
986.659 .0249737
987.264 .0249725
987.868 .0249706
988.472 .0249689
989.076 .0249673
989.679 .0249659
990.282 .0249647
990.885 .0249636
991.487 .0249628
992.090 .0249621
992.691 .0249618
993.293 .0249619
993.894 .0249623
994.495 .0249631
995.095 .0249643
995.696 .0249659
996.296 .0249679
996.895 .0249702
997.494 .0249728
998.093 .0249757
998.692 .0249788
999.291 .0249822
999.889 .0249859
1000.487 .0249899
1001.084 .0249941
1001.681 .0249986
1002.278 .0250033
1002.875 .0250081
1003.471 .0250132
1004.067 .0250184
1004.663 .0250236
1005.258 .0250288
1005.854 .0250341
1006.449 .0250392
1007.043 .0250443
1007.638 .0250492
1008.232 .0250540
1008.826 .0250586
1009.419 .0250630
1010.012 .0250671
1010.605 .0250710
1011.198 .0250746
1011.791 .0250778
1012.383 .0250807
1012.975 .0250832
1013.566 .0250853
1014.158 .0250872
1014.749 .0250887
1015.340 .0250901
1015.931 .0250913
1016.521 .0250924
1017.111 .0250936
1017.701 .0250947
1018.291 .0250959
1018.880 .0250971
1019.470 .0250984
1020.059 .0250997
1020.647 .0251012
1021.236 .0251027
1021.824 .0251044
1022.412 .0251061
1023.000 .0251080
1023.588 .0251100
1024.175 .0251120
1024.762 .0251141
1025.349 .0251162
1025.936 .0251184
1026.523 .0251206
1027.109 .0251228
1027.695 .0251250
1028.281 .0251271
1028.867 .0251292
1029.452 .0251312
1030.038 .0251331
1030.623 .0251347
1031.208 .0251361
1031.792 .0251373
1032.377 .0251381
1032.961 .0251387
1033.546 .0251389
1034.130 .0251390
1034.714 .0251388
1035.297 .0251384
1035.881 .0251376
1036.464 .0251365
1037.047 .0251348
1037.630 .0251327
1038.213 .0251300
1038.796 .0251268
1039.378 .0251232
1039.961 .0251192
1040.543 .0251149
1041.125 .0251105
1041.707 .0251060
1042.289 .0251013
1042.871 .0250966
1043.452 .0250916
1044.034 .0250865
1044.615 .0250811
1045.196 .0250755
1045.777 .0250696
1046.358 .0250636
1046.939 .0250575
1047.520 .0250513
1048.101 .0250451
1048.681 .0250388
1049.262 .0250324
1049.842 .0250259
1050.422 .0250192
1051.002 .0250124
1051.582 .0250054
1052.162 .0249984
1052.742 .0249913
1053.322 .0249842
1053.902 .0249772
1054.482 .0249702
1055.061 .0249633
1055.641 .0249564
1056.220 .0249493
1056.800 .0249420
1057.379 .0249344
1057.958 .0249265
1058.538 .0249183
1059.117 .0249096
1059.696 .0249006
1060.275 .0248912
1060.854 .0248813
1061.433 .0248710
1062.012 .0248601
1062.592 .0248487
1063.171 .0248368
1063.750 .0248245
1064.329 .0248119
1064.908 .0247992
1065.487 .0247866
1066.066 .0247740
1066.645 .0247617
1067.224 .0247496
1067.803 .0247376
1068.382 .0247258
1068.961 .0247139
1069.540 .0247020
1070.119 .0246900
1070.698 .0246780
1071.278 .0246661
1071.857 .0246545
1072.436 .0246433
1073.016 .0246325
1073.595 .0246222
1074.175 .0246125
1074.754 .0246032
1075.334 .0245945
1075.913 .0245864
1076.493 .0245787
1077.073 .0245717
1077.653 .0245653
1078.233 .0245598
1078.813 .0245552
1079.393 .0245516
1079.974 .0245490
1080.554 .0245472
1081.135 .0245462
1081.716 .0245457
1082.296 .0245456
1082.877 .0245456
1083.458 .0245455
1084.040 .0245451
1084.621 .0245444
1085.202 .0245435
1085.784 .0245422
1086.366 .0245406
1086.948 .0245387
1087.530 .0245365
1088.112 .0245339
1088.695 .0245309
1089.277 .0245273
1089.860 .0245231
1090.443 .0245182
1091.026 .0245125
1091.610 .0245060
1092.193 .0244987
1092.777 .0244908
1093.361 .0244822
1093.946 .0244731
1094.530 .0244635
1095.115 .0244533
1095.700 .0244425
1096.285 .0244311
1096.871 .0244191
1097.456 .0244065
1098.042 .0243932
1098.628 .0243794
1099.215 .0243654
1099.802 .0243513
1100.389 .0243375
1100.976 .0243242
1101.564 .0243117
1102.152 .0242998
1102.740 .0242889
1103.329 .0242789
1103.917 .0242700
1104.507 .0242623
1105.096 .0242559
1105.686 .0242510
1106.276 .0242480
1106.867 .0242470
1107.457 .0242483
1108.049 .0242519
1108.640 .0242581
1109.232 .0242665
1109.825 .0242769
1110.417 .0242891
1111.010 .0243028
1111.604 .0243178
1112.198 .0243341
1112.792 .0243514
1113.387 .0243698
1113.982 .0243891
1114.577 .0244094
1115.173 .0244304
1115.769 .0244518
1116.366 .0244734
1116.963 .0244949
1117.561 .0245160
1118.159 .0245367
1118.758 .0245570
1119.357 .0245770
1119.957 .0245971
1120.557 .0246177
1121.157 .0246389
1121.758 .0246610
1122.360 .0246841
1122.962 .0247082
1123.564 .0247330
1124.167 .0247460
1124.771 .0247706
1125.375 .0247956
1125.980 .0248208
1126.585 .0248463
1127.191 .0248722
1127.797 .0248986
1128.404 .0249258
1129.012 .0249538
1129.620 .0249825
1130.229 .0250120
1130.838 .0250422
1131.448 .0250729
1132.058 .0251042
1132.669 .0251485
1133.281 .0251823
1133.894 .0252171
1134.507 .0252511
1135.120 .0252859
1135.735 .0253229
1136.350 .0253663
1136.965 .0254787
1137.582 .0255232
1138.199 .0255635
1138.816 .0256019
1139.435 .0256340
1140.054 .0256604
1140.674 .0256837
1141.294 .0257081
1141.916 .0257274
1142.538 .0256998
1143.160 .0257126
1143.784 .0257699
1144.408 .0259414
1145.033 .0257784
