Measurement Sequence started on: 14-45-04-498
Integration time: 36
Scans to Average: 2 
>>>>>Begin Spectral Data<<<<<
433.946 .0365806
434.870 .0499929
435.793 .0430060
436.715 .0424898
437.635 .0436911
438.555 .0442444
439.473 .0446169
440.389 .0446589
441.305 .0449107
442.219 .0451229
443.132 .0451947
444.044 .0449610
444.954 .0450889
445.863 .0452375
446.771 .0453170
447.678 .0453611
448.584 .0453796
449.488 .0453905
450.391 .0453824
451.293 .0453576
452.194 .0453195
453.094 .0452692
453.992 .0452080
454.890 .0451366
455.786 .0450554
456.681 .0449658
457.575 .0448692
458.468 .0447679
459.360 .0446648
460.250 .0445624
461.140 .0444622
462.028 .0443656
462.915 .0442732
463.801 .0441845
464.687 .0440997
465.571 .0440183
466.454 .0439397
467.335 .0438638
468.216 .0437904
469.096 .0437194
469.975 .0436510
470.853 .0435855
471.729 .0435227
472.605 .0434626
473.479 .0434050
474.353 .0433493
475.226 .0432948
476.097 .0432411
476.968 .0431875
477.838 .0431336
478.706 .0430791
479.574 .0430242
480.441 .0429690
481.306 .0429145
482.171 .0428608
483.035 .0428086
483.898 .0427581
484.760 .0427091
485.621 .0426612
486.481 .0426141
487.340 .0425674
488.198 .0425208
489.055 .0424742
489.912 .0424278
490.767 .0423816
491.622 .0423143
492.476 .0422701
493.329 .0422272
494.180 .0421847
495.032 .0421423
495.882 .0420993
496.731 .0420552
497.580 .0420094
498.427 .0419617
499.274 .0419123
500.120 .0418850
500.965 .0418346
501.809 .0417838
502.653 .0417335
503.495 .0416841
504.337 .0416366
505.178 .0415911
506.018 .0415479
506.858 .0415072
507.696 .0414690
508.534 .0414336
509.371 .0414011
510.208 .0413717
511.043 .0413457
511.878 .0413237
512.712 .0413063
513.545 .0412937
514.377 .0412859
515.209 .0412829
516.040 .0412842
516.870 .0412886
517.699 .0412954
518.528 .0413036
519.356 .0413123
520.183 .0413203
521.010 .0413267
521.836 .0413306
522.661 .0413309
523.485 .0413268
524.309 .0413172
525.132 .0413014
525.954 .0412790
526.776 .0412492
527.597 .0412123
528.417 .0411685
529.237 .0411178
530.056 .0410603
530.874 .0409964
531.692 .0409262
532.508 .0408496
533.325 .0407666
534.140 .0406774
534.955 .0405825
535.770 .0404826
536.583 .0403787
537.397 .0402722
538.209 .0401647
539.021 .0400577
539.832 .0399526
540.643 .0398506
541.453 .0397524
542.262 .0396583
543.071 .0395682
543.879 .0394820
544.687 .0393991
545.494 .0393186
546.300 .0392404
547.106 .0391642
547.911 .0390902
548.716 .0390186
549.520 .0389498
550.323 .0388844
551.126 .0388229
551.929 .0387655
552.731 .0387121
553.532 .0386623
554.332 .0386153
555.133 .0385699
555.932 .0385253
556.731 .0384808
557.530 .0384355
558.328 .0383895
559.125 .0383429
559.922 .0382957
560.719 .0382482
561.515 .0382007
562.310 .0381535
563.105 .0381065
563.899 .0380595
564.693 .0380121
565.487 .0379638
566.280 .0379146
567.072 .0378638
567.864 .0378115
568.655 .0377576
569.446 .0377021
570.236 .0376453
571.026 .0375873
571.816 .0375283
572.605 .0374687
573.393 .0374087
574.181 .0373489
574.969 .0372895
575.756 .0372310
576.543 .0371738
577.329 .0371181
578.115 .0370642
578.900 .0370123
579.685 .0369623
580.469 .0369144
581.253 .0368687
582.036 .0368254
582.820 .0367844
583.602 .0367457
584.384 .0367094
585.166 .0366753
585.947 .0366433
586.728 .0366130
587.509 .0365844
588.289 .0365570
589.069 .0365306
589.848 .0365049
590.627 .0364795
591.405 .0364540
592.183 .0364281
592.961 .0364015
593.738 .0363740
594.515 .0363453
595.291 .0363156
596.067 .0362847
596.843 .0362528
597.618 .0362199
598.393 .0361677
599.167 .0361331
599.941 .0360980
600.715 .0360621
601.488 .0360258
602.261 .0359889
603.034 .0359517
603.806 .0359143
604.578 .0358770
605.349 .0358398
606.121 .0358029
606.891 .0357856
607.662 .0357494
608.432 .0357138
609.201 .0356787
609.971 .0356443
610.740 .0356105
611.508 .0355773
612.277 .0355447
613.045 .0355127
613.812 .0354813
614.579 .0354505
615.346 .0354202
616.113 .0353904
616.879 .0353612
617.645 .0353326
618.411 .0353045
619.176 .0352769
619.941 .0352497
620.705 .0352228
621.470 .0351962
622.233 .0351697
622.997 .0351433
623.760 .0351168
624.523 .0350904
625.286 .0350640
626.048 .0350376
626.810 .0350112
627.572 .0349848
628.333 .0349584
629.095 .0349319
629.855 .0349052
630.616 .0348782
631.376 .0348508
632.136 .0348230
632.895 .0347948
633.655 .0347661
634.414 .0347370
635.172 .0347076
635.931 .0346778
636.689 .0346477
637.447 .0346173
638.204 .0345868
638.962 .0345562
639.718 .0345255
640.475 .0344949
641.231 .0344643
641.988 .0344337
642.743 .0344034
643.499 .0343731
644.254 .0343429
645.009 .0343128
645.764 .0342829
646.518 .0342532
647.272 .0342239
648.026 .0341950
648.780 .0341665
649.533 .0341386
650.286 .0341112
651.039 .0340842
651.792 .0340577
652.544 .0340316
653.296 .0340059
654.048 .0339806
654.799 .0339557
655.550 .0339313
656.301 .0339072
657.052 .0338836
657.802 .0338604
658.552 .0338374
659.302 .0338148
660.052 .0337923
660.801 .0337699
661.550 .0337476
662.299 .0337254
663.048 .0337033
663.796 .0336813
664.544 .0336594
665.292 .0336377
666.040 .0336160
666.787 .0335945
667.534 .0335732
668.281 .0335521
669.028 .0335311
669.774 .0335104
670.521 .0334899
671.266 .0334697
672.012 .0334496
672.758 .0334298
673.503 .0334103
674.248 .0333910
674.992 .0333719
675.737 .0333531
676.481 .0333346
677.225 .0333163
677.969 .0332983
678.712 .0332805
679.455 .0332628
680.199 .0332451
680.941 .0332273
681.684 .0332094
682.426 .0331912
683.168 .0331728
683.910 .0331541
684.652 .0331350
685.393 .0331156
686.134 .0330960
686.875 .0330761
687.616 .0330560
688.356 .0330357
689.097 .0330151
689.837 .0329943
690.576 .0329733
691.316 .0329520
692.055 .0329305
692.794 .0329088
693.533 .0328870
694.272 .0328652
695.010 .0328433
695.748 .0328218
696.486 .0328005
697.224 .0327797
697.962 .0327594
698.699 .0327397
699.436 .0327206
700.173 .0327021
700.909 .0326844
701.646 .0326673
702.382 .0326508
703.118 .0326350
703.853 .0326198
704.589 .0326052
705.324 .0325912
706.059 .0325779
706.794 .0325651
707.529 .0325528
708.263 .0325411
708.997 .0325298
709.731 .0325191
710.465 .0325086
711.198 .0324985
711.931 .0324886
712.664 .0324788
713.397 .0324690
714.130 .0324590
714.862 .0324488
715.594 .0324384
716.326 .0324277
717.058 .0324167
717.789 .0324054
718.520 .0323938
719.251 .0323820
719.982 .0323699
720.713 .0323576
721.443 .0323449
722.173 .0323320
722.903 .0323187
723.633 .0323052
724.362 .0322915
725.091 .0322776
725.820 .0322636
726.549 .0322495
727.278 .0322355
728.006 .0322216
728.734 .0322078
729.462 .0321942
730.190 .0321808
730.917 .0321675
731.644 .0321544
732.371 .0321415
733.098 .0321287
733.825 .0321160
734.551 .0321035
735.277 .0320910
736.003 .0320786
736.728 .0320662
737.454 .0320537
738.179 .0320411
738.904 .0320282
739.629 .0320151
740.353 .0320017
741.077 .0319880
741.801 .0319741
742.525 .0319598
743.249 .0319452
743.972 .0319304
744.695 .0319153
745.418 .0318999
746.141 .0318843
746.863 .0318684
747.585 .0318523
748.307 .0318360
749.029 .0318195
749.750 .0318030
750.472 .0317865
751.193 .0317701
751.913 .0317538
752.634 .0317377
753.354 .0317219
754.074 .0317064
754.794 .0316913
755.514 .0316765
756.233 .0316623
756.952 .0316485
757.671 .0316351
758.390 .0316223
759.108 .0316100
759.826 .0315981
760.544 .0315867
761.262 .0315757
761.979 .0315651
762.697 .0315550
763.414 .0315452
764.130 .0315359
764.847 .0315271
765.563 .0315186
766.279 .0315106
766.995 .0315031
767.710 .0314959
768.426 .0314891
769.141 .0314827
769.855 .0314767
770.570 .0314711
771.284 .0314658
771.998 .0314609
772.712 .0314564
773.426 .0314522
774.139 .0314484
774.852 .0314448
775.565 .0314415
776.277 .0314385
776.990 .0314356
777.702 .0314328
778.414 .0314303
779.125 .0314278
779.836 .0314255
780.547 .0314233
781.258 .0314211
781.969 .0314189
782.679 .0314166
783.389 .0314123
784.099 .0314093
784.808 .0314059
785.517 .0314021
786.226 .0313978
786.935 .0313930
787.643 .0313877
788.352 .0313820
789.060 .0313759
789.767 .0313692
790.475 .0313621
791.182 .0313545
791.889 .0313493
792.595 .0313410
793.301 .0313323
794.008 .0313231
794.713 .0313135
795.419 .0313034
796.124 .0312929
796.829 .0312821
797.534 .0312709
798.238 .0312594
798.942 .0312477
799.646 .0312358
800.350 .0312237
801.053 .0312114
801.756 .0311991
802.459 .0311866
803.162 .0311741
803.864 .0311614
804.566 .0311487
805.267 .0311358
805.969 .0311228
806.670 .0311096
807.371 .0310964
808.071 .0310830
808.772 .0310696
809.472 .0310561
810.171 .0310425
810.871 .0310290
811.570 .0310155
812.269 .0310019
812.967 .0309884
813.666 .0309749
814.364 .0309613
815.061 .0309477
815.759 .0309340
816.456 .0309203
817.153 .0309065
817.849 .0308927
818.545 .0308789
819.241 .0308651
819.937 .0308514
820.632 .0308378
821.327 .0308242
822.022 .0308108
822.717 .0307976
823.411 .0307844
824.105 .0307714
824.798 .0307584
825.491 .0307456
826.184 .0307328
826.877 .0307202
827.569 .0307076
828.261 .0306952
828.953 .0306830
829.645 .0306710
830.336 .0306593
831.027 .0306479
831.717 .0306368
832.407 .0306261
833.097 .0306158
833.787 .0306060
834.476 .0305967
835.165 .0305878
835.854 .0305795
836.542 .0305717
837.230 .0305643
837.918 .0305575
838.605 .0305512
839.292 .0305453
839.979 .0305399
840.665 .0305349
841.352 .0305304
842.037 .0305263
842.723 .0305225
843.408 .0305191
844.093 .0305158
844.777 .0305126
845.462 .0305094
846.145 .0305059
846.829 .0305023
847.512 .0304983
848.195 .0304940
848.878 .0304893
849.560 .0304842
850.242 .0304786
850.923 .0304725
851.605 .0304658
852.286 .0304584
852.966 .0304504
853.646 .0304417
854.326 .0304322
855.006 .0304221
855.685 .0304115
856.364 .0304002
857.043 .0303886
857.721 .0303766
858.399 .0303643
859.077 .0303517
859.754 .0303390
860.431 .0303261
861.107 .0303131
861.784 .0303001
862.459 .0302871
863.135 .0302742
863.810 .0302613
864.485 .0302484
865.160 .0302357
865.834 .0302230
866.508 .0302103
867.181 .0301978
867.854 .0301853
868.527 .0301729
869.199 .0301606
869.872 .0301483
870.543 .0301359
871.215 .0301235
871.886 .0301108
872.557 .0300978
873.227 .0300844
873.897 .0300705
874.567 .0300562
875.236 .0300415
875.905 .0300262
876.573 .0300105
877.242 .0299944
877.909 .0299778
878.577 .0299609
879.244 .0299436
879.911 .0299259
880.577 .0299079
881.243 .0298896
881.909 .0298710
882.575 .0298521
883.240 .0298331
883.904 .0298140
884.569 .0297949
885.232 .0297758
885.896 .0297569
886.559 .0297381
887.222 .0297198
887.885 .0297019
888.547 .0296845
889.208 .0296677
889.870 .0296516
890.531 .0296361
891.192 .0296212
891.852 .0296070
892.512 .0295934
893.171 .0295803
893.830 .0295678
894.489 .0295558
895.148 .0295445
895.806 .0295339
896.464 .0295239
897.121 .0295145
897.778 .0295057
898.434 .0294975
899.091 .0294866
899.747 .0294793
900.402 .0294724
901.057 .0294657
901.712 .0294594
902.366 .0294532
903.020 .0294471
903.674 .0294411
904.327 .0294351
904.980 .0294291
905.633 .0294230
906.285 .0294167
906.936 .0294103
907.588 .0294067
908.239 .0293999
908.889 .0293931
909.540 .0293861
910.190 .0293789
910.839 .0293714
911.488 .0293638
912.137 .0293558
912.785 .0293475
913.433 .0293389
914.081 .0293301
914.728 .0293210
915.375 .0293118
916.021 .0293024
916.668 .0292929
917.313 .0292833
917.959 .0292736
918.604 .0292638
919.248 .0292538
919.892 .0292437
920.536 .0292333
921.180 .0292227
921.823 .0292120
922.465 .0292010
923.108 .0291898
923.750 .0291785
924.391 .0291671
925.032 .0291555
925.673 .0291438
926.313 .0291320
926.953 .0291200
927.593 .0291079
928.232 .0290957
928.871 .0290835
929.510 .0290711
930.148 .0290587
930.786 .0290462
931.423 .0290337
932.060 .0290212
932.697 .0290086
933.333 .0289959
933.969 .0289830
934.604 .0289700
935.239 .0289567
935.874 .0289432
936.508 .0289294
937.142 .0289155
937.776 .0289013
938.409 .0288870
939.042 .0288725
939.674 .0288579
940.306 .0288432
940.938 .0288284
941.569 .0288134
942.200 .0287983
942.830 .0287830
943.460 .0287675
944.090 .0287520
944.720 .0287364
945.349 .0287209
945.977 .0287054
946.606 .0286902
947.233 .0286752
947.861 .0286604
948.488 .0286457
949.115 .0286313
949.741 .0286170
950.367 .0286028
950.993 .0285888
951.618 .0285750
952.243 .0285613
952.868 .0285479
953.492 .0285347
954.115 .0285217
954.739 .0285090
955.362 .0284964
955.984 .0284839
956.607 .0284715
957.229 .0284592
957.850 .0284469
958.471 .0284347
959.092 .0284224
959.713 .0284103
960.333 .0283981
960.952 .0283859
961.572 .0283737
962.191 .0283614
962.809 .0283489
963.428 .0283363
964.045 .0283235
964.663 .0283106
965.280 .0282976
965.897 .0282844
966.513 .0282711
967.129 .0282578
967.745 .0282443
968.361 .0282307
968.976 .0282168
969.590 .0282028
970.205 .0281885
970.818 .0281740
971.432 .0281592
972.045 .0281443
972.658 .0281292
973.271 .0281139
973.883 .0280985
974.495 .0280830
975.106 .0280674
975.717 .0280517
976.328 .0280359
976.938 .0280200
977.548 .0280041
978.158 .0279880
978.768 .0279629
979.377 .0279466
979.985 .0279301
980.594 .0279135
981.202 .0278967
981.809 .0278799
982.417 .0278630
983.024 .0278460
983.631 .0278291
984.237 .0278122
984.843 .0277954
985.449 .0277786
986.054 .0277620
986.659 .0277455
987.264 .0277382
987.868 .0277223
988.472 .0277066
989.076 .0276914
989.679 .0276767
990.282 .0276626
990.885 .0276492
991.487 .0276365
992.090 .0276246
992.691 .0276135
993.293 .0276032
993.894 .0275934
994.495 .0275844
995.095 .0275759
995.696 .0275680
996.296 .0275606
996.895 .0275538
997.494 .0275474
998.093 .0275416
998.692 .0275362
999.291 .0275311
999.889 .0275263
1000.487 .0275217
1001.084 .0275172
1001.681 .0275128
1002.278 .0275086
1002.875 .0275045
1003.471 .0275006
1004.067 .0274969
1004.663 .0274935
1005.258 .0274903
1005.854 .0274874
1006.449 .0274847
1007.043 .0274822
1007.638 .0274799
1008.232 .0274778
1008.826 .0274758
1009.419 .0274740
1010.012 .0274724
1010.605 .0274712
1011.198 .0274702
1011.791 .0274697
1012.383 .0274695
1012.975 .0274698
1013.566 .0274705
1014.158 .0274718
1014.749 .0274736
1015.340 .0274760
1015.931 .0274789
1016.521 .0274825
1017.111 .0274867
1017.701 .0274915
1018.291 .0274969
1018.880 .0275028
1019.470 .0275093
1020.059 .0275163
1020.647 .0275236
1021.236 .0275313
1021.824 .0275393
1022.412 .0275475
1023.000 .0275559
1023.588 .0275643
1024.175 .0275726
1024.762 .0275808
1025.349 .0275887
1025.936 .0275962
1026.523 .0276033
1027.109 .0276099
1027.695 .0276160
1028.281 .0276216
1028.867 .0276267
1029.452 .0276314
1030.038 .0276356
1030.623 .0276393
1031.208 .0276426
1031.792 .0276454
1032.377 .0276477
1032.961 .0276495
1033.546 .0276507
1034.130 .0276515
1034.714 .0276520
1035.297 .0276521
1035.881 .0276519
1036.464 .0276516
1037.047 .0276511
1037.630 .0276505
1038.213 .0276497
1038.796 .0276489
1039.378 .0276480
1039.961 .0276470
1040.543 .0276462
1041.125 .0276453
1041.707 .0276447
1042.289 .0276442
1042.871 .0276439
1043.452 .0276437
1044.034 .0276436
1044.615 .0276437
1045.196 .0276438
1045.777 .0276440
1046.358 .0276443
1046.939 .0276447
1047.520 .0276453
1048.101 .0276460
1048.681 .0276469
1049.262 .0276477
1049.842 .0276485
1050.422 .0276492
1051.002 .0276497
1051.582 .0276498
1052.162 .0276496
1052.742 .0276490
1053.322 .0276481
1053.902 .0276468
1054.482 .0276451
1055.061 .0276431
1055.641 .0276406
1056.220 .0276376
1056.800 .0276340
1057.379 .0276298
1057.958 .0276248
1058.538 .0276191
1059.117 .0276127
1059.696 .0276058
1060.275 .0275984
1060.854 .0275907
1061.433 .0275828
1062.012 .0275748
1062.592 .0275667
1063.171 .0275586
1063.750 .0275504
1064.329 .0275420
1064.908 .0275334
1065.487 .0275248
1066.066 .0275161
1066.645 .0275074
1067.224 .0274989
1067.803 .0274907
1068.382 .0274829
1068.961 .0274754
1069.540 .0274682
1070.119 .0274614
1070.698 .0274547
1071.278 .0274481
1071.857 .0274416
1072.436 .0274352
1073.016 .0274288
1073.595 .0274227
1074.175 .0274170
1074.754 .0274117
1075.334 .0274070
1075.913 .0274030
1076.493 .0273995
1077.073 .0273966
1077.653 .0273940
1078.233 .0273917
1078.813 .0273897
1079.393 .0273876
1079.974 .0273856
1080.554 .0273834
1081.135 .0273810
1081.716 .0273786
1082.296 .0273761
1082.877 .0273734
1083.458 .0273706
1084.040 .0273675
1084.621 .0273640
1085.202 .0273599
1085.784 .0273553
1086.366 .0273500
1086.948 .0273441
1087.530 .0273375
1088.112 .0273305
1088.695 .0273229
1089.277 .0273150
1089.860 .0273069
1090.443 .0272985
1091.026 .0272899
1091.610 .0272810
1092.193 .0272716
1092.777 .0272619
1093.361 .0272516
1093.946 .0272408
1094.530 .0272296
1095.115 .0272181
1095.700 .0272063
1096.285 .0271945
1096.871 .0271828
1097.456 .0271713
1098.042 .0271603
1098.628 .0271498
1099.215 .0271399
1099.802 .0271305
1100.389 .0271217
1100.976 .0271135
1101.564 .0271059
1102.152 .0270991
1102.740 .0270930
1103.329 .0270880
1103.917 .0270840
1104.507 .0270812
1105.096 .0270797
1105.686 .0270797
1106.276 .0270812
1106.867 .0270842
1107.457 .0270884
1108.049 .0270939
1108.640 .0271006
1109.232 .0271084
1109.825 .0271170
1110.417 .0271265
1111.010 .0271368
1111.604 .0271478
1112.198 .0271594
1112.792 .0271716
1113.387 .0271842
1113.982 .0271974
1114.577 .0272108
1115.173 .0272243
1115.769 .0272380
1116.366 .0272517
1116.963 .0272655
1117.561 .0272795
1118.159 .0272939
1118.758 .0273088
1119.357 .0273245
1119.957 .0273412
1120.557 .0273590
1121.157 .0273781
1121.758 .0273987
1122.360 .0274208
1122.962 .0274443
1123.564 .0274692
1124.167 .0274780
1124.771 .0275041
1125.375 .0275314
1125.980 .0275601
1126.585 .0275899
1127.191 .0276211
1127.797 .0276535
1128.404 .0276872
1129.012 .0277223
1129.620 .0277589
1130.229 .0277969
1130.838 .0278364
1131.448 .0278774
1132.058 .0279199
1132.669 .0279839
1133.281 .0280314
1133.894 .0280805
1134.507 .0281317
1135.120 .0281856
1135.735 .0282424
1136.350 .0282997
1136.965 .0283395
1137.582 .0283885
1138.199 .0284389
1138.816 .0284891
1139.435 .0285429
1140.054 .0285988
1140.674 .0286586
1141.294 .0287237
1141.916 .0287842
1142.538 .0288570
1143.160 .0289488
1143.784 .0290510
1144.408 .0290972
1145.033 .0289034
