Measurement Sequence started on: 14-45-04-498
Integration time: 36
Scans to Average: 2 
>>>>>Begin Spectral Data<<<<<
433.946 .0563585
434.870 .0545316
435.793 .0497149
436.715 .0483181
437.635 .0483750
438.555 .0483568
439.473 .0475690
440.389 .0469491
441.305 .0465167
442.219 .0461370
443.132 .0466322
444.044 .0460957
444.954 .0458078
445.863 .0455887
446.771 .0453624
447.678 .0451338
448.584 .0449434
449.488 .0447826
450.391 .0446412
451.293 .0445159
452.194 .0444043
453.094 .0443022
453.992 .0442067
454.890 .0441150
455.786 .0440244
456.681 .0439334
457.575 .0438418
458.468 .0437502
459.360 .0436588
460.250 .0435679
461.140 .0434779
462.028 .0433884
462.915 .0432989
463.801 .0432084
464.687 .0431155
465.571 .0430202
466.454 .0429226
467.335 .0428233
468.216 .0427238
469.096 .0426254
469.975 .0425294
470.853 .0424367
471.729 .0423477
472.605 .0422620
473.479 .0421789
474.353 .0420979
475.226 .0420178
476.097 .0419384
476.968 .0418595
477.838 .0417813
478.706 .0417048
479.574 .0416313
480.441 .0415616
481.306 .0414963
482.171 .0414358
483.035 .0413796
483.898 .0413269
484.760 .0412766
485.621 .0412275
486.481 .0411790
487.340 .0411304
488.198 .0410818
489.055 .0410334
489.912 .0409859
490.767 .0409399
491.622 .0408746
492.476 .0408328
493.329 .0407925
494.180 .0407529
495.032 .0407131
495.882 .0406720
496.731 .0406292
497.580 .0405841
498.427 .0405366
499.274 .0404872
500.120 .0404607
500.965 .0404102
501.809 .0403594
502.653 .0403089
503.495 .0402596
504.337 .0402114
505.178 .0401642
506.018 .0401180
506.858 .0400720
507.696 .0400259
508.534 .0399795
509.371 .0399323
510.208 .0398845
511.043 .0398361
511.878 .0397881
512.712 .0397405
513.545 .0396939
514.377 .0396483
515.209 .0396034
516.040 .0395587
516.870 .0395134
517.699 .0394660
518.528 .0394158
519.356 .0393623
520.183 .0393049
521.010 .0392436
521.836 .0391785
522.661 .0391103
523.485 .0390392
524.309 .0389657
525.132 .0388898
525.954 .0388113
526.776 .0387306
527.597 .0386476
528.417 .0385623
529.237 .0384753
530.056 .0383869
530.874 .0382981
531.692 .0382096
532.508 .0381224
533.325 .0380369
534.140 .0379541
534.955 .0378745
535.770 .0377986
536.583 .0377262
537.397 .0376580
538.209 .0375937
539.021 .0375335
539.832 .0374769
540.643 .0374239
541.453 .0373747
542.262 .0373294
543.071 .0372883
543.879 .0372517
544.687 .0372196
545.494 .0371919
546.300 .0371681
547.106 .0371480
547.911 .0371308
548.716 .0371159
549.520 .0371030
550.323 .0370919
551.126 .0370827
551.929 .0370757
552.731 .0370709
553.532 .0370687
554.332 .0370688
555.133 .0370709
555.932 .0370748
556.731 .0370801
557.530 .0370858
558.328 .0370916
559.125 .0370970
559.922 .0371015
560.719 .0371040
561.515 .0371046
562.310 .0371027
563.105 .0370977
563.899 .0370892
564.693 .0370767
565.487 .0370597
566.280 .0370388
567.072 .0370137
567.864 .0369847
568.655 .0369521
569.446 .0369166
570.236 .0368781
571.026 .0368374
571.816 .0367945
572.605 .0367498
573.393 .0367036
574.181 .0366566
574.969 .0366090
575.756 .0365613
576.543 .0365143
577.329 .0364685
578.115 .0364242
578.900 .0363818
579.685 .0363416
580.469 .0363039
581.253 .0362690
582.036 .0362371
582.820 .0362080
583.602 .0361817
584.384 .0361577
585.166 .0361356
585.947 .0361150
586.728 .0360954
587.509 .0360766
588.289 .0360582
589.069 .0360403
589.848 .0360224
590.627 .0360045
591.405 .0359867
592.183 .0359689
592.961 .0359509
593.738 .0359326
594.515 .0359140
595.291 .0358949
596.067 .0358753
596.843 .0358553
597.618 .0358347
598.393 .0358017
599.167 .0357799
599.941 .0357577
600.715 .0357352
601.488 .0357126
602.261 .0356902
603.034 .0356682
603.806 .0356466
604.578 .0356257
605.349 .0356054
606.121 .0355857
606.891 .0355776
607.662 .0355588
608.432 .0355405
609.201 .0355226
609.971 .0355052
610.740 .0354883
611.508 .0354720
612.277 .0354563
613.045 .0354411
613.812 .0354265
614.579 .0354123
615.346 .0353985
616.113 .0353848
616.879 .0353711
617.645 .0353574
618.411 .0353433
619.176 .0353289
619.941 .0353139
620.705 .0352982
621.470 .0352818
622.233 .0352646
622.997 .0352467
623.760 .0352281
624.523 .0352090
625.286 .0351894
626.048 .0351692
626.810 .0351484
627.572 .0351271
628.333 .0351052
629.095 .0350826
629.855 .0350595
630.616 .0350356
631.376 .0350113
632.136 .0349867
632.895 .0349618
633.655 .0349370
634.414 .0349123
635.172 .0348876
635.931 .0348632
636.689 .0348390
637.447 .0348149
638.204 .0347912
638.962 .0347678
639.718 .0347448
640.475 .0347222
641.231 .0347002
641.988 .0346787
642.743 .0346579
643.499 .0346378
644.254 .0346183
645.009 .0345995
645.764 .0345812
646.518 .0345634
647.272 .0345460
648.026 .0345291
648.780 .0345124
649.533 .0344959
650.286 .0344795
651.039 .0344632
651.792 .0344469
652.544 .0344306
653.296 .0344143
654.048 .0343981
654.799 .0343818
655.550 .0343654
656.301 .0343488
657.052 .0343320
657.802 .0343149
658.552 .0342976
659.302 .0342799
660.052 .0342619
660.801 .0342437
661.550 .0342254
662.299 .0342070
663.048 .0341885
663.796 .0341702
664.544 .0341520
665.292 .0341339
666.040 .0341161
666.787 .0340985
667.534 .0340814
668.281 .0340646
669.028 .0340483
669.774 .0340325
670.521 .0340171
671.266 .0340023
672.012 .0339880
672.758 .0339741
673.503 .0339606
674.248 .0339476
674.992 .0339350
675.737 .0339229
676.481 .0339110
677.225 .0338996
677.969 .0338883
678.712 .0338773
679.455 .0338664
680.199 .0338556
680.941 .0338449
681.684 .0338342
682.426 .0338234
683.168 .0338126
683.910 .0338016
684.652 .0337903
685.393 .0337787
686.134 .0337667
686.875 .0337544
687.616 .0337417
688.356 .0337285
689.097 .0337150
689.837 .0337012
690.576 .0336871
691.316 .0336727
692.055 .0336580
692.794 .0336429
693.533 .0336275
694.272 .0336117
695.010 .0335957
695.748 .0335795
696.486 .0335632
697.224 .0335468
697.962 .0335303
698.699 .0335139
699.436 .0334975
700.173 .0334811
700.909 .0334647
701.646 .0334483
702.382 .0334318
703.118 .0334152
703.853 .0333985
704.589 .0333817
705.324 .0333649
706.059 .0333480
706.794 .0333310
707.529 .0333139
708.263 .0332967
708.997 .0332795
709.731 .0332622
710.465 .0332449
711.198 .0332274
711.931 .0332099
712.664 .0331921
713.397 .0331741
714.130 .0331559
714.862 .0331374
715.594 .0331187
716.326 .0330998
717.058 .0330809
717.789 .0330618
718.520 .0330429
719.251 .0330240
719.982 .0330054
720.713 .0329870
721.443 .0329688
722.173 .0329510
722.903 .0329335
723.633 .0329165
724.362 .0329000
725.091 .0328842
725.820 .0328689
726.549 .0328541
727.278 .0328399
728.006 .0328262
728.734 .0328129
729.462 .0327999
730.190 .0327872
730.917 .0327747
731.644 .0327624
732.371 .0327501
733.098 .0327380
733.825 .0327260
734.551 .0327142
735.277 .0327023
736.003 .0326906
736.728 .0326787
737.454 .0326669
738.179 .0326550
738.904 .0326431
739.629 .0326312
740.353 .0326192
741.077 .0326071
741.801 .0325950
742.525 .0325827
743.249 .0325702
743.972 .0325575
744.695 .0325446
745.418 .0325314
746.141 .0325180
746.863 .0325043
747.585 .0324902
748.307 .0324758
749.029 .0324611
749.750 .0324459
750.472 .0324303
751.193 .0324142
751.913 .0323978
752.634 .0323809
753.354 .0323637
754.074 .0323461
754.794 .0323283
755.514 .0323102
756.233 .0322917
756.952 .0322730
757.671 .0322540
758.390 .0322348
759.108 .0322153
759.826 .0321958
760.544 .0321762
761.262 .0321566
761.979 .0321371
762.697 .0321179
763.414 .0320989
764.130 .0320803
764.847 .0320621
765.563 .0320444
766.279 .0320270
766.995 .0320102
767.710 .0319936
768.426 .0319775
769.141 .0319617
769.855 .0319463
770.570 .0319310
771.284 .0319160
771.998 .0319012
772.712 .0318867
773.426 .0318723
774.139 .0318580
774.852 .0318439
775.565 .0318299
776.277 .0318159
776.990 .0318020
777.702 .0317881
778.414 .0317743
779.125 .0317606
779.836 .0317470
780.547 .0317336
781.258 .0317204
781.969 .0317074
782.679 .0316947
783.389 .0316769
784.099 .0316649
784.808 .0316530
785.517 .0316413
786.226 .0316299
786.935 .0316186
787.643 .0316076
788.352 .0315966
789.060 .0315858
789.767 .0315751
790.475 .0315645
791.182 .0315539
791.889 .0315483
792.595 .0315376
793.301 .0315269
794.008 .0315160
794.713 .0315050
795.419 .0314937
796.124 .0314820
796.829 .0314700
797.534 .0314574
798.238 .0314443
798.942 .0314306
799.646 .0314164
800.350 .0314018
801.053 .0313866
801.756 .0313710
802.459 .0313551
803.162 .0313388
803.864 .0313221
804.566 .0313051
805.267 .0312878
805.969 .0312702
806.670 .0312523
807.371 .0312342
808.071 .0312159
808.772 .0311974
809.472 .0311787
810.171 .0311598
810.871 .0311406
811.570 .0311211
812.269 .0311013
812.967 .0310812
813.666 .0310609
814.364 .0310402
815.061 .0310194
815.759 .0309983
816.456 .0309771
817.153 .0309557
817.849 .0309341
818.545 .0309123
819.241 .0308903
819.937 .0308683
820.632 .0308463
821.327 .0308243
822.022 .0308026
822.717 .0307810
823.411 .0307597
824.105 .0307386
824.798 .0307178
825.491 .0306972
826.184 .0306768
826.877 .0306567
827.569 .0306369
828.261 .0306177
828.953 .0305991
829.645 .0305812
830.336 .0305641
831.027 .0305478
831.717 .0305325
832.407 .0305180
833.097 .0305044
833.787 .0304915
834.476 .0304795
835.165 .0304683
835.854 .0304579
836.542 .0304482
837.230 .0304393
837.918 .0304310
838.605 .0304232
839.292 .0304157
839.979 .0304085
840.665 .0304013
841.352 .0303941
842.037 .0303868
842.723 .0303793
843.408 .0303717
844.093 .0303639
844.777 .0303557
845.462 .0303472
846.145 .0303382
846.829 .0303287
847.512 .0303184
848.195 .0303075
848.878 .0302958
849.560 .0302834
850.242 .0302704
850.923 .0302568
851.605 .0302427
852.286 .0302280
852.966 .0302128
853.646 .0301970
854.326 .0301806
855.006 .0301636
855.685 .0301461
856.364 .0301281
857.043 .0301099
857.721 .0300915
858.399 .0300731
859.077 .0300548
859.754 .0300368
860.431 .0300190
861.107 .0300015
861.784 .0299844
862.459 .0299675
863.135 .0299509
863.810 .0299346
864.485 .0299184
865.160 .0299025
865.834 .0298868
866.508 .0298712
867.181 .0298555
867.854 .0298398
868.527 .0298240
869.199 .0298079
869.872 .0297915
870.543 .0297748
871.215 .0297579
871.886 .0297405
872.557 .0297230
873.227 .0297051
873.897 .0296870
874.567 .0296687
875.236 .0296502
875.905 .0296314
876.573 .0296123
877.242 .0295930
877.909 .0295734
878.577 .0295537
879.244 .0295338
879.911 .0295138
880.577 .0294938
881.243 .0294738
881.909 .0294539
882.575 .0294340
883.240 .0294144
883.904 .0293950
884.569 .0293759
885.232 .0293571
885.896 .0293387
886.559 .0293209
887.222 .0293036
887.885 .0292868
888.547 .0292707
889.208 .0292552
889.870 .0292402
890.531 .0292259
891.192 .0292120
891.852 .0291987
892.512 .0291858
893.171 .0291733
893.830 .0291613
894.489 .0291496
895.148 .0291384
895.806 .0291275
896.464 .0291172
897.121 .0291074
897.778 .0290981
898.434 .0290893
899.091 .0290784
899.747 .0290707
900.402 .0290633
901.057 .0290562
901.712 .0290495
902.366 .0290431
903.020 .0290370
903.674 .0290312
904.327 .0290257
904.980 .0290205
905.633 .0290153
906.285 .0290102
906.936 .0290048
907.588 .0290015
908.239 .0289956
908.889 .0289892
909.540 .0289825
910.190 .0289754
910.839 .0289679
911.488 .0289600
912.137 .0289517
912.785 .0289429
913.433 .0289336
914.081 .0289239
914.728 .0289136
915.375 .0289028
916.021 .0288915
916.668 .0288798
917.313 .0288678
917.959 .0288555
918.604 .0288431
919.248 .0288306
919.892 .0288179
920.536 .0288052
921.180 .0287923
921.823 .0287792
922.465 .0287660
923.108 .0287527
923.750 .0287393
924.391 .0287259
925.032 .0287125
925.673 .0286991
926.313 .0286858
926.953 .0286725
927.593 .0286592
928.232 .0286457
928.871 .0286320
929.510 .0286180
930.148 .0286037
930.786 .0285891
931.423 .0285742
932.060 .0285591
932.697 .0285436
933.333 .0285280
933.969 .0285120
934.604 .0284958
935.239 .0284792
935.874 .0284621
936.508 .0284445
937.142 .0284262
937.776 .0284073
938.409 .0283878
939.042 .0283677
939.674 .0283470
940.306 .0283259
940.938 .0283043
941.569 .0282824
942.200 .0282601
942.830 .0282374
943.460 .0282145
944.090 .0281913
944.720 .0281678
945.349 .0281442
945.977 .0281205
946.606 .0280967
947.233 .0280730
947.861 .0280494
948.488 .0280260
949.115 .0280027
949.741 .0279796
950.367 .0279568
950.993 .0279341
951.618 .0279116
952.243 .0278895
952.868 .0278676
953.492 .0278462
954.115 .0278253
954.739 .0278048
955.362 .0277849
955.984 .0277655
956.607 .0277468
957.229 .0277285
957.850 .0277109
958.471 .0276938
959.092 .0276773
959.713 .0276614
960.333 .0276460
960.952 .0276312
961.572 .0276169
962.191 .0276032
962.809 .0275899
963.428 .0275772
964.045 .0275648
964.663 .0275528
965.280 .0275411
965.897 .0275298
966.513 .0275188
967.129 .0275081
967.745 .0274978
968.361 .0274877
968.976 .0274779
969.590 .0274685
970.205 .0274595
970.818 .0274508
971.432 .0274424
972.045 .0274344
972.658 .0274266
973.271 .0274192
973.883 .0274119
974.495 .0274048
975.106 .0273978
975.717 .0273910
976.328 .0273843
976.938 .0273778
977.548 .0273714
978.158 .0273652
978.768 .0273566
979.377 .0273506
979.985 .0273446
980.594 .0273386
981.202 .0273327
981.809 .0273269
982.417 .0273212
983.024 .0273156
983.631 .0273101
984.237 .0273046
984.843 .0272993
985.449 .0272939
986.054 .0272886
986.659 .0272832
987.264 .0272801
987.868 .0272746
988.472 .0272690
989.076 .0272633
989.679 .0272575
990.282 .0272517
990.885 .0272458
991.487 .0272398
992.090 .0272338
992.691 .0272278
993.293 .0272218
993.894 .0272160
994.495 .0272102
995.095 .0272047
995.696 .0271994
996.296 .0271944
996.895 .0271898
997.494 .0271855
998.093 .0271816
998.692 .0271782
999.291 .0271750
999.889 .0271720
1000.487 .0271693
1001.084 .0271667
1001.681 .0271643
1002.278 .0271619
1002.875 .0271597
1003.471 .0271575
1004.067 .0271554
1004.663 .0271534
1005.258 .0271515
1005.854 .0271497
1006.449 .0271478
1007.043 .0271460
1007.638 .0271442
1008.232 .0271425
1008.826 .0271407
1009.419 .0271391
1010.012 .0271375
1010.605 .0271361
1011.198 .0271347
1011.791 .0271335
1012.383 .0271323
1012.975 .0271312
1013.566 .0271300
1014.158 .0271287
1014.749 .0271273
1015.340 .0271257
1015.931 .0271238
1016.521 .0271216
1017.111 .0271192
1017.701 .0271164
1018.291 .0271134
1018.880 .0271101
1019.470 .0271066
1020.059 .0271029
1020.647 .0270991
1021.236 .0270952
1021.824 .0270911
1022.412 .0270869
1023.000 .0270826
1023.588 .0270782
1024.175 .0270737
1024.762 .0270692
1025.349 .0270648
1025.936 .0270603
1026.523 .0270558
1027.109 .0270513
1027.695 .0270467
1028.281 .0270420
1028.867 .0270372
1029.452 .0270321
1030.038 .0270268
1030.623 .0270212
1031.208 .0270155
1031.792 .0270096
1032.377 .0270035
1032.961 .0269973
1033.546 .0269909
1034.130 .0269845
1034.714 .0269779
1035.297 .0269713
1035.881 .0269647
1036.464 .0269582
1037.047 .0269518
1037.630 .0269456
1038.213 .0269395
1038.796 .0269337
1039.378 .0269280
1039.961 .0269224
1040.543 .0269170
1041.125 .0269115
1041.707 .0269062
1042.289 .0269008
1042.871 .0268953
1043.452 .0268898
1044.034 .0268843
1044.615 .0268789
1045.196 .0268734
1045.777 .0268680
1046.358 .0268625
1046.939 .0268569
1047.520 .0268513
1048.101 .0268455
1048.681 .0268395
1049.262 .0268334
1049.842 .0268272
1050.422 .0268208
1051.002 .0268144
1051.582 .0268079
1052.162 .0268013
1052.742 .0267947
1053.322 .0267878
1053.902 .0267806
1054.482 .0267731
1055.061 .0267654
1055.641 .0267574
1056.220 .0267492
1056.800 .0267410
1057.379 .0267328
1057.958 .0267247
1058.538 .0267168
1059.117 .0267091
1059.696 .0267017
1060.275 .0266946
1060.854 .0266876
1061.433 .0266809
1062.012 .0266744
1062.592 .0266680
1063.171 .0266618
1063.750 .0266558
1064.329 .0266499
1064.908 .0266442
1065.487 .0266389
1066.066 .0266339
1066.645 .0266294
1067.224 .0266254
1067.803 .0266220
1068.382 .0266193
1068.961 .0266171
1069.540 .0266154
1070.119 .0266139
1070.698 .0266127
1071.278 .0266115
1071.857 .0266104
1072.436 .0266093
1073.016 .0266083
1073.595 .0266076
1074.175 .0266071
1074.754 .0266067
1075.334 .0266063
1075.913 .0266059
1076.493 .0266050
1077.073 .0266038
1077.653 .0266019
1078.233 .0265994
1078.813 .0265965
1079.393 .0265936
1079.974 .0265908
1080.554 .0265885
1081.135 .0265867
1081.716 .0265856
1082.296 .0265848
1082.877 .0265843
1083.458 .0265839
1084.040 .0265834
1084.621 .0265829
1085.202 .0265825
1085.784 .0265823
1086.366 .0265827
1086.948 .0265839
1087.530 .0265863
1088.112 .0265898
1088.695 .0265942
1089.277 .0265993
1089.860 .0266046
1090.443 .0266100
1091.026 .0266151
1091.610 .0266200
1092.193 .0266248
1092.777 .0266296
1093.361 .0266348
1093.946 .0266403
1094.530 .0266462
1095.115 .0266523
1095.700 .0266583
1096.285 .0266636
1096.871 .0266679
1097.456 .0266709
1098.042 .0266725
1098.628 .0266732
1099.215 .0266731
1099.802 .0266727
1100.389 .0266725
1100.976 .0266727
1101.564 .0266734
1102.152 .0266747
1102.740 .0266764
1103.329 .0266786
1103.917 .0266811
1104.507 .0266839
1105.096 .0266872
1105.686 .0266912
1106.276 .0266961
1106.867 .0267021
1107.457 .0267092
1108.049 .0267173
1108.640 .0267263
1109.232 .0267360
1109.825 .0267460
1110.417 .0267563
1111.010 .0267670
1111.604 .0267782
1112.198 .0267903
1112.792 .0268033
1113.387 .0268177
1113.982 .0268335
1114.577 .0268510
1115.173 .0268700
1115.769 .0268904
1116.366 .0269120
1116.963 .0269347
1117.561 .0269583
1118.159 .0269830
1118.758 .0270085
1119.357 .0270349
1119.957 .0270624
1120.557 .0270907
1121.157 .0271197
1121.758 .0271491
1122.360 .0271788
1122.962 .0272083
1123.564 .0272376
1124.167 .0272493
1124.771 .0272778
1125.375 .0273062
1125.980 .0273346
1126.585 .0273633
1127.191 .0273925
1127.797 .0274224
1128.404 .0274531
1129.012 .0274847
1129.620 .0275168
1130.229 .0275495
1130.838 .0275826
1131.448 .0276163
1132.058 .0276504
1132.669 .0277030
1133.281 .0277378
1133.894 .0277730
1134.507 .0278112
1135.120 .0278452
1135.735 .0278713
1136.350 .0279057
1136.965 .0279365
1137.582 .0279703
1138.199 .0280018
1138.816 .0280331
1139.435 .0280671
1140.054 .0280978
1140.674 .0281219
1141.294 .0281506
1141.916 .0281907
1142.538 .0283056
1143.160 .0282316
1143.784 .0280651
1144.408 .0283393
1145.033 .0287180
