Measurement Sequence started on: 14-45-04-498
Integration time: 36
Scans to Average: 2 
>>>>>Begin Spectral Data<<<<<
433.946 .0475452
434.870 .0510292
435.793 .0477479
436.715 .0458816
437.635 .0429359
438.555 .0433711
439.473 .0424353
440.389 .0415479
441.305 .0408961
442.219 .0403985
443.132 .0417707
444.044 .0411846
444.954 .0407687
445.863 .0404466
446.771 .0402739
447.678 .0400720
448.584 .0399124
449.488 .0397922
450.391 .0396989
451.293 .0396240
452.194 .0395588
453.094 .0394980
453.992 .0394367
454.890 .0393704
455.786 .0392950
456.681 .0392073
457.575 .0391054
458.468 .0389906
459.360 .0388641
460.250 .0387289
461.140 .0385874
462.028 .0384422
462.915 .0382961
463.801 .0381508
464.687 .0380073
465.571 .0378667
466.454 .0377297
467.335 .0375967
468.216 .0374680
469.096 .0373445
469.975 .0372267
470.853 .0371148
471.729 .0370091
472.605 .0369096
473.479 .0368161
474.353 .0367287
475.226 .0366471
476.097 .0365714
476.968 .0365015
477.838 .0364372
478.706 .0363780
479.574 .0363232
480.441 .0362725
481.306 .0362251
482.171 .0361803
483.035 .0361377
483.898 .0360966
484.760 .0360570
485.621 .0360186
486.481 .0359816
487.340 .0359461
488.198 .0359119
489.055 .0358791
489.912 .0358475
490.767 .0358166
491.622 .0357684
492.476 .0357361
493.329 .0357027
494.180 .0356678
495.032 .0356314
495.882 .0355937
496.731 .0355545
497.580 .0355142
498.427 .0354727
499.274 .0354300
500.120 .0354066
500.965 .0353619
501.809 .0353158
502.653 .0352685
503.495 .0352198
504.337 .0351699
505.178 .0351192
506.018 .0350677
506.858 .0350153
507.696 .0349620
508.534 .0349079
509.371 .0348534
510.208 .0347987
511.043 .0347445
511.878 .0346917
512.712 .0346411
513.545 .0345934
514.377 .0345492
515.209 .0345090
516.040 .0344735
516.870 .0344424
517.699 .0344160
518.528 .0343938
519.356 .0343760
520.183 .0343622
521.010 .0343528
521.836 .0343476
522.661 .0343462
523.485 .0343483
524.309 .0343538
525.132 .0343627
525.954 .0343740
526.776 .0343867
527.597 .0344005
528.417 .0344136
529.237 .0344247
530.056 .0344320
530.874 .0344347
531.692 .0344316
532.508 .0344226
533.325 .0344071
534.140 .0343857
534.955 .0343591
535.770 .0343284
536.583 .0342940
537.397 .0342567
538.209 .0342166
539.021 .0341734
539.832 .0341268
540.643 .0340771
541.453 .0340232
542.262 .0339657
543.071 .0339055
543.879 .0338436
544.687 .0337809
545.494 .0337188
546.300 .0336584
547.106 .0336006
547.911 .0335458
548.716 .0334939
549.520 .0334445
550.323 .0333976
551.126 .0333528
551.929 .0333093
552.731 .0332670
553.532 .0332258
554.332 .0331852
555.133 .0331451
555.932 .0331063
556.731 .0330690
557.530 .0330332
558.328 .0329998
559.125 .0329689
559.922 .0329404
560.719 .0329136
561.515 .0328883
562.310 .0328637
563.105 .0328389
563.899 .0328137
564.693 .0327874
565.487 .0327606
566.280 .0327333
567.072 .0327057
567.864 .0326782
568.655 .0326511
569.446 .0326240
570.236 .0325968
571.026 .0325690
571.816 .0325404
572.605 .0325105
573.393 .0324792
574.181 .0324465
574.969 .0324127
575.756 .0323779
576.543 .0323426
577.329 .0323071
578.115 .0322718
578.900 .0322368
579.685 .0322023
580.469 .0321685
581.253 .0321357
582.036 .0321040
582.820 .0320737
583.602 .0320449
584.384 .0320177
585.166 .0319923
585.947 .0319687
586.728 .0319470
587.509 .0319272
588.289 .0319091
589.069 .0318927
589.848 .0318779
590.627 .0318643
591.405 .0318516
592.183 .0318395
592.961 .0318278
593.738 .0318166
594.515 .0318057
595.291 .0317953
596.067 .0317855
596.843 .0317764
597.618 .0317678
598.393 .0317545
599.167 .0317462
599.941 .0317377
600.715 .0317289
601.488 .0317196
602.261 .0317100
603.034 .0317000
603.806 .0316899
604.578 .0316800
605.349 .0316703
606.121 .0316610
606.891 .0316575
607.662 .0316485
608.432 .0316397
609.201 .0316310
609.971 .0316221
610.740 .0316130
611.508 .0316036
612.277 .0315937
613.045 .0315835
613.812 .0315729
614.579 .0315619
615.346 .0315506
616.113 .0315390
616.879 .0315271
617.645 .0315148
618.411 .0315020
619.176 .0314888
619.941 .0314750
620.705 .0314606
621.470 .0314455
622.233 .0314299
622.997 .0314137
623.760 .0313971
624.523 .0313804
625.286 .0313636
626.048 .0313470
626.810 .0313307
627.572 .0313148
628.333 .0312993
629.095 .0312845
629.855 .0312701
630.616 .0312563
631.376 .0312430
632.136 .0312301
632.895 .0312177
633.655 .0312058
634.414 .0311942
635.172 .0311830
635.931 .0311722
636.689 .0311616
637.447 .0311512
638.204 .0311407
638.962 .0311303
639.718 .0311197
640.475 .0311089
641.231 .0310979
641.988 .0310866
642.743 .0310749
643.499 .0310629
644.254 .0310504
645.009 .0310375
645.764 .0310241
646.518 .0310101
647.272 .0309955
648.026 .0309804
648.780 .0309647
649.533 .0309485
650.286 .0309320
651.039 .0309153
651.792 .0308984
652.544 .0308815
653.296 .0308646
654.048 .0308478
654.799 .0308312
655.550 .0308149
656.301 .0307988
657.052 .0307831
657.802 .0307677
658.552 .0307528
659.302 .0307383
660.052 .0307242
660.801 .0307106
661.550 .0306974
662.299 .0306847
663.048 .0306723
663.796 .0306603
664.544 .0306487
665.292 .0306375
666.040 .0306266
666.787 .0306159
667.534 .0306055
668.281 .0305951
669.028 .0305849
669.774 .0305746
670.521 .0305644
671.266 .0305541
672.012 .0305438
672.758 .0305336
673.503 .0305234
674.248 .0305133
674.992 .0305032
675.737 .0304933
676.481 .0304833
677.225 .0304733
677.969 .0304634
678.712 .0304534
679.455 .0304435
680.199 .0304337
680.941 .0304241
681.684 .0304148
682.426 .0304057
683.168 .0303970
683.910 .0303886
684.652 .0303805
685.393 .0303727
686.134 .0303650
686.875 .0303574
687.616 .0303498
688.356 .0303422
689.097 .0303344
689.837 .0303265
690.576 .0303184
691.316 .0303100
692.055 .0303015
692.794 .0302928
693.533 .0302837
694.272 .0302744
695.010 .0302647
695.748 .0302548
696.486 .0302446
697.224 .0302341
697.962 .0302235
698.699 .0302127
699.436 .0302017
700.173 .0301907
700.909 .0301797
701.646 .0301687
702.382 .0301577
703.118 .0301469
703.853 .0301362
704.589 .0301255
705.324 .0301150
706.059 .0301046
706.794 .0300944
707.529 .0300842
708.263 .0300741
708.997 .0300642
709.731 .0300544
710.465 .0300447
711.198 .0300352
711.931 .0300257
712.664 .0300163
713.397 .0300068
714.130 .0299972
714.862 .0299873
715.594 .0299771
716.326 .0299664
717.058 .0299553
717.789 .0299437
718.520 .0299317
719.251 .0299195
719.982 .0299069
720.713 .0298942
721.443 .0298813
722.173 .0298682
722.903 .0298552
723.633 .0298422
724.362 .0298291
725.091 .0298162
725.820 .0298034
726.549 .0297906
727.278 .0297779
728.006 .0297653
728.734 .0297529
729.462 .0297407
730.190 .0297286
730.917 .0297168
731.644 .0297054
732.371 .0296942
733.098 .0296834
733.825 .0296728
734.551 .0296625
735.277 .0296522
736.003 .0296419
736.728 .0296317
737.454 .0296214
738.179 .0296110
738.904 .0296007
739.629 .0295903
740.353 .0295798
741.077 .0295695
741.801 .0295591
742.525 .0295488
743.249 .0295385
743.972 .0295282
744.695 .0295178
745.418 .0295072
746.141 .0294965
746.863 .0294856
747.585 .0294745
748.307 .0294631
749.029 .0294515
749.750 .0294395
750.472 .0294273
751.193 .0294149
751.913 .0294023
752.634 .0293897
753.354 .0293769
754.074 .0293639
754.794 .0293509
755.514 .0293377
756.233 .0293244
756.952 .0293110
757.671 .0292973
758.390 .0292835
759.108 .0292694
759.826 .0292552
760.544 .0292410
761.262 .0292267
761.979 .0292124
762.697 .0291982
763.414 .0291842
764.130 .0291702
764.847 .0291565
765.563 .0291429
766.279 .0291296
766.995 .0291165
767.710 .0291038
768.426 .0290914
769.141 .0290794
769.855 .0290679
770.570 .0290569
771.284 .0290464
771.998 .0290365
772.712 .0290270
773.426 .0290181
774.139 .0290097
774.852 .0290017
775.565 .0289943
776.277 .0289873
776.990 .0289807
777.702 .0289745
778.414 .0289687
779.125 .0289632
779.836 .0289580
780.547 .0289531
781.258 .0289483
781.969 .0289437
782.679 .0289391
783.389 .0289316
784.099 .0289264
784.808 .0289209
785.517 .0289150
786.226 .0289086
786.935 .0289017
787.643 .0288942
788.352 .0288864
789.060 .0288780
789.767 .0288691
790.475 .0288597
791.182 .0288497
791.889 .0288428
792.595 .0288319
793.301 .0288203
794.008 .0288080
794.713 .0287951
795.419 .0287816
796.124 .0287676
796.829 .0287532
797.534 .0287384
798.238 .0287234
798.942 .0287082
799.646 .0286929
800.350 .0286776
801.053 .0286623
801.756 .0286472
802.459 .0286322
803.162 .0286173
803.864 .0286027
804.566 .0285883
805.267 .0285741
805.969 .0285601
806.670 .0285465
807.371 .0285331
808.071 .0285201
808.772 .0285075
809.472 .0284953
810.171 .0284834
810.871 .0284719
811.570 .0284606
812.269 .0284496
812.967 .0284388
813.666 .0284282
814.364 .0284177
815.061 .0284073
815.759 .0283970
816.456 .0283868
817.153 .0283766
817.849 .0283663
818.545 .0283560
819.241 .0283456
819.937 .0283351
820.632 .0283245
821.327 .0283139
822.022 .0283032
822.717 .0282926
823.411 .0282819
824.105 .0282712
824.798 .0282604
825.491 .0282495
826.184 .0282385
826.877 .0282274
827.569 .0282164
828.261 .0282054
828.953 .0281945
829.645 .0281838
830.336 .0281732
831.027 .0281628
831.717 .0281526
832.407 .0281425
833.097 .0281326
833.787 .0281227
834.476 .0281129
835.165 .0281033
835.854 .0280939
836.542 .0280847
837.230 .0280755
837.918 .0280664
838.605 .0280574
839.292 .0280483
839.979 .0280392
840.665 .0280301
841.352 .0280211
842.037 .0280122
842.723 .0280034
843.408 .0279949
844.093 .0279866
844.777 .0279784
845.462 .0279702
846.145 .0279621
846.829 .0279539
847.512 .0279455
848.195 .0279368
848.878 .0279278
849.560 .0279184
850.242 .0279086
850.923 .0278984
851.605 .0278876
852.286 .0278763
852.966 .0278644
853.646 .0278518
854.326 .0278385
855.006 .0278245
855.685 .0278098
856.364 .0277944
857.043 .0277783
857.721 .0277615
858.399 .0277440
859.077 .0277260
859.754 .0277076
860.431 .0276887
861.107 .0276696
861.784 .0276502
862.459 .0276307
863.135 .0276111
863.810 .0275914
864.485 .0275719
865.160 .0275524
865.834 .0275332
866.508 .0275142
867.181 .0274956
867.854 .0274774
868.527 .0274597
869.199 .0274424
869.872 .0274258
870.543 .0274097
871.215 .0273941
871.886 .0273792
872.557 .0273649
873.227 .0273512
873.897 .0273381
874.567 .0273255
875.236 .0273134
875.905 .0273017
876.573 .0272902
877.242 .0272787
877.909 .0272672
878.577 .0272557
879.244 .0272442
879.911 .0272326
880.577 .0272210
881.243 .0272094
881.909 .0271979
882.575 .0271865
883.240 .0271751
883.904 .0271639
884.569 .0271526
885.232 .0271415
885.896 .0271305
886.559 .0271197
887.222 .0271092
887.885 .0270989
888.547 .0270890
889.208 .0270794
889.870 .0270702
890.531 .0270614
891.192 .0270528
891.852 .0270446
892.512 .0270367
893.171 .0270291
893.830 .0270218
894.489 .0270148
895.148 .0270080
895.806 .0270014
896.464 .0269950
897.121 .0269887
897.778 .0269826
898.434 .0269765
899.091 .0269678
899.747 .0269620
900.402 .0269564
901.057 .0269509
901.712 .0269455
902.366 .0269402
903.020 .0269348
903.674 .0269293
904.327 .0269236
904.980 .0269178
905.633 .0269118
906.285 .0269057
906.936 .0268994
907.588 .0268958
908.239 .0268894
908.889 .0268830
909.540 .0268765
910.190 .0268698
910.839 .0268631
911.488 .0268563
912.137 .0268494
912.785 .0268424
913.433 .0268354
914.081 .0268283
914.728 .0268213
915.375 .0268142
916.021 .0268071
916.668 .0267998
917.313 .0267924
917.959 .0267848
918.604 .0267769
919.248 .0267687
919.892 .0267602
920.536 .0267513
921.180 .0267421
921.823 .0267325
922.465 .0267225
923.108 .0267120
923.750 .0267010
924.391 .0266895
925.032 .0266775
925.673 .0266649
926.313 .0266517
926.953 .0266380
927.593 .0266238
928.232 .0266089
928.871 .0265935
929.510 .0265776
930.148 .0265611
930.786 .0265442
931.423 .0265267
932.060 .0265088
932.697 .0264906
933.333 .0264720
933.969 .0264531
934.604 .0264340
935.239 .0264147
935.874 .0263952
936.508 .0263756
937.142 .0263558
937.776 .0263359
938.409 .0263160
939.042 .0262962
939.674 .0262765
940.306 .0262568
940.938 .0262373
941.569 .0262178
942.200 .0261985
942.830 .0261792
943.460 .0261599
944.090 .0261406
944.720 .0261213
945.349 .0261020
945.977 .0260828
946.606 .0260636
947.233 .0260444
947.861 .0260251
948.488 .0260056
949.115 .0259860
949.741 .0259662
950.367 .0259461
950.993 .0259258
951.618 .0259052
952.243 .0258844
952.868 .0258634
953.492 .0258423
954.115 .0258211
954.739 .0258000
955.362 .0257788
955.984 .0257578
956.607 .0257369
957.229 .0257164
957.850 .0256963
958.471 .0256768
959.092 .0256578
959.713 .0256395
960.333 .0256219
960.952 .0256049
961.572 .0255887
962.191 .0255732
962.809 .0255584
963.428 .0255445
964.045 .0255314
964.663 .0255194
965.280 .0255085
965.897 .0254985
966.513 .0254897
967.129 .0254817
967.745 .0254746
968.361 .0254684
968.976 .0254629
969.590 .0254581
970.205 .0254541
970.818 .0254508
971.432 .0254482
972.045 .0254462
972.658 .0254448
973.271 .0254438
973.883 .0254431
974.495 .0254425
975.106 .0254418
975.717 .0254410
976.328 .0254400
976.938 .0254387
977.548 .0254373
978.158 .0254358
978.768 .0254325
979.377 .0254310
979.985 .0254295
980.594 .0254281
981.202 .0254266
981.809 .0254251
982.417 .0254237
983.024 .0254223
983.631 .0254212
984.237 .0254204
984.843 .0254199
985.449 .0254200
986.054 .0254206
986.659 .0254217
987.264 .0254241
987.868 .0254260
988.472 .0254280
989.076 .0254303
989.679 .0254326
990.282 .0254351
990.885 .0254379
991.487 .0254408
992.090 .0254442
992.691 .0254478
993.293 .0254517
993.894 .0254558
994.495 .0254601
995.095 .0254644
995.696 .0254685
996.296 .0254725
996.895 .0254762
997.494 .0254796
998.093 .0254827
998.692 .0254857
999.291 .0254884
999.889 .0254908
1000.487 .0254929
1001.084 .0254946
1001.681 .0254958
1002.278 .0254966
1002.875 .0254968
1003.471 .0254966
1004.067 .0254959
1004.663 .0254950
1005.258 .0254937
1005.854 .0254924
1006.449 .0254909
1007.043 .0254894
1007.638 .0254879
1008.232 .0254864
1008.826 .0254848
1009.419 .0254833
1010.012 .0254819
1010.605 .0254806
1011.198 .0254795
1011.791 .0254787
1012.383 .0254782
1012.975 .0254779
1013.566 .0254779
1014.158 .0254781
1014.749 .0254784
1015.340 .0254789
1015.931 .0254794
1016.521 .0254798
1017.111 .0254803
1017.701 .0254807
1018.291 .0254811
1018.880 .0254814
1019.470 .0254816
1020.059 .0254817
1020.647 .0254815
1021.236 .0254811
1021.824 .0254804
1022.412 .0254795
1023.000 .0254782
1023.588 .0254766
1024.175 .0254747
1024.762 .0254726
1025.349 .0254702
1025.936 .0254677
1026.523 .0254650
1027.109 .0254622
1027.695 .0254591
1028.281 .0254559
1028.867 .0254524
1029.452 .0254488
1030.038 .0254450
1030.623 .0254411
1031.208 .0254371
1031.792 .0254330
1032.377 .0254289
1032.961 .0254249
1033.546 .0254208
1034.130 .0254168
1034.714 .0254128
1035.297 .0254088
1035.881 .0254048
1036.464 .0254010
1037.047 .0253973
1037.630 .0253938
1038.213 .0253906
1038.796 .0253875
1039.378 .0253847
1039.961 .0253820
1040.543 .0253794
1041.125 .0253768
1041.707 .0253741
1042.289 .0253713
1042.871 .0253683
1043.452 .0253651
1044.034 .0253616
1044.615 .0253579
1045.196 .0253539
1045.777 .0253497
1046.358 .0253452
1046.939 .0253405
1047.520 .0253355
1048.101 .0253302
1048.681 .0253247
1049.262 .0253191
1049.842 .0253134
1050.422 .0253076
1051.002 .0253017
1051.582 .0252957
1052.162 .0252897
1052.742 .0252835
1053.322 .0252772
1053.902 .0252707
1054.482 .0252641
1055.061 .0252574
1055.641 .0252507
1056.220 .0252442
1056.800 .0252380
1057.379 .0252320
1057.958 .0252263
1058.538 .0252209
1059.117 .0252158
1059.696 .0252108
1060.275 .0252059
1060.854 .0252012
1061.433 .0251964
1062.012 .0251918
1062.592 .0251872
1063.171 .0251827
1063.750 .0251782
1064.329 .0251737
1064.908 .0251690
1065.487 .0251640
1066.066 .0251586
1066.645 .0251527
1067.224 .0251463
1067.803 .0251395
1068.382 .0251323
1068.961 .0251248
1069.540 .0251172
1070.119 .0251094
1070.698 .0251016
1071.278 .0250937
1071.857 .0250860
1072.436 .0250783
1073.016 .0250709
1073.595 .0250639
1074.175 .0250573
1074.754 .0250512
1075.334 .0250458
1075.913 .0250409
1076.493 .0250366
1077.073 .0250327
1077.653 .0250291
1078.233 .0250259
1078.813 .0250228
1079.393 .0250202
1079.974 .0250179
1080.554 .0250161
1081.135 .0250148
1081.716 .0250144
1082.296 .0250148
1082.877 .0250161
1083.458 .0250182
1084.040 .0250212
1084.621 .0250249
1085.202 .0250292
1085.784 .0250338
1086.366 .0250388
1086.948 .0250441
1087.530 .0250495
1088.112 .0250549
1088.695 .0250604
1089.277 .0250657
1089.860 .0250709
1090.443 .0250760
1091.026 .0250808
1091.610 .0250852
1092.193 .0250893
1092.777 .0250930
1093.361 .0250964
1093.946 .0250994
1094.530 .0251022
1095.115 .0251049
1095.700 .0251076
1096.285 .0251105
1096.871 .0251137
1097.456 .0251174
1098.042 .0251215
1098.628 .0251261
1099.215 .0251311
1099.802 .0251363
1100.389 .0251419
1100.976 .0251477
1101.564 .0251539
1102.152 .0251604
1102.740 .0251675
1103.329 .0251752
1103.917 .0251839
1104.507 .0251936
1105.096 .0252043
1105.686 .0252159
1106.276 .0252283
1106.867 .0252413
1107.457 .0252545
1108.049 .0252678
1108.640 .0252808
1109.232 .0252935
1109.825 .0253057
1110.417 .0253174
1111.010 .0253285
1111.604 .0253392
1112.198 .0253491
1112.792 .0253582
1113.387 .0253665
1113.982 .0253737
1114.577 .0253797
1115.173 .0253843
1115.769 .0253875
1116.366 .0253894
1116.963 .0253902
1117.561 .0253902
1118.159 .0253899
1118.758 .0253897
1119.357 .0253901
1119.957 .0253913
1120.557 .0253936
1121.157 .0253966
1121.758 .0254003
1122.360 .0254044
1122.962 .0254084
1123.564 .0254121
1124.167 .0254097
1124.771 .0254125
1125.375 .0254153
1125.980 .0254186
1126.585 .0254226
1127.191 .0254278
1127.797 .0254343
1128.404 .0254422
1129.012 .0254512
1129.620 .0254614
1130.229 .0254727
1130.838 .0254848
1131.448 .0254981
1132.058 .0255131
1132.669 .0255380
1133.281 .0255583
1133.894 .0255810
1134.507 .0256098
1135.120 .0256423
1135.735 .0256664
1136.350 .0256932
1136.965 .0257025
1137.582 .0257145
1138.199 .0257216
1138.816 .0257285
1139.435 .0257424
1140.054 .0257665
1140.674 .0257955
1141.294 .0258358
1141.916 .0258840
1142.538 .0260394
1143.160 .0261420
1143.784 .0259318
1144.408 .0260306
1145.033 .0261318
