Measurement Sequence started on: 14-45-04-498
Integration time: 36
Scans to Average: 2 
>>>>>Begin Spectral Data<<<<<
433.946 .0498727
434.870 .0516297
435.793 .0493868
436.715 .0488472
437.635 .0473285
438.555 .0481554
439.473 .0477894
440.389 .0474143
441.305 .0471460
442.219 .0469152
443.132 .0473231
444.044 .0470413
444.954 .0468752
445.863 .0467345
446.771 .0466704
447.678 .0465594
448.584 .0464633
449.488 .0463816
450.391 .0463078
451.293 .0462388
452.194 .0461705
453.094 .0461015
453.992 .0460296
454.890 .0459527
455.786 .0458687
456.681 .0457778
457.575 .0456804
458.468 .0455770
459.360 .0454683
460.250 .0453550
461.140 .0452378
462.028 .0451171
462.915 .0449938
463.801 .0448687
464.687 .0447424
465.571 .0446165
466.454 .0444926
467.335 .0443720
468.216 .0442560
469.096 .0441453
469.975 .0440402
470.853 .0439405
471.729 .0438456
472.605 .0437549
473.479 .0436681
474.353 .0435847
475.226 .0435043
476.097 .0434269
476.968 .0433526
477.838 .0432811
478.706 .0432123
479.574 .0431460
480.441 .0430817
481.306 .0430188
482.171 .0429566
483.035 .0428946
483.898 .0428326
484.760 .0427706
485.621 .0427088
486.481 .0426478
487.340 .0425885
488.198 .0425316
489.055 .0424778
489.912 .0424278
490.767 .0423818
491.622 .0423274
492.476 .0422914
493.329 .0422583
494.180 .0422278
495.032 .0421994
495.882 .0421726
496.731 .0421469
497.580 .0421223
498.427 .0420982
499.274 .0420741
500.120 .0420608
500.965 .0420350
501.809 .0420088
502.653 .0419820
503.495 .0419544
504.337 .0419255
505.178 .0418951
506.018 .0418629
506.858 .0418282
507.696 .0417912
508.534 .0417523
509.371 .0417117
510.208 .0416699
511.043 .0416279
511.878 .0415862
512.712 .0415458
513.545 .0415073
514.377 .0414706
515.209 .0414356
516.040 .0414020
516.870 .0413694
517.699 .0413370
518.528 .0413047
519.356 .0412722
520.183 .0412391
521.010 .0412056
521.836 .0411714
522.661 .0411364
523.485 .0411004
524.309 .0410627
525.132 .0410228
525.954 .0409798
526.776 .0409329
527.597 .0408812
528.417 .0408238
529.237 .0407603
530.056 .0406899
530.874 .0406125
531.692 .0405284
532.508 .0404378
533.325 .0403413
534.140 .0402400
534.955 .0401346
535.770 .0400262
536.583 .0399157
537.397 .0398045
538.209 .0396935
539.021 .0395840
539.832 .0394766
540.643 .0393726
541.453 .0392730
542.262 .0391784
543.071 .0390896
543.879 .0390071
544.687 .0389311
545.494 .0388622
546.300 .0388004
547.106 .0387457
547.911 .0386983
548.716 .0386579
549.520 .0386243
550.323 .0385972
551.126 .0385758
551.929 .0385592
552.731 .0385466
553.532 .0385366
554.332 .0385280
555.133 .0385195
555.932 .0385101
556.731 .0384990
557.530 .0384857
558.328 .0384696
559.125 .0384507
559.922 .0384289
560.719 .0384041
561.515 .0383761
562.310 .0383447
563.105 .0383099
563.899 .0382717
564.693 .0382302
565.487 .0381856
566.280 .0381381
567.072 .0380885
567.864 .0380372
568.655 .0379849
569.446 .0379320
570.236 .0378787
571.026 .0378255
571.816 .0377723
572.605 .0377190
573.393 .0376658
574.181 .0376127
574.969 .0375597
575.756 .0375071
576.543 .0374547
577.329 .0374031
578.115 .0373522
578.900 .0373024
579.685 .0372536
580.469 .0372059
581.253 .0371592
582.036 .0371138
582.820 .0370694
583.602 .0370262
584.384 .0369840
585.166 .0369429
585.947 .0369029
586.728 .0368640
587.509 .0368260
588.289 .0367889
589.069 .0367526
589.848 .0367169
590.627 .0366813
591.405 .0366458
592.183 .0366101
592.961 .0365742
593.738 .0365380
594.515 .0365017
595.291 .0364651
596.067 .0364285
596.843 .0363920
597.618 .0363555
598.393 .0363010
599.167 .0362648
599.941 .0362285
600.715 .0361922
601.488 .0361559
602.261 .0361198
603.034 .0360840
603.806 .0360487
604.578 .0360139
605.349 .0359798
606.121 .0359464
606.891 .0359310
607.662 .0358983
608.432 .0358662
609.201 .0358347
609.971 .0358037
610.740 .0357733
611.508 .0357433
612.277 .0357138
613.045 .0356846
613.812 .0356557
614.579 .0356270
615.346 .0355984
616.113 .0355700
616.879 .0355417
617.645 .0355134
618.411 .0354852
619.176 .0354571
619.941 .0354290
620.705 .0354008
621.470 .0353725
622.233 .0353440
622.997 .0353153
623.760 .0352865
624.523 .0352576
625.286 .0352285
626.048 .0351996
626.810 .0351708
627.572 .0351421
628.333 .0351136
629.095 .0350852
629.855 .0350568
630.616 .0350285
631.376 .0350002
632.136 .0349719
632.895 .0349436
633.655 .0349154
634.414 .0348873
635.172 .0348594
635.931 .0348315
636.689 .0348037
637.447 .0347760
638.204 .0347483
638.962 .0347206
639.718 .0346930
640.475 .0346654
641.231 .0346379
641.988 .0346105
642.743 .0345831
643.499 .0345557
644.254 .0345282
645.009 .0345006
645.764 .0344727
646.518 .0344447
647.272 .0344164
648.026 .0343881
648.780 .0343596
649.533 .0343313
650.286 .0343030
651.039 .0342749
651.792 .0342471
652.544 .0342195
653.296 .0341923
654.048 .0341654
654.799 .0341388
655.550 .0341126
656.301 .0340869
657.052 .0340616
657.802 .0340368
658.552 .0340126
659.302 .0339889
660.052 .0339657
660.801 .0339432
661.550 .0339212
662.299 .0338997
663.048 .0338788
663.796 .0338584
664.544 .0338385
665.292 .0338192
666.040 .0338005
666.787 .0337823
667.534 .0337645
668.281 .0337473
669.028 .0337303
669.774 .0337137
670.521 .0336973
671.266 .0336810
672.012 .0336648
672.758 .0336487
673.503 .0336326
674.248 .0336166
674.992 .0336006
675.737 .0335845
676.481 .0335683
677.225 .0335518
677.969 .0335350
678.712 .0335178
679.455 .0335001
680.199 .0334820
680.941 .0334634
681.684 .0334444
682.426 .0334249
683.168 .0334050
683.910 .0333846
684.652 .0333638
685.393 .0333425
686.134 .0333208
686.875 .0332987
687.616 .0332763
688.356 .0332537
689.097 .0332307
689.837 .0332075
690.576 .0331841
691.316 .0331604
692.055 .0331365
692.794 .0331125
693.533 .0330884
694.272 .0330643
695.010 .0330403
695.748 .0330164
696.486 .0329928
697.224 .0329696
697.962 .0329468
698.699 .0329245
699.436 .0329027
700.173 .0328814
700.909 .0328607
701.646 .0328405
702.382 .0328209
703.118 .0328019
703.853 .0327835
704.589 .0327658
705.324 .0327488
706.059 .0327325
706.794 .0327169
707.529 .0327021
708.263 .0326880
708.997 .0326746
709.731 .0326619
710.465 .0326499
711.198 .0326384
711.931 .0326274
712.664 .0326168
713.397 .0326064
714.130 .0325962
714.862 .0325862
715.594 .0325761
716.326 .0325661
717.058 .0325560
717.789 .0325459
718.520 .0325356
719.251 .0325251
719.982 .0325144
720.713 .0325035
721.443 .0324922
722.173 .0324807
722.903 .0324687
723.633 .0324564
724.362 .0324437
725.091 .0324306
725.820 .0324172
726.549 .0324035
727.278 .0323894
728.006 .0323751
728.734 .0323606
729.462 .0323459
730.190 .0323309
730.917 .0323159
731.644 .0323006
732.371 .0322853
733.098 .0322698
733.825 .0322543
734.551 .0322387
735.277 .0322229
736.003 .0322069
736.728 .0321909
737.454 .0321746
738.179 .0321582
738.904 .0321418
739.629 .0321253
740.353 .0321088
741.077 .0320922
741.801 .0320757
742.525 .0320591
743.249 .0320424
743.972 .0320256
744.695 .0320088
745.418 .0319918
746.141 .0319748
746.863 .0319578
747.585 .0319407
748.307 .0319237
749.029 .0319069
749.750 .0318901
750.472 .0318735
751.193 .0318570
751.913 .0318408
752.634 .0318249
753.354 .0318093
754.074 .0317941
754.794 .0317793
755.514 .0317650
756.233 .0317511
756.952 .0317376
757.671 .0317245
758.390 .0317118
759.108 .0316994
759.826 .0316874
760.544 .0316757
761.262 .0316643
761.979 .0316533
762.697 .0316427
763.414 .0316325
764.130 .0316227
764.847 .0316134
765.563 .0316045
766.279 .0315961
766.995 .0315880
767.710 .0315805
768.426 .0315733
769.141 .0315665
769.855 .0315601
770.570 .0315541
771.284 .0315484
771.998 .0315431
772.712 .0315380
773.426 .0315331
774.139 .0315283
774.852 .0315238
775.565 .0315194
776.277 .0315152
776.990 .0315111
777.702 .0315072
778.414 .0315034
779.125 .0314996
779.836 .0314958
780.547 .0314920
781.258 .0314882
781.969 .0314842
782.679 .0314801
783.389 .0314730
784.099 .0314684
784.808 .0314636
785.517 .0314586
786.226 .0314532
786.935 .0314475
787.643 .0314413
788.352 .0314346
789.060 .0314274
789.767 .0314196
790.475 .0314113
791.182 .0314025
791.889 .0313969
792.595 .0313873
793.301 .0313772
794.008 .0313666
794.713 .0313557
795.419 .0313444
796.124 .0313328
796.829 .0313208
797.534 .0313083
798.238 .0312955
798.942 .0312824
799.646 .0312688
800.350 .0312549
801.053 .0312407
801.756 .0312262
802.459 .0312113
803.162 .0311962
803.864 .0311809
804.566 .0311653
805.267 .0311495
805.969 .0311336
806.670 .0311175
807.371 .0311013
808.071 .0310851
808.772 .0310688
809.472 .0310526
810.171 .0310363
810.871 .0310201
811.570 .0310039
812.269 .0309877
812.967 .0309714
813.666 .0309551
814.364 .0309386
815.061 .0309221
815.759 .0309055
816.456 .0308888
817.153 .0308721
817.849 .0308554
818.545 .0308386
819.241 .0308219
819.937 .0308051
820.632 .0307883
821.327 .0307715
822.022 .0307548
822.717 .0307382
823.411 .0307218
824.105 .0307057
824.798 .0306899
825.491 .0306745
826.184 .0306593
826.877 .0306446
827.569 .0306303
828.261 .0306163
828.953 .0306029
829.645 .0305899
830.336 .0305776
831.027 .0305659
831.717 .0305548
832.407 .0305445
833.097 .0305348
833.787 .0305258
834.476 .0305175
835.165 .0305099
835.854 .0305029
836.542 .0304965
837.230 .0304907
837.918 .0304853
838.605 .0304805
839.292 .0304760
839.979 .0304719
840.665 .0304681
841.352 .0304645
842.037 .0304611
842.723 .0304578
843.408 .0304546
844.093 .0304515
844.777 .0304482
845.462 .0304448
846.145 .0304411
846.829 .0304371
847.512 .0304328
848.195 .0304281
848.878 .0304229
849.560 .0304173
850.242 .0304113
850.923 .0304048
851.605 .0303978
852.286 .0303904
852.966 .0303824
853.646 .0303739
854.326 .0303651
855.006 .0303558
855.685 .0303462
856.364 .0303363
857.043 .0303262
857.721 .0303159
858.399 .0303054
859.077 .0302947
859.754 .0302838
860.431 .0302726
861.107 .0302613
861.784 .0302497
862.459 .0302379
863.135 .0302260
863.810 .0302139
864.485 .0302015
865.160 .0301890
865.834 .0301762
866.508 .0301631
867.181 .0301497
867.854 .0301360
868.527 .0301220
869.199 .0301078
869.872 .0300932
870.543 .0300783
871.215 .0300630
871.886 .0300474
872.557 .0300313
873.227 .0300148
873.897 .0299977
874.567 .0299801
875.236 .0299621
875.905 .0299435
876.573 .0299245
877.242 .0299050
877.909 .0298851
878.577 .0298648
879.244 .0298441
879.911 .0298231
880.577 .0298017
881.243 .0297801
881.909 .0297584
882.575 .0297365
883.240 .0297148
883.904 .0296931
884.569 .0296716
885.232 .0296503
885.896 .0296293
886.559 .0296087
887.222 .0295884
887.885 .0295684
888.547 .0295489
889.208 .0295299
889.870 .0295114
890.531 .0294936
891.192 .0294763
891.852 .0294598
892.512 .0294441
893.171 .0294290
893.830 .0294147
894.489 .0294012
895.148 .0293885
895.806 .0293765
896.464 .0293654
897.121 .0293551
897.778 .0293455
898.434 .0293367
899.091 .0293259
899.747 .0293185
900.402 .0293116
901.057 .0293050
901.712 .0292987
902.366 .0292927
903.020 .0292870
903.674 .0292814
904.327 .0292760
904.980 .0292709
905.633 .0292658
906.285 .0292609
906.936 .0292559
907.588 .0292531
908.239 .0292480
908.889 .0292426
909.540 .0292372
910.190 .0292317
910.839 .0292260
911.488 .0292202
912.137 .0292144
912.785 .0292085
913.433 .0292024
914.081 .0291962
914.728 .0291898
915.375 .0291831
916.021 .0291761
916.668 .0291689
917.313 .0291614
917.959 .0291536
918.604 .0291455
919.248 .0291372
919.892 .0291287
920.536 .0291199
921.180 .0291108
921.823 .0291014
922.465 .0290918
923.108 .0290818
923.750 .0290715
924.391 .0290610
925.032 .0290501
925.673 .0290391
926.313 .0290278
926.953 .0290162
927.593 .0290044
928.232 .0289923
928.871 .0289799
929.510 .0289672
930.148 .0289543
930.786 .0289411
931.423 .0289276
932.060 .0289140
932.697 .0289002
933.333 .0288863
933.969 .0288724
934.604 .0288584
935.239 .0288445
935.874 .0288305
936.508 .0288165
937.142 .0288025
937.776 .0287884
938.409 .0287743
939.042 .0287601
939.674 .0287460
940.306 .0287317
940.938 .0287174
941.569 .0287031
942.200 .0286888
942.830 .0286744
943.460 .0286600
944.090 .0286455
944.720 .0286311
945.349 .0286167
945.977 .0286024
946.606 .0285881
947.233 .0285738
947.861 .0285597
948.488 .0285456
949.115 .0285315
949.741 .0285176
950.367 .0285036
950.993 .0284897
951.618 .0284759
952.243 .0284620
952.868 .0284480
953.492 .0284341
954.115 .0284200
954.739 .0284059
955.362 .0283916
955.984 .0283771
956.607 .0283626
957.229 .0283479
957.850 .0283331
958.471 .0283182
959.092 .0283032
959.713 .0282882
960.333 .0282731
960.952 .0282581
961.572 .0282430
962.191 .0282280
962.809 .0282129
963.428 .0281980
964.045 .0281830
964.663 .0281682
965.280 .0281534
965.897 .0281388
966.513 .0281241
967.129 .0281094
967.745 .0280948
968.361 .0280800
968.976 .0280652
969.590 .0280503
970.205 .0280354
970.818 .0280205
971.432 .0280055
972.045 .0279906
972.658 .0279756
973.271 .0279606
973.883 .0279456
974.495 .0279306
975.106 .0279154
975.717 .0279001
976.328 .0278846
976.938 .0278690
977.548 .0278530
978.158 .0278368
978.768 .0278106
979.377 .0277935
979.985 .0277760
980.594 .0277581
981.202 .0277398
981.809 .0277212
982.417 .0277023
983.024 .0276831
983.631 .0276638
984.237 .0276443
984.843 .0276248
985.449 .0276053
986.054 .0275859
986.659 .0275666
987.264 .0275576
987.868 .0275388
988.472 .0275202
989.076 .0275020
989.679 .0274842
990.282 .0274669
990.885 .0274502
991.487 .0274341
992.090 .0274187
992.691 .0274040
993.293 .0273900
993.894 .0273767
994.495 .0273640
995.095 .0273520
995.696 .0273408
996.296 .0273303
996.895 .0273205
997.494 .0273117
998.093 .0273038
998.692 .0272968
999.291 .0272908
999.889 .0272856
1000.487 .0272812
1001.084 .0272777
1001.681 .0272748
1002.278 .0272727
1002.875 .0272713
1003.471 .0272704
1004.067 .0272702
1004.663 .0272705
1005.258 .0272713
1005.854 .0272726
1006.449 .0272742
1007.043 .0272761
1007.638 .0272782
1008.232 .0272804
1008.826 .0272828
1009.419 .0272853
1010.012 .0272880
1010.605 .0272907
1011.198 .0272936
1011.791 .0272967
1012.383 .0272999
1012.975 .0273032
1013.566 .0273066
1014.158 .0273101
1014.749 .0273138
1015.340 .0273175
1015.931 .0273212
1016.521 .0273251
1017.111 .0273291
1017.701 .0273333
1018.291 .0273375
1018.880 .0273418
1019.470 .0273461
1020.059 .0273505
1020.647 .0273550
1021.236 .0273594
1021.824 .0273640
1022.412 .0273687
1023.000 .0273736
1023.588 .0273787
1024.175 .0273841
1024.762 .0273897
1025.349 .0273955
1025.936 .0274015
1026.523 .0274075
1027.109 .0274135
1027.695 .0274195
1028.281 .0274254
1028.867 .0274313
1029.452 .0274371
1030.038 .0274428
1030.623 .0274484
1031.208 .0274539
1031.792 .0274591
1032.377 .0274640
1032.961 .0274684
1033.546 .0274722
1034.130 .0274754
1034.714 .0274781
1035.297 .0274802
1035.881 .0274818
1036.464 .0274832
1037.047 .0274844
1037.630 .0274856
1038.213 .0274868
1038.796 .0274881
1039.378 .0274895
1039.961 .0274909
1040.543 .0274924
1041.125 .0274940
1041.707 .0274955
1042.289 .0274971
1042.871 .0274987
1043.452 .0275004
1044.034 .0275022
1044.615 .0275041
1045.196 .0275060
1045.777 .0275078
1046.358 .0275096
1046.939 .0275113
1047.520 .0275128
1048.101 .0275142
1048.681 .0275155
1049.262 .0275168
1049.842 .0275180
1050.422 .0275192
1051.002 .0275205
1051.582 .0275217
1052.162 .0275230
1052.742 .0275240
1053.322 .0275250
1053.902 .0275257
1054.482 .0275263
1055.061 .0275265
1055.641 .0275265
1056.220 .0275260
1056.800 .0275251
1057.379 .0275237
1057.958 .0275215
1058.538 .0275187
1059.117 .0275150
1059.696 .0275106
1060.275 .0275055
1060.854 .0274998
1061.433 .0274938
1062.012 .0274875
1062.592 .0274811
1063.171 .0274745
1063.750 .0274678
1064.329 .0274609
1064.908 .0274540
1065.487 .0274469
1066.066 .0274397
1066.645 .0274326
1067.224 .0274255
1067.803 .0274186
1068.382 .0274118
1068.961 .0274052
1069.540 .0273988
1070.119 .0273924
1070.698 .0273859
1071.278 .0273792
1071.857 .0273722
1072.436 .0273649
1073.016 .0273573
1073.595 .0273494
1074.175 .0273413
1074.754 .0273330
1075.334 .0273246
1075.913 .0273161
1076.493 .0273075
1077.073 .0272987
1077.653 .0272897
1078.233 .0272806
1078.813 .0272713
1079.393 .0272618
1079.974 .0272524
1080.554 .0272430
1081.135 .0272338
1081.716 .0272249
1082.296 .0272161
1082.877 .0272075
1083.458 .0271990
1084.040 .0271904
1084.621 .0271816
1085.202 .0271726
1085.784 .0271630
1086.366 .0271528
1086.948 .0271418
1087.530 .0271302
1088.112 .0271177
1088.695 .0271045
1089.277 .0270907
1089.860 .0270764
1090.443 .0270617
1091.026 .0270466
1091.610 .0270313
1092.193 .0270160
1092.777 .0270008
1093.361 .0269856
1093.946 .0269708
1094.530 .0269563
1095.115 .0269422
1095.700 .0269286
1096.285 .0269155
1096.871 .0269031
1097.456 .0268912
1098.042 .0268798
1098.628 .0268688
1099.215 .0268581
1099.802 .0268477
1100.389 .0268376
1100.976 .0268278
1101.564 .0268185
1102.152 .0268099
1102.740 .0268023
1103.329 .0267960
1103.917 .0267909
1104.507 .0267872
1105.096 .0267849
1105.686 .0267838
1106.276 .0267840
1106.867 .0267854
1107.457 .0267881
1108.049 .0267923
1108.640 .0267982
1109.232 .0268058
1109.825 .0268149
1110.417 .0268255
1111.010 .0268373
1111.604 .0268497
1112.198 .0268626
1112.792 .0268755
1113.387 .0268884
1113.982 .0269013
1114.577 .0269145
1115.173 .0269283
1115.769 .0269430
1116.366 .0269589
1116.963 .0269759
1117.561 .0269939
1118.159 .0270127
1118.758 .0270320
1119.357 .0270516
1119.957 .0270717
1120.557 .0270924
1121.157 .0271144
1121.758 .0271380
1122.360 .0271638
1122.962 .0271920
1123.564 .0272225
1124.167 .0272345
1124.771 .0272676
1125.375 .0273023
1125.980 .0273379
1126.585 .0273740
1127.191 .0274105
1127.797 .0274475
1128.404 .0274854
1129.012 .0275246
1129.620 .0275654
1130.229 .0276082
1130.838 .0276525
1131.448 .0276980
1132.058 .0277444
1132.669 .0278133
1133.281 .0278607
1133.894 .0279083
1134.507 .0279524
1135.120 .0280030
1135.735 .0280516
1136.350 .0281132
1136.965 .0281748
1137.582 .0282311
1138.199 .0282878
1138.816 .0283386
1139.435 .0283836
1140.054 .0284276
1140.674 .0284665
1141.294 .0285142
1141.916 .0285529
1142.538 .0284951
1143.160 .0286975
1143.784 .0286619
1144.408 .0290322
1145.033 .0286461
