Measurement Sequence started on: 14-45-04-498
Integration time: 36
Scans to Average: 2 
>>>>>Begin Spectral Data<<<<<
433.946 .0503498
434.870 .0541137
435.793 .0549630
436.715 .0577199
437.635 .0566430
438.555 .0566330
439.473 .0569271
440.389 .0569505
441.305 .0568440
442.219 .0566053
443.132 .0557481
444.044 .0557299
444.954 .0556541
445.863 .0554210
446.771 .0552332
447.678 .0550359
448.584 .0548138
449.488 .0545820
450.391 .0543475
451.293 .0541173
452.194 .0538922
453.094 .0536739
453.992 .0534624
454.890 .0532565
455.786 .0530548
456.681 .0528576
457.575 .0526643
458.468 .0524751
459.360 .0522904
460.250 .0521106
461.140 .0519357
462.028 .0517657
462.915 .0516002
463.801 .0514388
464.687 .0512803
465.571 .0511239
466.454 .0509689
467.335 .0508146
468.216 .0506606
469.096 .0505067
469.975 .0503528
470.853 .0501994
471.729 .0500470
472.605 .0498969
473.479 .0497504
474.353 .0496085
475.226 .0494710
476.097 .0493380
476.968 .0492089
477.838 .0490833
478.706 .0489601
479.574 .0488388
480.441 .0487193
481.306 .0486017
482.171 .0484868
483.035 .0483754
483.898 .0482684
484.760 .0481669
485.621 .0480711
486.481 .0479811
487.340 .0478966
488.198 .0478166
489.055 .0477406
489.912 .0476681
490.767 .0475991
491.622 .0475111
492.476 .0474520
493.329 .0473974
494.180 .0473472
495.032 .0473015
495.882 .0472601
496.731 .0472220
497.580 .0471865
498.427 .0471523
499.274 .0471182
500.120 .0470995
500.965 .0470621
501.809 .0470222
502.653 .0469789
503.495 .0469316
504.337 .0468798
505.178 .0468239
506.018 .0467642
506.858 .0467010
507.696 .0466346
508.534 .0465659
509.371 .0464955
510.208 .0464236
511.043 .0463507
511.878 .0462775
512.712 .0462045
513.545 .0461324
514.377 .0460622
515.209 .0459950
516.040 .0459319
516.870 .0458739
517.699 .0458212
518.528 .0457745
519.356 .0457339
520.183 .0456996
521.010 .0456712
521.836 .0456483
522.661 .0456294
523.485 .0456132
524.309 .0455984
525.132 .0455830
525.954 .0455653
526.776 .0455440
527.597 .0455182
528.417 .0454870
529.237 .0454502
530.056 .0454079
530.874 .0453607
531.692 .0453090
532.508 .0452523
533.325 .0451906
534.140 .0451240
534.955 .0450525
535.770 .0449760
536.583 .0448951
537.397 .0448105
538.209 .0447233
539.021 .0446344
539.832 .0445453
540.643 .0444576
541.453 .0443726
542.262 .0442910
543.071 .0442132
543.879 .0441397
544.687 .0440701
545.494 .0440040
546.300 .0439405
547.106 .0438786
547.911 .0438173
548.716 .0437556
549.520 .0436934
550.323 .0436300
551.126 .0435654
551.929 .0434996
552.731 .0434328
553.532 .0433648
554.332 .0432954
555.133 .0432242
555.932 .0431514
556.731 .0430771
557.530 .0430005
558.328 .0429219
559.125 .0428422
559.922 .0427620
560.719 .0426816
561.515 .0426016
562.310 .0425232
563.105 .0424470
563.899 .0423734
564.693 .0423027
565.487 .0422350
566.280 .0421703
567.072 .0421085
567.864 .0420491
568.655 .0419917
569.446 .0419359
570.236 .0418814
571.026 .0418283
571.816 .0417764
572.605 .0417256
573.393 .0416756
574.181 .0416263
574.969 .0415777
575.756 .0415288
576.543 .0414797
577.329 .0414302
578.115 .0413798
578.900 .0413283
579.685 .0412756
580.469 .0412216
581.253 .0411664
582.036 .0411102
582.820 .0410531
583.602 .0409955
584.384 .0409378
585.166 .0408805
585.947 .0408240
586.728 .0407689
587.509 .0407153
588.289 .0406633
589.069 .0406128
589.848 .0405634
590.627 .0405150
591.405 .0404675
592.183 .0404208
592.961 .0403749
593.738 .0403299
594.515 .0402862
595.291 .0402439
596.067 .0402031
596.843 .0401641
597.618 .0401266
598.393 .0400736
599.167 .0400382
599.941 .0400031
600.715 .0399684
601.488 .0399338
602.261 .0398992
603.034 .0398646
603.806 .0398300
604.578 .0397957
605.349 .0397616
606.121 .0397279
606.891 .0397119
607.662 .0396788
608.432 .0396458
609.201 .0396129
609.971 .0395801
610.740 .0395471
611.508 .0395140
612.277 .0394806
613.045 .0394469
613.812 .0394131
614.579 .0393792
615.346 .0393453
616.113 .0393118
616.879 .0392786
617.645 .0392459
618.411 .0392136
619.176 .0391815
619.941 .0391495
620.705 .0391175
621.470 .0390854
622.233 .0390531
622.997 .0390206
623.760 .0389878
624.523 .0389550
625.286 .0389222
626.048 .0388896
626.810 .0388573
627.572 .0388253
628.333 .0387935
629.095 .0387620
629.855 .0387305
630.616 .0386991
631.376 .0386678
632.136 .0386365
632.895 .0386054
633.655 .0385746
634.414 .0385440
635.172 .0385140
635.931 .0384844
636.689 .0384554
637.447 .0384268
638.204 .0383986
638.962 .0383709
639.718 .0383435
640.475 .0383165
641.231 .0382898
641.988 .0382633
642.743 .0382370
643.499 .0382109
644.254 .0381849
645.009 .0381588
645.764 .0381326
646.518 .0381063
647.272 .0380798
648.026 .0380531
648.780 .0380262
649.533 .0379988
650.286 .0379712
651.039 .0379431
651.792 .0379145
652.544 .0378856
653.296 .0378562
654.048 .0378266
654.799 .0377968
655.550 .0377670
656.301 .0377372
657.052 .0377076
657.802 .0376781
658.552 .0376487
659.302 .0376195
660.052 .0375903
660.801 .0375613
661.550 .0375324
662.299 .0375039
663.048 .0374757
663.796 .0374481
664.544 .0374211
665.292 .0373948
666.040 .0373693
666.787 .0373445
667.534 .0373203
668.281 .0372967
669.028 .0372735
669.774 .0372507
670.521 .0372281
671.266 .0372058
672.012 .0371837
672.758 .0371619
673.503 .0371403
674.248 .0371190
674.992 .0370979
675.737 .0370771
676.481 .0370564
677.225 .0370359
677.969 .0370153
678.712 .0369945
679.455 .0369736
680.199 .0369524
680.941 .0369311
681.684 .0369094
682.426 .0368875
683.168 .0368654
683.910 .0368432
684.652 .0368208
685.393 .0367985
686.134 .0367763
686.875 .0367542
687.616 .0367323
688.356 .0367105
689.097 .0366887
689.837 .0366670
690.576 .0366453
691.316 .0366236
692.055 .0366018
692.794 .0365800
693.533 .0365584
694.272 .0365373
695.010 .0365166
695.748 .0364967
696.486 .0364775
697.224 .0364590
697.962 .0364412
698.699 .0364238
699.436 .0364068
700.173 .0363899
700.909 .0363732
701.646 .0363566
702.382 .0363399
703.118 .0363234
703.853 .0363068
704.589 .0362903
705.324 .0362738
706.059 .0362572
706.794 .0362403
707.529 .0362230
708.263 .0362053
708.997 .0361871
709.731 .0361683
710.465 .0361489
711.198 .0361290
711.931 .0361085
712.664 .0360875
713.397 .0360661
714.130 .0360443
714.862 .0360221
715.594 .0359996
716.326 .0359767
717.058 .0359536
717.789 .0359303
718.520 .0359067
719.251 .0358829
719.982 .0358588
720.713 .0358345
721.443 .0358101
722.173 .0357855
722.903 .0357608
723.633 .0357362
724.362 .0357117
725.091 .0356873
725.820 .0356634
726.549 .0356398
727.278 .0356166
728.006 .0355939
728.734 .0355716
729.462 .0355497
730.190 .0355282
730.917 .0355073
731.644 .0354870
732.371 .0354674
733.098 .0354485
733.825 .0354305
734.551 .0354134
735.277 .0353971
736.003 .0353816
736.728 .0353669
737.454 .0353528
738.179 .0353393
738.904 .0353263
739.629 .0353138
740.353 .0353017
741.077 .0352901
741.801 .0352788
742.525 .0352677
743.249 .0352567
743.972 .0352456
744.695 .0352344
745.418 .0352229
746.141 .0352109
746.863 .0351984
747.585 .0351854
748.307 .0351717
749.029 .0351574
749.750 .0351425
750.472 .0351270
751.193 .0351110
751.913 .0350945
752.634 .0350776
753.354 .0350605
754.074 .0350431
754.794 .0350255
755.514 .0350078
756.233 .0349901
756.952 .0349723
757.671 .0349546
758.390 .0349369
759.108 .0349194
759.826 .0349020
760.544 .0348850
761.262 .0348684
761.979 .0348521
762.697 .0348362
763.414 .0348206
764.130 .0348054
764.847 .0347905
765.563 .0347759
766.279 .0347616
766.995 .0347473
767.710 .0347332
768.426 .0347192
769.141 .0347052
769.855 .0346911
770.570 .0346771
771.284 .0346629
771.998 .0346486
772.712 .0346341
773.426 .0346194
774.139 .0346045
774.852 .0345894
775.565 .0345739
776.277 .0345582
776.990 .0345422
777.702 .0345259
778.414 .0345094
779.125 .0344927
779.836 .0344758
780.547 .0344589
781.258 .0344420
781.969 .0344250
782.679 .0344082
783.389 .0343830
784.099 .0343666
784.808 .0343503
785.517 .0343339
786.226 .0343176
786.935 .0343013
787.643 .0342852
788.352 .0342692
789.060 .0342535
789.767 .0342381
790.475 .0342233
791.182 .0342089
791.889 .0342031
792.595 .0341895
793.301 .0341763
794.008 .0341634
794.713 .0341508
795.419 .0341382
796.124 .0341259
796.829 .0341138
797.534 .0341018
798.238 .0340901
798.942 .0340785
799.646 .0340671
800.350 .0340558
801.053 .0340446
801.756 .0340332
802.459 .0340219
803.162 .0340105
803.864 .0339990
804.566 .0339875
805.267 .0339759
805.969 .0339643
806.670 .0339527
807.371 .0339412
808.071 .0339298
808.772 .0339186
809.472 .0339076
810.171 .0338967
810.871 .0338861
811.570 .0338758
812.269 .0338657
812.967 .0338559
813.666 .0338462
814.364 .0338365
815.061 .0338269
815.759 .0338172
816.456 .0338075
817.153 .0337976
817.849 .0337877
818.545 .0337776
819.241 .0337673
819.937 .0337569
820.632 .0337463
821.327 .0337355
822.022 .0337242
822.717 .0337125
823.411 .0337002
824.105 .0336870
824.798 .0336731
825.491 .0336581
826.184 .0336422
826.877 .0336254
827.569 .0336077
828.261 .0335892
828.953 .0335701
829.645 .0335505
830.336 .0335304
831.027 .0335100
831.717 .0334893
832.407 .0334684
833.097 .0334473
833.787 .0334259
834.476 .0334046
835.165 .0333832
835.854 .0333621
836.542 .0333413
837.230 .0333208
837.918 .0333009
838.605 .0332816
839.292 .0332630
839.979 .0332450
840.665 .0332276
841.352 .0332109
842.037 .0331949
842.723 .0331793
843.408 .0331643
844.093 .0331497
844.777 .0331354
845.462 .0331215
846.145 .0331079
846.829 .0330945
847.512 .0330814
848.195 .0330685
848.878 .0330558
849.560 .0330432
850.242 .0330307
850.923 .0330181
851.605 .0330052
852.286 .0329919
852.966 .0329782
853.646 .0329641
854.326 .0329495
855.006 .0329344
855.685 .0329190
856.364 .0329030
857.043 .0328868
857.721 .0328701
858.399 .0328530
859.077 .0328356
859.754 .0328179
860.431 .0327999
861.107 .0327817
861.784 .0327634
862.459 .0327451
863.135 .0327268
863.810 .0327087
864.485 .0326907
865.160 .0326729
865.834 .0326554
866.508 .0326383
867.181 .0326215
867.854 .0326052
868.527 .0325894
869.199 .0325743
869.872 .0325597
870.543 .0325458
871.215 .0325325
871.886 .0325196
872.557 .0325073
873.227 .0324953
873.897 .0324836
874.567 .0324721
875.236 .0324607
875.905 .0324494
876.573 .0324380
877.242 .0324266
877.909 .0324151
878.577 .0324034
879.244 .0323915
879.911 .0323794
880.577 .0323670
881.243 .0323544
881.909 .0323415
882.575 .0323284
883.240 .0323151
883.904 .0323016
884.569 .0322879
885.232 .0322740
885.896 .0322600
886.559 .0322457
887.222 .0322313
887.885 .0322168
888.547 .0322023
889.208 .0321878
889.870 .0321736
890.531 .0321597
891.192 .0321462
891.852 .0321334
892.512 .0321211
893.171 .0321095
893.830 .0320985
894.489 .0320881
895.148 .0320783
895.806 .0320690
896.464 .0320601
897.121 .0320517
897.778 .0320437
898.434 .0320361
899.091 .0320260
899.747 .0320192
900.402 .0320125
901.057 .0320059
901.712 .0319992
902.366 .0319924
903.020 .0319854
903.674 .0319781
904.327 .0319705
904.980 .0319625
905.633 .0319541
906.285 .0319453
906.936 .0319361
907.588 .0319302
908.239 .0319204
908.889 .0319103
909.540 .0318998
910.190 .0318889
910.839 .0318778
911.488 .0318662
912.137 .0318544
912.785 .0318423
913.433 .0318299
914.081 .0318173
914.728 .0318044
915.375 .0317911
916.021 .0317776
916.668 .0317638
917.313 .0317498
917.959 .0317355
918.604 .0317210
919.248 .0317064
919.892 .0316918
920.536 .0316770
921.180 .0316622
921.823 .0316474
922.465 .0316323
923.108 .0316170
923.750 .0316015
924.391 .0315856
925.032 .0315693
925.673 .0315525
926.313 .0315354
926.953 .0315178
927.593 .0314997
928.232 .0314812
928.871 .0314621
929.510 .0314427
930.148 .0314227
930.786 .0314021
931.423 .0313810
932.060 .0313594
932.697 .0313373
933.333 .0313147
933.969 .0312917
934.604 .0312684
935.239 .0312449
935.874 .0312211
936.508 .0311972
937.142 .0311731
937.776 .0311489
938.409 .0311246
939.042 .0311003
939.674 .0310759
940.306 .0310518
940.938 .0310278
941.569 .0310043
942.200 .0309812
942.830 .0309586
943.460 .0309367
944.090 .0309153
944.720 .0308946
945.349 .0308745
945.977 .0308549
946.606 .0308358
947.233 .0308174
947.861 .0307996
948.488 .0307825
949.115 .0307661
949.741 .0307504
950.367 .0307353
950.993 .0307208
951.618 .0307067
952.243 .0306929
952.868 .0306793
953.492 .0306658
954.115 .0306524
954.739 .0306391
955.362 .0306261
955.984 .0306133
956.607 .0306008
957.229 .0305886
957.850 .0305765
958.471 .0305646
959.092 .0305527
959.713 .0305408
960.333 .0305288
960.952 .0305168
961.572 .0305047
962.191 .0304928
962.809 .0304810
963.428 .0304694
964.045 .0304582
964.663 .0304472
965.280 .0304365
965.897 .0304260
966.513 .0304155
967.129 .0304051
967.745 .0303945
968.361 .0303838
968.976 .0303730
969.590 .0303621
970.205 .0303511
970.818 .0303401
971.432 .0303291
972.045 .0303178
972.658 .0303064
973.271 .0302948
973.883 .0302828
974.495 .0302705
975.106 .0302578
975.717 .0302448
976.328 .0302315
976.938 .0302181
977.548 .0302045
978.158 .0301910
978.768 .0301698
979.377 .0301565
979.985 .0301432
980.594 .0301300
981.202 .0301168
981.809 .0301037
982.417 .0300906
983.024 .0300777
983.631 .0300652
984.237 .0300532
984.843 .0300419
985.449 .0300313
986.054 .0300215
986.659 .0300125
987.264 .0300110
987.868 .0300033
988.472 .0299963
989.076 .0299902
989.679 .0299848
990.282 .0299804
990.885 .0299768
991.487 .0299740
992.090 .0299720
992.691 .0299708
993.293 .0299701
993.894 .0299699
994.495 .0299698
995.095 .0299698
995.696 .0299697
996.296 .0299695
996.895 .0299691
997.494 .0299685
998.093 .0299677
998.692 .0299668
999.291 .0299657
999.889 .0299644
1000.487 .0299628
1001.084 .0299608
1001.681 .0299583
1002.278 .0299554
1002.875 .0299519
1003.471 .0299480
1004.067 .0299438
1004.663 .0299392
1005.258 .0299343
1005.854 .0299292
1006.449 .0299238
1007.043 .0299181
1007.638 .0299121
1008.232 .0299056
1008.826 .0298988
1009.419 .0298916
1010.012 .0298840
1010.605 .0298764
1011.198 .0298688
1011.791 .0298613
1012.383 .0298542
1012.975 .0298476
1013.566 .0298413
1014.158 .0298355
1014.749 .0298300
1015.340 .0298247
1015.931 .0298195
1016.521 .0298144
1017.111 .0298093
1017.701 .0298043
1018.291 .0297994
1018.880 .0297946
1019.470 .0297900
1020.059 .0297856
1020.647 .0297815
1021.236 .0297774
1021.824 .0297736
1022.412 .0297698
1023.000 .0297662
1023.588 .0297627
1024.175 .0297594
1024.762 .0297563
1025.349 .0297536
1025.936 .0297513
1026.523 .0297495
1027.109 .0297482
1027.695 .0297475
1028.281 .0297472
1028.867 .0297473
1029.452 .0297478
1030.038 .0297484
1030.623 .0297493
1031.208 .0297503
1031.792 .0297513
1032.377 .0297523
1032.961 .0297532
1033.546 .0297539
1034.130 .0297545
1034.714 .0297548
1035.297 .0297550
1035.881 .0297549
1036.464 .0297547
1037.047 .0297544
1037.630 .0297541
1038.213 .0297538
1038.796 .0297536
1039.378 .0297534
1039.961 .0297532
1040.543 .0297529
1041.125 .0297524
1041.707 .0297517
1042.289 .0297508
1042.871 .0297496
1043.452 .0297481
1044.034 .0297464
1044.615 .0297443
1045.196 .0297418
1045.777 .0297390
1046.358 .0297357
1046.939 .0297318
1047.520 .0297272
1048.101 .0297220
1048.681 .0297160
1049.262 .0297094
1049.842 .0297022
1050.422 .0296944
1051.002 .0296864
1051.582 .0296780
1052.162 .0296694
1052.742 .0296607
1053.322 .0296520
1053.902 .0296431
1054.482 .0296342
1055.061 .0296250
1055.641 .0296155
1056.220 .0296056
1056.800 .0295952
1057.379 .0295842
1057.958 .0295728
1058.538 .0295607
1059.117 .0295482
1059.696 .0295354
1060.275 .0295223
1060.854 .0295092
1061.433 .0294961
1062.012 .0294832
1062.592 .0294706
1063.171 .0294584
1063.750 .0294468
1064.329 .0294361
1064.908 .0294264
1065.487 .0294178
1066.066 .0294105
1066.645 .0294046
1067.224 .0294001
1067.803 .0293970
1068.382 .0293953
1068.961 .0293947
1069.540 .0293949
1070.119 .0293958
1070.698 .0293971
1071.278 .0293986
1071.857 .0294002
1072.436 .0294018
1073.016 .0294032
1073.595 .0294046
1074.175 .0294058
1074.754 .0294070
1075.334 .0294082
1075.913 .0294094
1076.493 .0294104
1077.073 .0294114
1077.653 .0294123
1078.233 .0294132
1078.813 .0294141
1079.393 .0294151
1079.974 .0294163
1080.554 .0294176
1081.135 .0294190
1081.716 .0294206
1082.296 .0294223
1082.877 .0294239
1083.458 .0294254
1084.040 .0294266
1084.621 .0294273
1085.202 .0294275
1085.784 .0294272
1086.366 .0294262
1086.948 .0294244
1087.530 .0294220
1088.112 .0294188
1088.695 .0294151
1089.277 .0294109
1089.860 .0294065
1090.443 .0294019
1091.026 .0293974
1091.610 .0293929
1092.193 .0293887
1092.777 .0293848
1093.361 .0293813
1093.946 .0293783
1094.530 .0293758
1095.115 .0293738
1095.700 .0293723
1096.285 .0293714
1096.871 .0293709
1097.456 .0293707
1098.042 .0293708
1098.628 .0293710
1099.215 .0293712
1099.802 .0293713
1100.389 .0293713
1100.976 .0293712
1101.564 .0293712
1102.152 .0293711
1102.740 .0293711
1103.329 .0293715
1103.917 .0293725
1104.507 .0293745
1105.096 .0293775
1105.686 .0293817
1106.276 .0293874
1106.867 .0293947
1107.457 .0294036
1108.049 .0294141
1108.640 .0294264
1109.232 .0294401
1109.825 .0294550
1110.417 .0294710
1111.010 .0294879
1111.604 .0295054
1112.198 .0295232
1112.792 .0295411
1113.387 .0295586
1113.982 .0295757
1114.577 .0295922
1115.173 .0296082
1115.769 .0296238
1116.366 .0296391
1116.963 .0296543
1117.561 .0296699
1118.159 .0296863
1118.758 .0297038
1119.357 .0297229
1119.957 .0297440
1120.557 .0297674
1121.157 .0297932
1121.758 .0298214
1122.360 .0298523
1122.962 .0298857
1123.564 .0299212
1124.167 .0299344
1124.771 .0299721
1125.375 .0300112
1125.980 .0300516
1126.585 .0300931
1127.191 .0301357
1127.797 .0301795
1128.404 .0302243
1129.012 .0302701
1129.620 .0303169
1130.229 .0303645
1130.838 .0304128
1131.448 .0304618
1132.058 .0305115
1132.669 .0305874
1133.281 .0306406
1133.894 .0306943
1134.507 .0307463
1135.120 .0308066
1135.735 .0308600
1136.350 .0309239
1136.965 .0310601
1137.582 .0311143
1138.199 .0311578
1138.816 .0311939
1139.435 .0312226
1140.054 .0312525
1140.674 .0312774
1141.294 .0313149
1141.916 .0313406
1142.538 .0313161
1143.160 .0315682
1143.784 .0314177
1144.408 .0317491
1145.033 .0312932
