Measurement Sequence started on: 14-45-04-498
Integration time: 36
Scans to Average: 2 
>>>>>Begin Spectral Data<<<<<
433.946 .0514402
434.870 .0536462
435.793 .0468495
436.715 .0485896
437.635 .0469625
438.555 .0476959
439.473 .0472556
440.389 .0468513
441.305 .0466684
442.219 .0464402
443.132 .0468518
444.044 .0464312
444.954 .0463627
445.863 .0461964
446.771 .0461088
447.678 .0459753
448.584 .0458580
449.488 .0457553
450.391 .0456553
451.293 .0455607
452.194 .0454682
453.094 .0453775
453.992 .0452870
454.890 .0451944
455.786 .0450985
456.681 .0449989
457.575 .0448953
458.468 .0447885
459.360 .0446803
460.250 .0445725
461.140 .0444661
462.028 .0443627
462.915 .0442633
463.801 .0441684
464.687 .0440779
465.571 .0439915
466.454 .0439088
467.335 .0438296
468.216 .0437537
469.096 .0436811
469.975 .0436117
470.853 .0435456
471.729 .0434824
472.605 .0434221
473.479 .0433642
474.353 .0433085
475.226 .0432545
476.097 .0432020
476.968 .0431505
477.838 .0430998
478.706 .0430498
479.574 .0430006
480.441 .0429522
481.306 .0429051
482.171 .0428593
483.035 .0428147
483.898 .0427714
484.760 .0427289
485.621 .0426869
486.481 .0426451
487.340 .0426032
488.198 .0425610
489.055 .0425183
489.912 .0424751
490.767 .0424313
491.622 .0423619
492.476 .0423166
493.329 .0422701
494.180 .0422223
495.032 .0421728
495.882 .0421211
496.731 .0420669
497.580 .0420103
498.427 .0419512
499.274 .0418897
500.120 .0418557
500.965 .0417918
501.809 .0417265
502.653 .0416602
503.495 .0415934
504.337 .0415257
505.178 .0414575
506.018 .0413888
506.858 .0413195
507.696 .0412497
508.534 .0411802
509.371 .0411113
510.208 .0410439
511.043 .0409794
511.878 .0409184
512.712 .0408616
513.545 .0408097
514.377 .0407624
515.209 .0407188
516.040 .0406782
516.870 .0406399
517.699 .0406029
518.528 .0405671
519.356 .0405325
520.183 .0404991
521.010 .0404676
521.836 .0404385
522.661 .0404119
523.485 .0403872
524.309 .0403640
525.132 .0403413
525.954 .0403178
526.776 .0402924
527.597 .0402642
528.417 .0402325
529.237 .0401976
530.056 .0401598
530.874 .0401194
531.692 .0400770
532.508 .0400339
533.325 .0399906
534.140 .0399479
534.955 .0399064
535.770 .0398660
536.583 .0398269
537.397 .0397892
538.209 .0397523
539.021 .0397160
539.832 .0396804
540.643 .0396456
541.453 .0396117
542.262 .0395790
543.071 .0395478
543.879 .0395181
544.687 .0394899
545.494 .0394629
546.300 .0394359
547.106 .0394085
547.911 .0393802
548.716 .0393507
549.520 .0393200
550.323 .0392886
551.126 .0392566
551.929 .0392249
552.731 .0391936
553.532 .0391627
554.332 .0391320
555.133 .0391016
555.932 .0390711
556.731 .0390404
557.530 .0390092
558.328 .0389776
559.125 .0389457
559.922 .0389139
560.719 .0388819
561.515 .0388501
562.310 .0388185
563.105 .0387872
563.899 .0387560
564.693 .0387248
565.487 .0386933
566.280 .0386615
567.072 .0386291
567.864 .0385957
568.655 .0385612
569.446 .0385253
570.236 .0384880
571.026 .0384492
571.816 .0384087
572.605 .0383667
573.393 .0383232
574.181 .0382784
574.969 .0382327
575.756 .0381863
576.543 .0381397
577.329 .0380932
578.115 .0380470
578.900 .0380013
579.685 .0379563
580.469 .0379120
581.253 .0378687
582.036 .0378266
582.820 .0377856
583.602 .0377460
584.384 .0377078
585.166 .0376710
585.947 .0376358
586.728 .0376021
587.509 .0375699
588.289 .0375392
589.069 .0375100
589.848 .0374823
590.627 .0374560
591.405 .0374310
592.183 .0374072
592.961 .0373845
593.738 .0373629
594.515 .0373424
595.291 .0373228
596.067 .0373042
596.843 .0372868
597.618 .0372703
598.393 .0372483
599.167 .0372341
599.941 .0372206
600.715 .0372079
601.488 .0371958
602.261 .0371840
603.034 .0371727
603.806 .0371617
604.578 .0371509
605.349 .0371404
606.121 .0371299
606.891 .0371256
607.662 .0371151
608.432 .0371046
609.201 .0370943
609.971 .0370841
610.740 .0370739
611.508 .0370636
612.277 .0370531
613.045 .0370423
613.812 .0370313
614.579 .0370198
615.346 .0370080
616.113 .0369959
616.879 .0369835
617.645 .0369708
618.411 .0369579
619.176 .0369447
619.941 .0369313
620.705 .0369176
621.470 .0369035
622.233 .0368890
622.997 .0368741
623.760 .0368590
624.523 .0368437
625.286 .0368284
626.048 .0368131
626.810 .0367979
627.572 .0367827
628.333 .0367676
629.095 .0367525
629.855 .0367373
630.616 .0367219
631.376 .0367064
632.136 .0366907
632.895 .0366749
633.655 .0366589
634.414 .0366428
635.172 .0366265
635.931 .0366099
636.689 .0365930
637.447 .0365759
638.204 .0365586
638.962 .0365412
639.718 .0365240
640.475 .0365069
641.231 .0364901
641.988 .0364737
642.743 .0364576
643.499 .0364419
644.254 .0364266
645.009 .0364117
645.764 .0363971
646.518 .0363831
647.272 .0363697
648.026 .0363569
648.780 .0363449
649.533 .0363335
650.286 .0363226
651.039 .0363122
651.792 .0363021
652.544 .0362922
653.296 .0362824
654.048 .0362726
654.799 .0362628
655.550 .0362529
656.301 .0362430
657.052 .0362329
657.802 .0362227
658.552 .0362122
659.302 .0362013
660.052 .0361901
660.801 .0361784
661.550 .0361661
662.299 .0361533
663.048 .0361400
663.796 .0361262
664.544 .0361119
665.292 .0360970
666.040 .0360818
666.787 .0360661
667.534 .0360501
668.281 .0360339
669.028 .0360174
669.774 .0360009
670.521 .0359843
671.266 .0359678
672.012 .0359513
672.758 .0359349
673.503 .0359186
674.248 .0359023
674.992 .0358862
675.737 .0358700
676.481 .0358539
677.225 .0358379
677.969 .0358220
678.712 .0358062
679.455 .0357904
680.199 .0357747
680.941 .0357590
681.684 .0357433
682.426 .0357276
683.168 .0357118
683.910 .0356959
684.652 .0356799
685.393 .0356638
686.134 .0356478
686.875 .0356318
687.616 .0356160
688.356 .0356002
689.097 .0355847
689.837 .0355694
690.576 .0355543
691.316 .0355394
692.055 .0355247
692.794 .0355102
693.533 .0354960
694.272 .0354819
695.010 .0354682
695.748 .0354547
696.486 .0354414
697.224 .0354284
697.962 .0354155
698.699 .0354029
699.436 .0353904
700.173 .0353782
700.909 .0353662
701.646 .0353543
702.382 .0353426
703.118 .0353311
703.853 .0353197
704.589 .0353085
705.324 .0352973
706.059 .0352862
706.794 .0352752
707.529 .0352641
708.263 .0352531
708.997 .0352421
709.731 .0352311
710.465 .0352200
711.198 .0352090
711.931 .0351978
712.664 .0351865
713.397 .0351750
714.130 .0351634
714.862 .0351515
715.594 .0351393
716.326 .0351267
717.058 .0351138
717.789 .0351005
718.520 .0350868
719.251 .0350726
719.982 .0350578
720.713 .0350425
721.443 .0350266
722.173 .0350102
722.903 .0349933
723.633 .0349760
724.362 .0349583
725.091 .0349403
725.820 .0349221
726.549 .0349037
727.278 .0348851
728.006 .0348664
728.734 .0348477
729.462 .0348290
730.190 .0348104
730.917 .0347920
731.644 .0347739
732.371 .0347562
733.098 .0347388
733.825 .0347220
734.551 .0347055
735.277 .0346894
736.003 .0346737
736.728 .0346584
737.454 .0346436
738.179 .0346292
738.904 .0346152
739.629 .0346016
740.353 .0345884
741.077 .0345755
741.801 .0345628
742.525 .0345504
743.249 .0345381
743.972 .0345259
744.695 .0345139
745.418 .0345020
746.141 .0344902
746.863 .0344785
747.585 .0344669
748.307 .0344554
749.029 .0344439
749.750 .0344324
750.472 .0344209
751.193 .0344095
751.913 .0343981
752.634 .0343869
753.354 .0343757
754.074 .0343648
754.794 .0343539
755.514 .0343432
756.233 .0343326
756.952 .0343220
757.671 .0343116
758.390 .0343012
759.108 .0342910
759.826 .0342809
760.544 .0342710
761.262 .0342612
761.979 .0342516
762.697 .0342422
763.414 .0342329
764.130 .0342237
764.847 .0342147
765.563 .0342058
766.279 .0341970
766.995 .0341883
767.710 .0341799
768.426 .0341715
769.141 .0341633
769.855 .0341552
770.570 .0341471
771.284 .0341392
771.998 .0341312
772.712 .0341233
773.426 .0341153
774.139 .0341073
774.852 .0340992
775.565 .0340910
776.277 .0340827
776.990 .0340741
777.702 .0340652
778.414 .0340561
779.125 .0340466
779.836 .0340368
780.547 .0340267
781.258 .0340164
781.969 .0340058
782.679 .0339950
783.389 .0339779
784.099 .0339668
784.808 .0339555
785.517 .0339441
786.226 .0339324
786.935 .0339206
787.643 .0339087
788.352 .0338966
789.060 .0338845
789.767 .0338724
790.475 .0338603
791.182 .0338483
791.889 .0338427
792.595 .0338307
793.301 .0338187
794.008 .0338065
794.713 .0337942
795.419 .0337818
796.124 .0337691
796.829 .0337561
797.534 .0337429
798.238 .0337294
798.942 .0337155
799.646 .0337014
800.350 .0336868
801.053 .0336719
801.756 .0336567
802.459 .0336411
803.162 .0336252
803.864 .0336091
804.566 .0335929
805.267 .0335765
805.969 .0335600
806.670 .0335435
807.371 .0335271
808.071 .0335106
808.772 .0334942
809.472 .0334778
810.171 .0334615
810.871 .0334453
811.570 .0334291
812.269 .0334131
812.967 .0333973
813.666 .0333815
814.364 .0333659
815.061 .0333503
815.759 .0333349
816.456 .0333195
817.153 .0333042
817.849 .0332891
818.545 .0332740
819.241 .0332591
819.937 .0332443
820.632 .0332297
821.327 .0332152
822.022 .0332008
822.717 .0331865
823.411 .0331722
824.105 .0331578
824.798 .0331434
825.491 .0331291
826.184 .0331147
826.877 .0331004
827.569 .0330862
828.261 .0330722
828.953 .0330584
829.645 .0330449
830.336 .0330317
831.027 .0330188
831.717 .0330063
832.407 .0329942
833.097 .0329826
833.787 .0329714
834.476 .0329607
835.165 .0329505
835.854 .0329408
836.542 .0329316
837.230 .0329228
837.918 .0329143
838.605 .0329062
839.292 .0328983
839.979 .0328906
840.665 .0328831
841.352 .0328757
842.037 .0328685
842.723 .0328613
843.408 .0328541
844.093 .0328469
844.777 .0328396
845.462 .0328322
846.145 .0328246
846.829 .0328168
847.512 .0328089
848.195 .0328008
848.878 .0327924
849.560 .0327839
850.242 .0327751
850.923 .0327660
851.605 .0327565
852.286 .0327467
852.966 .0327364
853.646 .0327257
854.326 .0327146
855.006 .0327029
855.685 .0326909
856.364 .0326785
857.043 .0326658
857.721 .0326528
858.399 .0326395
859.077 .0326260
859.754 .0326122
860.431 .0325984
861.107 .0325844
861.784 .0325704
862.459 .0325562
863.135 .0325420
863.810 .0325277
864.485 .0325132
865.160 .0324987
865.834 .0324840
866.508 .0324691
867.181 .0324542
867.854 .0324392
868.527 .0324241
869.199 .0324090
869.872 .0323939
870.543 .0323787
871.215 .0323635
871.886 .0323481
872.557 .0323326
873.227 .0323169
873.897 .0323011
874.567 .0322851
875.236 .0322690
875.905 .0322526
876.573 .0322360
877.242 .0322191
877.909 .0322020
878.577 .0321845
879.244 .0321666
879.911 .0321484
880.577 .0321298
881.243 .0321109
881.909 .0320917
882.575 .0320721
883.240 .0320522
883.904 .0320321
884.569 .0320117
885.232 .0319911
885.896 .0319702
886.559 .0319492
887.222 .0319281
887.885 .0319069
888.547 .0318857
889.208 .0318646
889.870 .0318436
890.531 .0318228
891.192 .0318023
891.852 .0317820
892.512 .0317619
893.171 .0317422
893.830 .0317227
894.489 .0317035
895.148 .0316845
895.806 .0316659
896.464 .0316475
897.121 .0316294
897.778 .0316118
898.434 .0315945
899.091 .0315701
899.747 .0315537
900.402 .0315376
901.057 .0315218
901.712 .0315061
902.366 .0314906
903.020 .0314752
903.674 .0314599
904.327 .0314446
904.980 .0314295
905.633 .0314143
906.285 .0313992
906.936 .0313840
907.588 .0313760
908.239 .0313607
908.889 .0313453
909.540 .0313297
910.190 .0313140
910.839 .0312981
911.488 .0312822
912.137 .0312663
912.785 .0312504
913.433 .0312346
914.081 .0312191
914.728 .0312037
915.375 .0311885
916.021 .0311735
916.668 .0311587
917.313 .0311441
917.959 .0311296
918.604 .0311154
919.248 .0311013
919.892 .0310875
920.536 .0310739
921.180 .0310605
921.823 .0310473
922.465 .0310343
923.108 .0310214
923.750 .0310087
924.391 .0309960
925.032 .0309834
925.673 .0309709
926.313 .0309584
926.953 .0309461
927.593 .0309339
928.232 .0309219
928.871 .0309101
929.510 .0308984
930.148 .0308870
930.786 .0308758
931.423 .0308647
932.060 .0308538
932.697 .0308431
933.333 .0308326
933.969 .0308222
934.604 .0308120
935.239 .0308019
935.874 .0307921
936.508 .0307823
937.142 .0307728
937.776 .0307634
938.409 .0307542
939.042 .0307452
939.674 .0307364
940.306 .0307277
940.938 .0307191
941.569 .0307106
942.200 .0307020
942.830 .0306934
943.460 .0306848
944.090 .0306760
944.720 .0306672
945.349 .0306582
945.977 .0306492
946.606 .0306400
947.233 .0306306
947.861 .0306209
948.488 .0306109
949.115 .0306005
949.741 .0305898
950.367 .0305787
950.993 .0305674
951.618 .0305558
952.243 .0305440
952.868 .0305321
953.492 .0305201
954.115 .0305080
954.739 .0304959
955.362 .0304836
955.984 .0304713
956.607 .0304590
957.229 .0304466
957.850 .0304343
958.471 .0304221
959.092 .0304100
959.713 .0303981
960.333 .0303864
960.952 .0303749
961.572 .0303636
962.191 .0303525
962.809 .0303415
963.428 .0303307
964.045 .0303199
964.663 .0303092
965.280 .0302985
965.897 .0302878
966.513 .0302769
967.129 .0302657
967.745 .0302543
968.361 .0302425
968.976 .0302303
969.590 .0302176
970.205 .0302046
970.818 .0301911
971.432 .0301771
972.045 .0301626
972.658 .0301476
973.271 .0301321
973.883 .0301161
974.495 .0300996
975.106 .0300828
975.717 .0300657
976.328 .0300484
976.938 .0300310
977.548 .0300135
978.158 .0299959
978.768 .0299696
979.377 .0299521
979.985 .0299346
980.594 .0299171
981.202 .0298997
981.809 .0298826
982.417 .0298658
983.024 .0298493
983.631 .0298333
984.237 .0298177
984.843 .0298024
985.449 .0297874
986.054 .0297726
986.659 .0297580
987.264 .0297518
987.868 .0297374
988.472 .0297232
989.076 .0297094
989.679 .0296958
990.282 .0296825
990.885 .0296693
991.487 .0296563
992.090 .0296433
992.691 .0296302
993.293 .0296169
993.894 .0296033
994.495 .0295895
995.095 .0295754
995.696 .0295612
996.296 .0295468
996.895 .0295323
997.494 .0295177
998.093 .0295029
998.692 .0294880
999.291 .0294729
999.889 .0294576
1000.487 .0294421
1001.084 .0294265
1001.681 .0294108
1002.278 .0293950
1002.875 .0293794
1003.471 .0293639
1004.067 .0293486
1004.663 .0293335
1005.258 .0293187
1005.854 .0293042
1006.449 .0292900
1007.043 .0292763
1007.638 .0292630
1008.232 .0292503
1008.826 .0292383
1009.419 .0292269
1010.012 .0292162
1010.605 .0292063
1011.198 .0291973
1011.791 .0291890
1012.383 .0291814
1012.975 .0291747
1013.566 .0291686
1014.158 .0291631
1014.749 .0291581
1015.340 .0291536
1015.931 .0291495
1016.521 .0291458
1017.111 .0291424
1017.701 .0291393
1018.291 .0291366
1018.880 .0291345
1019.470 .0291328
1020.059 .0291316
1020.647 .0291309
1021.236 .0291307
1021.824 .0291307
1022.412 .0291311
1023.000 .0291316
1023.588 .0291322
1024.175 .0291330
1024.762 .0291338
1025.349 .0291348
1025.936 .0291360
1026.523 .0291374
1027.109 .0291390
1027.695 .0291408
1028.281 .0291427
1028.867 .0291447
1029.452 .0291466
1030.038 .0291486
1030.623 .0291507
1031.208 .0291529
1031.792 .0291553
1032.377 .0291580
1032.961 .0291611
1033.546 .0291645
1034.130 .0291683
1034.714 .0291724
1035.297 .0291767
1035.881 .0291811
1036.464 .0291856
1037.047 .0291900
1037.630 .0291945
1038.213 .0291991
1038.796 .0292037
1039.378 .0292084
1039.961 .0292132
1040.543 .0292180
1041.125 .0292228
1041.707 .0292276
1042.289 .0292325
1042.871 .0292374
1043.452 .0292423
1044.034 .0292473
1044.615 .0292524
1045.196 .0292576
1045.777 .0292630
1046.358 .0292683
1046.939 .0292736
1047.520 .0292786
1048.101 .0292833
1048.681 .0292877
1049.262 .0292918
1049.842 .0292955
1050.422 .0292991
1051.002 .0293027
1051.582 .0293062
1052.162 .0293099
1052.742 .0293136
1053.322 .0293175
1053.902 .0293214
1054.482 .0293254
1055.061 .0293295
1055.641 .0293336
1056.220 .0293378
1056.800 .0293421
1057.379 .0293465
1057.958 .0293510
1058.538 .0293555
1059.117 .0293598
1059.696 .0293638
1060.275 .0293672
1060.854 .0293701
1061.433 .0293721
1062.012 .0293734
1062.592 .0293740
1063.171 .0293740
1063.750 .0293734
1064.329 .0293726
1064.908 .0293716
1065.487 .0293705
1066.066 .0293693
1066.645 .0293682
1067.224 .0293670
1067.803 .0293657
1068.382 .0293643
1068.961 .0293627
1069.540 .0293609
1070.119 .0293589
1070.698 .0293566
1071.278 .0293541
1071.857 .0293514
1072.436 .0293484
1073.016 .0293454
1073.595 .0293423
1074.175 .0293393
1074.754 .0293362
1075.334 .0293333
1075.913 .0293304
1076.493 .0293277
1077.073 .0293251
1077.653 .0293227
1078.233 .0293205
1078.813 .0293187
1079.393 .0293173
1079.974 .0293164
1080.554 .0293160
1081.135 .0293161
1081.716 .0293166
1082.296 .0293175
1082.877 .0293187
1083.458 .0293199
1084.040 .0293212
1084.621 .0293223
1085.202 .0293233
1085.784 .0293241
1086.366 .0293245
1086.948 .0293248
1087.530 .0293249
1088.112 .0293247
1088.695 .0293241
1089.277 .0293232
1089.860 .0293220
1090.443 .0293203
1091.026 .0293180
1091.610 .0293151
1092.193 .0293114
1092.777 .0293069
1093.361 .0293016
1093.946 .0292955
1094.530 .0292887
1095.115 .0292812
1095.700 .0292732
1096.285 .0292646
1096.871 .0292557
1097.456 .0292466
1098.042 .0292372
1098.628 .0292277
1099.215 .0292180
1099.802 .0292081
1100.389 .0291981
1100.976 .0291880
1101.564 .0291778
1102.152 .0291677
1102.740 .0291577
1103.329 .0291479
1103.917 .0291384
1104.507 .0291293
1105.096 .0291206
1105.686 .0291127
1106.276 .0291056
1106.867 .0290996
1107.457 .0290949
1108.049 .0290916
1108.640 .0290899
1109.232 .0290897
1109.825 .0290913
1110.417 .0290944
1111.010 .0290992
1111.604 .0291056
1112.198 .0291134
1112.792 .0291227
1113.387 .0291335
1113.982 .0291455
1114.577 .0291587
1115.173 .0291728
1115.769 .0291875
1116.366 .0292025
1116.963 .0292176
1117.561 .0292325
1118.159 .0292469
1118.758 .0292605
1119.357 .0292734
1119.957 .0292857
1120.557 .0292975
1121.157 .0293092
1121.758 .0293208
1122.360 .0293325
1122.962 .0293444
1123.564 .0293563
1124.167 .0293654
1124.771 .0293765
1125.375 .0293872
1125.980 .0293974
1126.585 .0294074
1127.191 .0294175
1127.797 .0294281
1128.404 .0294396
1129.012 .0294525
1129.620 .0294672
1130.229 .0294835
1130.838 .0295017
1131.448 .0295220
1132.058 .0295443
1132.669 .0295723
1133.281 .0295997
1133.894 .0296305
1134.507 .0296684
1135.120 .0297057
1135.735 .0297523
1136.350 .0297891
1136.965 .0296716
1137.582 .0297399
1138.199 .0298108
1138.816 .0298890
1139.435 .0299761
1140.054 .0300604
1140.674 .0301512
1141.294 .0302306
1141.916 .0303210
1142.538 .0305041
1143.160 .0304711
1143.784 .0307022
1144.408 .0304135
1145.033 .0308948
