Measurement Sequence started on: 14-45-04-498
Integration time: 36
Scans to Average: 2 
>>>>>Begin Spectral Data<<<<<
433.946 .0599783
434.870 .0544229
435.793 .0516357
436.715 .0513876
437.635 .0504460
438.555 .0504552
439.473 .0496077
440.389 .0489975
441.305 .0485029
442.219 .0480414
443.132 .0483141
444.044 .0478467
444.954 .0475236
445.863 .0472126
446.771 .0469507
447.678 .0466886
448.584 .0464712
449.488 .0462858
450.391 .0461263
451.293 .0459909
452.194 .0458770
453.094 .0457823
453.992 .0457043
454.890 .0456407
455.786 .0455894
456.681 .0455486
457.575 .0455160
458.468 .0454902
459.360 .0454691
460.250 .0454511
461.140 .0454342
462.028 .0454172
462.915 .0453987
463.801 .0453782
464.687 .0453550
465.571 .0453290
466.454 .0452996
467.335 .0452664
468.216 .0452290
469.096 .0451869
469.975 .0451402
470.853 .0450889
471.729 .0450334
472.605 .0449744
473.479 .0449130
474.353 .0448495
475.226 .0447848
476.097 .0447194
476.968 .0446533
477.838 .0445867
478.706 .0445194
479.574 .0444516
480.441 .0443837
481.306 .0443161
482.171 .0442497
483.035 .0441854
483.898 .0441238
484.760 .0440654
485.621 .0440106
486.481 .0439592
487.340 .0439113
488.198 .0438665
489.055 .0438245
489.912 .0437850
490.767 .0437481
491.622 .0437012
492.476 .0436689
493.329 .0436383
494.180 .0436091
495.032 .0435807
495.882 .0435526
496.731 .0435243
497.580 .0434952
498.427 .0434644
499.274 .0434315
500.120 .0434093
500.965 .0433720
501.809 .0433317
502.653 .0432883
503.495 .0432418
504.337 .0431920
505.178 .0431392
506.018 .0430834
506.858 .0430252
507.696 .0429648
508.534 .0429033
509.371 .0428415
510.208 .0427805
511.043 .0427214
511.878 .0426655
512.712 .0426142
513.545 .0425685
514.377 .0425292
515.209 .0424968
516.040 .0424717
516.870 .0424541
517.699 .0424432
518.528 .0424389
519.356 .0424408
520.183 .0424481
521.010 .0424598
521.836 .0424748
522.661 .0424918
523.485 .0425095
524.309 .0425265
525.132 .0425413
525.954 .0425526
526.776 .0425588
527.597 .0425589
528.417 .0425515
529.237 .0425361
530.056 .0425119
530.874 .0424786
531.692 .0424363
532.508 .0423851
533.325 .0423256
534.140 .0422589
534.955 .0421867
535.770 .0421104
536.583 .0420306
537.397 .0419486
538.209 .0418653
539.021 .0417812
539.832 .0416969
540.643 .0416132
541.453 .0415305
542.262 .0414495
543.071 .0413705
543.879 .0412943
544.687 .0412214
545.494 .0411521
546.300 .0410864
547.106 .0410239
547.911 .0409640
548.716 .0409059
549.520 .0408487
550.323 .0407922
551.126 .0407354
551.929 .0406776
552.731 .0406187
553.532 .0405589
554.332 .0404984
555.133 .0404380
555.932 .0403783
556.731 .0403201
557.530 .0402635
558.328 .0402089
559.125 .0401564
559.922 .0401057
560.719 .0400569
561.515 .0400095
562.310 .0399633
563.105 .0399183
563.899 .0398746
564.693 .0398326
565.487 .0397927
566.280 .0397554
567.072 .0397205
567.864 .0396878
568.655 .0396572
569.446 .0396281
570.236 .0395999
571.026 .0395719
571.816 .0395434
572.605 .0395144
573.393 .0394846
574.181 .0394541
574.969 .0394233
575.756 .0393923
576.543 .0393615
577.329 .0393309
578.115 .0393004
578.900 .0392700
579.685 .0392393
580.469 .0392083
581.253 .0391768
582.036 .0391443
582.820 .0391111
583.602 .0390770
584.384 .0390424
585.166 .0390075
585.947 .0389725
586.728 .0389376
587.509 .0389031
588.289 .0388690
589.069 .0388353
589.848 .0388020
590.627 .0387692
591.405 .0387368
592.183 .0387046
592.961 .0386728
593.738 .0386415
594.515 .0386110
595.291 .0385813
596.067 .0385527
596.843 .0385251
597.618 .0384988
598.393 .0384620
599.167 .0384378
599.941 .0384141
600.715 .0383910
601.488 .0383681
602.261 .0383454
603.034 .0383229
603.806 .0383006
604.578 .0382785
605.349 .0382568
606.121 .0382355
606.891 .0382260
607.662 .0382055
608.432 .0381855
609.201 .0381660
609.971 .0381470
610.740 .0381286
611.508 .0381108
612.277 .0380935
613.045 .0380768
613.812 .0380605
614.579 .0380445
615.346 .0380289
616.113 .0380136
616.879 .0379985
617.645 .0379838
618.411 .0379692
619.176 .0379547
619.941 .0379403
620.705 .0379259
621.470 .0379112
622.233 .0378962
622.997 .0378808
623.760 .0378647
624.523 .0378481
625.286 .0378310
626.048 .0378133
626.810 .0377951
627.572 .0377763
628.333 .0377570
629.095 .0377371
629.855 .0377167
630.616 .0376956
631.376 .0376740
632.136 .0376518
632.895 .0376290
633.655 .0376056
634.414 .0375817
635.172 .0375573
635.931 .0375324
636.689 .0375069
637.447 .0374810
638.204 .0374546
638.962 .0374279
639.718 .0374010
640.475 .0373740
641.231 .0373469
641.988 .0373200
642.743 .0372933
643.499 .0372668
644.254 .0372405
645.009 .0372144
645.764 .0371887
646.518 .0371632
647.272 .0371381
648.026 .0371134
648.780 .0370892
649.533 .0370655
650.286 .0370422
651.039 .0370195
651.792 .0369972
652.544 .0369754
653.296 .0369539
654.048 .0369329
654.799 .0369121
655.550 .0368918
656.301 .0368718
657.052 .0368521
657.802 .0368327
658.552 .0368135
659.302 .0367945
660.052 .0367756
660.801 .0367566
661.550 .0367374
662.299 .0367180
663.048 .0366983
663.796 .0366784
664.544 .0366583
665.292 .0366381
666.040 .0366178
666.787 .0365976
667.534 .0365773
668.281 .0365571
669.028 .0365370
669.774 .0365172
670.521 .0364975
671.266 .0364782
672.012 .0364592
672.758 .0364406
673.503 .0364222
674.248 .0364042
674.992 .0363863
675.737 .0363687
676.481 .0363510
677.225 .0363334
677.969 .0363159
678.712 .0362985
679.455 .0362811
680.199 .0362638
680.941 .0362466
681.684 .0362294
682.426 .0362120
683.168 .0361944
683.910 .0361765
684.652 .0361583
685.393 .0361397
686.134 .0361209
686.875 .0361020
687.616 .0360831
688.356 .0360642
689.097 .0360454
689.837 .0360267
690.576 .0360083
691.316 .0359900
692.055 .0359719
692.794 .0359541
693.533 .0359365
694.272 .0359193
695.010 .0359024
695.748 .0358859
696.486 .0358697
697.224 .0358539
697.962 .0358383
698.699 .0358231
699.436 .0358081
700.173 .0357934
700.909 .0357790
701.646 .0357648
702.382 .0357509
703.118 .0357370
703.853 .0357232
704.589 .0357093
705.324 .0356953
706.059 .0356809
706.794 .0356662
707.529 .0356512
708.263 .0356358
708.997 .0356202
709.731 .0356042
710.465 .0355881
711.198 .0355718
711.931 .0355555
712.664 .0355391
713.397 .0355226
714.130 .0355062
714.862 .0354897
715.594 .0354732
716.326 .0354568
717.058 .0354403
717.789 .0354239
718.520 .0354074
719.251 .0353910
719.982 .0353747
720.713 .0353583
721.443 .0353420
722.173 .0353258
722.903 .0353095
723.633 .0352933
724.362 .0352771
725.091 .0352609
725.820 .0352446
726.549 .0352282
727.278 .0352118
728.006 .0351952
728.734 .0351787
729.462 .0351621
730.190 .0351454
730.917 .0351288
731.644 .0351123
732.371 .0350960
733.098 .0350798
733.825 .0350639
734.551 .0350483
735.277 .0350330
736.003 .0350181
736.728 .0350036
737.454 .0349895
738.179 .0349757
738.904 .0349622
739.629 .0349490
740.353 .0349360
741.077 .0349233
741.801 .0349108
742.525 .0348984
743.249 .0348862
743.972 .0348739
744.695 .0348617
745.418 .0348493
746.141 .0348368
746.863 .0348240
747.585 .0348109
748.307 .0347974
749.029 .0347834
749.750 .0347691
750.472 .0347543
751.193 .0347390
751.913 .0347234
752.634 .0347075
753.354 .0346912
754.074 .0346749
754.794 .0346584
755.514 .0346419
756.233 .0346256
756.952 .0346094
757.671 .0345935
758.390 .0345779
759.108 .0345627
759.826 .0345479
760.544 .0345335
761.262 .0345195
761.979 .0345061
762.697 .0344931
763.414 .0344805
764.130 .0344684
764.847 .0344568
765.563 .0344456
766.279 .0344347
766.995 .0344241
767.710 .0344139
768.426 .0344038
769.141 .0343938
769.855 .0343838
770.570 .0343738
771.284 .0343636
771.998 .0343533
772.712 .0343427
773.426 .0343320
774.139 .0343211
774.852 .0343101
775.565 .0342991
776.277 .0342880
776.990 .0342768
777.702 .0342657
778.414 .0342545
779.125 .0342433
779.836 .0342321
780.547 .0342210
781.258 .0342099
781.969 .0341991
782.679 .0341884
783.389 .0341732
784.099 .0341629
784.808 .0341527
785.517 .0341425
786.226 .0341323
786.935 .0341221
787.643 .0341118
788.352 .0341013
789.060 .0340907
789.767 .0340800
790.475 .0340691
791.182 .0340580
791.889 .0340516
792.595 .0340402
793.301 .0340287
794.008 .0340170
794.713 .0340052
795.419 .0339932
796.124 .0339811
796.829 .0339688
797.534 .0339565
798.238 .0339440
798.942 .0339315
799.646 .0339189
800.350 .0339063
801.053 .0338938
801.756 .0338813
802.459 .0338689
803.162 .0338567
803.864 .0338447
804.566 .0338329
805.267 .0338213
805.969 .0338099
806.670 .0337988
807.371 .0337879
808.071 .0337773
808.772 .0337669
809.472 .0337566
810.171 .0337465
810.871 .0337365
811.570 .0337265
812.269 .0337164
812.967 .0337063
813.666 .0336961
814.364 .0336856
815.061 .0336750
815.759 .0336642
816.456 .0336531
817.153 .0336417
817.849 .0336299
818.545 .0336177
819.241 .0336051
819.937 .0335922
820.632 .0335789
821.327 .0335654
822.022 .0335516
822.717 .0335377
823.411 .0335235
824.105 .0335091
824.798 .0334945
825.491 .0334797
826.184 .0334646
826.877 .0334493
827.569 .0334339
828.261 .0334183
828.953 .0334026
829.645 .0333869
830.336 .0333712
831.027 .0333556
831.717 .0333401
832.407 .0333247
833.097 .0333094
833.787 .0332942
834.476 .0332791
835.165 .0332641
835.854 .0332492
836.542 .0332343
837.230 .0332195
837.918 .0332048
838.605 .0331901
839.292 .0331755
839.979 .0331609
840.665 .0331464
841.352 .0331318
842.037 .0331171
842.723 .0331024
843.408 .0330875
844.093 .0330725
844.777 .0330574
845.462 .0330421
846.145 .0330268
846.829 .0330114
847.512 .0329960
848.195 .0329806
848.878 .0329652
849.560 .0329497
850.242 .0329342
850.923 .0329187
851.605 .0329030
852.286 .0328872
852.966 .0328712
853.646 .0328551
854.326 .0328387
855.006 .0328222
855.685 .0328055
856.364 .0327887
857.043 .0327717
857.721 .0327547
858.399 .0327377
859.077 .0327207
859.754 .0327038
860.431 .0326871
861.107 .0326704
861.784 .0326540
862.459 .0326376
863.135 .0326215
863.810 .0326055
864.485 .0325897
865.160 .0325741
865.834 .0325588
866.508 .0325436
867.181 .0325288
867.854 .0325142
868.527 .0325000
869.199 .0324861
869.872 .0324727
870.543 .0324597
871.215 .0324472
871.886 .0324351
872.557 .0324234
873.227 .0324121
873.897 .0324011
874.567 .0323905
875.236 .0323801
875.905 .0323700
876.573 .0323601
877.242 .0323506
877.909 .0323413
878.577 .0323324
879.244 .0323236
879.911 .0323150
880.577 .0323066
881.243 .0322981
881.909 .0322895
882.575 .0322809
883.240 .0322722
883.904 .0322633
884.569 .0322543
885.232 .0322453
885.896 .0322363
886.559 .0322273
887.222 .0322182
887.885 .0322091
888.547 .0322001
889.208 .0321909
889.870 .0321818
890.531 .0321726
891.192 .0321632
891.852 .0321539
892.512 .0321444
893.171 .0321347
893.830 .0321247
894.489 .0321145
895.148 .0321040
895.806 .0320933
896.464 .0320822
897.121 .0320709
897.778 .0320594
898.434 .0320477
899.091 .0320291
899.747 .0320168
900.402 .0320044
901.057 .0319918
901.712 .0319791
902.366 .0319662
903.020 .0319532
903.674 .0319400
904.327 .0319266
904.980 .0319131
905.633 .0318995
906.285 .0318859
906.936 .0318721
907.588 .0318653
908.239 .0318515
908.889 .0318375
909.540 .0318234
910.190 .0318092
910.839 .0317947
911.488 .0317800
912.137 .0317651
912.785 .0317500
913.433 .0317347
914.081 .0317191
914.728 .0317034
915.375 .0316874
916.021 .0316711
916.668 .0316545
917.313 .0316376
917.959 .0316203
918.604 .0316025
919.248 .0315843
919.892 .0315656
920.536 .0315465
921.180 .0315270
921.823 .0315070
922.465 .0314867
923.108 .0314658
923.750 .0314446
924.391 .0314228
925.032 .0314005
925.673 .0313778
926.313 .0313545
926.953 .0313308
927.593 .0313066
928.232 .0312821
928.871 .0312572
929.510 .0312320
930.148 .0312065
930.786 .0311807
931.423 .0311546
932.060 .0311283
932.697 .0311019
933.333 .0310753
933.969 .0310488
934.604 .0310223
935.239 .0309959
935.874 .0309697
936.508 .0309437
937.142 .0309180
937.776 .0308924
938.409 .0308671
939.042 .0308421
939.674 .0308173
940.306 .0307927
940.938 .0307685
941.569 .0307446
942.200 .0307209
942.830 .0306976
943.460 .0306746
944.090 .0306519
944.720 .0306296
945.349 .0306075
945.977 .0305857
946.606 .0305643
947.233 .0305434
947.861 .0305228
948.488 .0305028
949.115 .0304832
949.741 .0304642
950.367 .0304458
950.993 .0304278
951.618 .0304104
952.243 .0303934
952.868 .0303768
953.492 .0303606
954.115 .0303448
954.739 .0303295
955.362 .0303144
955.984 .0302998
956.607 .0302855
957.229 .0302715
957.850 .0302580
958.471 .0302449
959.092 .0302322
959.713 .0302200
960.333 .0302083
960.952 .0301971
961.572 .0301866
962.191 .0301767
962.809 .0301674
963.428 .0301587
964.045 .0301506
964.663 .0301431
965.280 .0301362
965.897 .0301298
966.513 .0301240
967.129 .0301186
967.745 .0301137
968.361 .0301091
968.976 .0301049
969.590 .0301010
970.205 .0300973
970.818 .0300939
971.432 .0300906
972.045 .0300875
972.658 .0300846
973.271 .0300817
973.883 .0300789
974.495 .0300762
975.106 .0300734
975.717 .0300707
976.328 .0300678
976.938 .0300649
977.548 .0300620
978.158 .0300590
978.768 .0300539
979.377 .0300510
979.985 .0300482
980.594 .0300455
981.202 .0300429
981.809 .0300405
982.417 .0300382
983.024 .0300362
983.631 .0300343
984.237 .0300327
984.843 .0300313
985.449 .0300300
986.054 .0300289
986.659 .0300278
987.264 .0300282
987.868 .0300269
988.472 .0300256
989.076 .0300241
989.679 .0300224
990.282 .0300204
990.885 .0300183
991.487 .0300159
992.090 .0300133
992.691 .0300105
993.293 .0300076
993.894 .0300043
994.495 .0300009
995.095 .0299973
995.696 .0299936
996.296 .0299896
996.895 .0299855
997.494 .0299813
998.093 .0299769
998.692 .0299723
999.291 .0299674
999.889 .0299623
1000.487 .0299567
1001.084 .0299507
1001.681 .0299443
1002.278 .0299374
1002.875 .0299302
1003.471 .0299226
1004.067 .0299148
1004.663 .0299069
1005.258 .0298990
1005.854 .0298910
1006.449 .0298832
1007.043 .0298754
1007.638 .0298678
1008.232 .0298603
1008.826 .0298529
1009.419 .0298457
1010.012 .0298387
1010.605 .0298319
1011.198 .0298252
1011.791 .0298187
1012.383 .0298122
1012.975 .0298058
1013.566 .0297992
1014.158 .0297925
1014.749 .0297857
1015.340 .0297786
1015.931 .0297714
1016.521 .0297640
1017.111 .0297564
1017.701 .0297486
1018.291 .0297408
1018.880 .0297330
1019.470 .0297252
1020.059 .0297174
1020.647 .0297096
1021.236 .0297019
1021.824 .0296942
1022.412 .0296865
1023.000 .0296789
1023.588 .0296712
1024.175 .0296634
1024.762 .0296554
1025.349 .0296472
1025.936 .0296389
1026.523 .0296304
1027.109 .0296217
1027.695 .0296128
1028.281 .0296038
1028.867 .0295948
1029.452 .0295858
1030.038 .0295767
1030.623 .0295678
1031.208 .0295589
1031.792 .0295501
1032.377 .0295414
1032.961 .0295328
1033.546 .0295242
1034.130 .0295157
1034.714 .0295073
1035.297 .0294989
1035.881 .0294904
1036.464 .0294818
1037.047 .0294730
1037.630 .0294641
1038.213 .0294549
1038.796 .0294454
1039.378 .0294356
1039.961 .0294255
1040.543 .0294152
1041.125 .0294047
1041.707 .0293941
1042.289 .0293833
1042.871 .0293724
1043.452 .0293615
1044.034 .0293506
1044.615 .0293395
1045.196 .0293284
1045.777 .0293172
1046.358 .0293061
1046.939 .0292950
1047.520 .0292840
1048.101 .0292730
1048.681 .0292622
1049.262 .0292514
1049.842 .0292406
1050.422 .0292298
1051.002 .0292190
1051.582 .0292081
1052.162 .0291972
1052.742 .0291863
1053.322 .0291755
1053.902 .0291650
1054.482 .0291547
1055.061 .0291448
1055.641 .0291354
1056.220 .0291264
1056.800 .0291179
1057.379 .0291099
1057.958 .0291023
1058.538 .0290950
1059.117 .0290881
1059.696 .0290814
1060.275 .0290751
1060.854 .0290690
1061.433 .0290631
1062.012 .0290576
1062.592 .0290524
1063.171 .0290474
1063.750 .0290425
1064.329 .0290377
1064.908 .0290330
1065.487 .0290285
1066.066 .0290242
1066.645 .0290201
1067.224 .0290164
1067.803 .0290131
1068.382 .0290103
1068.961 .0290079
1069.540 .0290061
1070.119 .0290047
1070.698 .0290036
1071.278 .0290029
1071.857 .0290024
1072.436 .0290023
1073.016 .0290026
1073.595 .0290033
1074.175 .0290047
1074.754 .0290066
1075.334 .0290092
1075.913 .0290125
1076.493 .0290163
1077.073 .0290205
1077.653 .0290251
1078.233 .0290299
1078.813 .0290349
1079.393 .0290399
1079.974 .0290451
1080.554 .0290505
1081.135 .0290561
1081.716 .0290620
1082.296 .0290681
1082.877 .0290742
1083.458 .0290801
1084.040 .0290857
1084.621 .0290907
1085.202 .0290949
1085.784 .0290984
1086.366 .0291011
1086.948 .0291033
1087.530 .0291049
1088.112 .0291063
1088.695 .0291075
1089.277 .0291085
1089.860 .0291093
1090.443 .0291098
1091.026 .0291099
1091.610 .0291096
1092.193 .0291089
1092.777 .0291078
1093.361 .0291065
1093.946 .0291051
1094.530 .0291040
1095.115 .0291032
1095.700 .0291027
1096.285 .0291026
1096.871 .0291029
1097.456 .0291034
1098.042 .0291040
1098.628 .0291046
1099.215 .0291052
1099.802 .0291061
1100.389 .0291071
1100.976 .0291087
1101.564 .0291109
1102.152 .0291140
1102.740 .0291178
1103.329 .0291224
1103.917 .0291276
1104.507 .0291333
1105.096 .0291394
1105.686 .0291459
1106.276 .0291530
1106.867 .0291608
1107.457 .0291695
1108.049 .0291794
1108.640 .0291904
1109.232 .0292028
1109.825 .0292165
1110.417 .0292313
1111.010 .0292472
1111.604 .0292639
1112.198 .0292814
1112.792 .0292998
1113.387 .0293189
1113.982 .0293390
1114.577 .0293601
1115.173 .0293821
1115.769 .0294049
1116.366 .0294285
1116.963 .0294526
1117.561 .0294770
1118.159 .0295018
1118.758 .0295267
1119.357 .0295518
1119.957 .0295771
1120.557 .0296026
1121.157 .0296285
1121.758 .0296547
1122.360 .0296811
1122.962 .0297075
1123.564 .0297338
1124.167 .0297495
1124.771 .0297754
1125.375 .0298008
1125.980 .0298259
1126.585 .0298510
1127.191 .0298760
1127.797 .0299013
1128.404 .0299270
1129.012 .0299533
1129.620 .0299801
1130.229 .0300073
1130.838 .0300351
1131.448 .0300633
1132.058 .0300925
1132.669 .0301337
1133.281 .0301651
1133.894 .0301981
1134.507 .0302332
1135.120 .0302781
1135.735 .0303173
1136.350 .0303474
1136.965 .0303183
1137.582 .0303661
1138.199 .0304124
1138.816 .0304618
1139.435 .0305131
1140.054 .0305745
1140.674 .0306395
1141.294 .0306987
1141.916 .0307625
1142.538 .0308385
1143.160 .0311186
1143.784 .0309761
1144.408 .0307442
1145.033 .0309930
