Measurement Sequence started on: 14-45-04-498
Integration time: 36
Scans to Average: 2 
>>>>>Begin Spectral Data<<<<<
433.946 .0518641
434.870 .0453374
435.793 .0400299
436.715 .0411796
437.635 .0418042
438.555 .0413976
439.473 .0406961
440.389 .0402680
441.305 .0399754
442.219 .0396255
443.132 .0396424
444.044 .0392305
444.954 .0390940
445.863 .0388945
446.771 .0386608
447.678 .0384482
448.584 .0382732
449.488 .0381220
450.391 .0379873
451.293 .0378721
452.194 .0377757
453.094 .0376958
453.992 .0376281
454.890 .0375703
455.786 .0375204
456.681 .0374763
457.575 .0374361
458.468 .0373983
459.360 .0373619
460.250 .0373263
461.140 .0372895
462.028 .0372514
462.915 .0372106
463.801 .0371657
464.687 .0371158
465.571 .0370600
466.454 .0369979
467.335 .0369300
468.216 .0368566
469.096 .0367785
469.975 .0366971
470.853 .0366142
471.729 .0365309
472.605 .0364489
473.479 .0363693
474.353 .0362932
475.226 .0362211
476.097 .0361535
476.968 .0360906
477.838 .0360326
478.706 .0359798
479.574 .0359322
480.441 .0358898
481.306 .0358527
482.171 .0358203
483.035 .0357924
483.898 .0357685
484.760 .0357480
485.621 .0357303
486.481 .0357149
487.340 .0357011
488.198 .0356885
489.055 .0356763
489.912 .0356640
490.767 .0356514
491.622 .0356284
492.476 .0356129
493.329 .0355960
494.180 .0355774
495.032 .0355573
495.882 .0355356
496.731 .0355122
497.580 .0354873
498.427 .0354608
499.274 .0354328
500.120 .0354160
500.965 .0353856
501.809 .0353536
502.653 .0353201
503.495 .0352852
504.337 .0352487
505.178 .0352105
506.018 .0351707
506.858 .0351293
507.696 .0350863
508.534 .0350420
509.371 .0349969
510.208 .0349513
511.043 .0349057
511.878 .0348606
512.712 .0348164
513.545 .0347731
514.377 .0347311
515.209 .0346902
516.040 .0346503
516.870 .0346111
517.699 .0345724
518.528 .0345337
519.356 .0344952
520.183 .0344566
521.010 .0344180
521.836 .0343796
522.661 .0343414
523.485 .0343032
524.309 .0342650
525.132 .0342267
525.954 .0341877
526.776 .0341476
527.597 .0341060
528.417 .0340624
529.237 .0340167
530.056 .0339686
530.874 .0339187
531.692 .0338668
532.508 .0338135
533.325 .0337589
534.140 .0337034
534.955 .0336473
535.770 .0335912
536.583 .0335350
537.397 .0334792
538.209 .0334238
539.021 .0333695
539.832 .0333164
540.643 .0332651
541.453 .0332159
542.262 .0331689
543.071 .0331242
543.879 .0330822
544.687 .0330428
545.494 .0330063
546.300 .0329725
547.106 .0329415
547.911 .0329131
548.716 .0328870
549.520 .0328632
550.323 .0328417
551.126 .0328225
551.929 .0328051
552.731 .0327894
553.532 .0327749
554.332 .0327611
555.133 .0327474
555.932 .0327333
556.731 .0327183
557.530 .0327018
558.328 .0326835
559.125 .0326634
559.922 .0326415
560.719 .0326176
561.515 .0325915
562.310 .0325631
563.105 .0325320
563.899 .0324978
564.693 .0324605
565.487 .0324202
566.280 .0323772
567.072 .0323316
567.864 .0322841
568.655 .0322354
569.446 .0321859
570.236 .0321362
571.026 .0320869
571.816 .0320382
572.605 .0319903
573.393 .0319433
574.181 .0318975
574.969 .0318532
575.756 .0318105
576.543 .0317698
577.329 .0317313
578.115 .0316953
578.900 .0316619
579.685 .0316312
580.469 .0316032
581.253 .0315778
582.036 .0315546
582.820 .0315333
583.602 .0315136
584.384 .0314951
585.166 .0314776
585.947 .0314608
586.728 .0314446
587.509 .0314288
588.289 .0314134
589.069 .0313984
589.848 .0313834
590.627 .0313686
591.405 .0313537
592.183 .0313385
592.961 .0313228
593.738 .0313066
594.515 .0312898
595.291 .0312724
596.067 .0312544
596.843 .0312360
597.618 .0312171
598.393 .0311870
599.167 .0311673
599.941 .0311474
600.715 .0311273
601.488 .0311069
602.261 .0310862
603.034 .0310654
603.806 .0310444
604.578 .0310232
605.349 .0310018
606.121 .0309806
606.891 .0309702
607.662 .0309491
608.432 .0309281
609.201 .0309073
609.971 .0308868
610.740 .0308665
611.508 .0308464
612.277 .0308265
613.045 .0308068
613.812 .0307873
614.579 .0307680
615.346 .0307487
616.113 .0307296
616.879 .0307105
617.645 .0306914
618.411 .0306723
619.176 .0306532
619.941 .0306339
620.705 .0306144
621.470 .0305948
622.233 .0305749
622.997 .0305547
623.760 .0305343
624.523 .0305137
625.286 .0304930
626.048 .0304722
626.810 .0304514
627.572 .0304306
628.333 .0304101
629.095 .0303898
629.855 .0303698
630.616 .0303501
631.376 .0303308
632.136 .0303119
632.895 .0302932
633.655 .0302749
634.414 .0302569
635.172 .0302392
635.931 .0302219
636.689 .0302050
637.447 .0301885
638.204 .0301724
638.962 .0301568
639.718 .0301418
640.475 .0301272
641.231 .0301132
641.988 .0300995
642.743 .0300861
643.499 .0300729
644.254 .0300598
645.009 .0300466
645.764 .0300333
646.518 .0300198
647.272 .0300061
648.026 .0299923
648.780 .0299783
649.533 .0299641
650.286 .0299498
651.039 .0299353
651.792 .0299206
652.544 .0299056
653.296 .0298903
654.048 .0298748
654.799 .0298590
655.550 .0298429
656.301 .0298267
657.052 .0298103
657.802 .0297938
658.552 .0297773
659.302 .0297607
660.052 .0297441
660.801 .0297276
661.550 .0297110
662.299 .0296944
663.048 .0296778
663.796 .0296612
664.544 .0296447
665.292 .0296281
666.040 .0296116
666.787 .0295949
667.534 .0295782
668.281 .0295615
669.028 .0295448
669.774 .0295280
670.521 .0295114
671.266 .0294948
672.012 .0294783
672.758 .0294620
673.503 .0294458
674.248 .0294298
674.992 .0294139
675.737 .0293981
676.481 .0293825
677.225 .0293669
677.969 .0293515
678.712 .0293362
679.455 .0293212
680.199 .0293063
680.941 .0292917
681.684 .0292775
682.426 .0292636
683.168 .0292499
683.910 .0292366
684.652 .0292236
685.393 .0292108
686.134 .0291983
686.875 .0291859
687.616 .0291738
688.356 .0291619
689.097 .0291503
689.837 .0291390
690.576 .0291279
691.316 .0291171
692.055 .0291066
692.794 .0290962
693.533 .0290860
694.272 .0290758
695.010 .0290658
695.748 .0290557
696.486 .0290457
697.224 .0290357
697.962 .0290258
698.699 .0290160
699.436 .0290061
700.173 .0289964
700.909 .0289866
701.646 .0289770
702.382 .0289673
703.118 .0289577
703.853 .0289481
704.589 .0289385
705.324 .0289289
706.059 .0289192
706.794 .0289095
707.529 .0288997
708.263 .0288897
708.997 .0288797
709.731 .0288696
710.465 .0288594
711.198 .0288492
711.931 .0288388
712.664 .0288283
713.397 .0288177
714.130 .0288068
714.862 .0287956
715.594 .0287839
716.326 .0287719
717.058 .0287594
717.789 .0287464
718.520 .0287332
719.251 .0287196
719.982 .0287059
720.713 .0286920
721.443 .0286779
722.173 .0286637
722.903 .0286494
723.633 .0286349
724.362 .0286202
725.091 .0286054
725.820 .0285904
726.549 .0285752
727.278 .0285601
728.006 .0285449
728.734 .0285298
729.462 .0285148
730.190 .0284998
730.917 .0284849
731.644 .0284701
732.371 .0284554
733.098 .0284408
733.825 .0284263
734.551 .0284119
735.277 .0283977
736.003 .0283837
736.728 .0283699
737.454 .0283563
738.179 .0283429
738.904 .0283298
739.629 .0283168
740.353 .0283041
741.077 .0282917
741.801 .0282796
742.525 .0282677
743.249 .0282562
743.972 .0282449
744.695 .0282340
745.418 .0282233
746.141 .0282129
746.863 .0282028
747.585 .0281929
748.307 .0281834
749.029 .0281743
749.750 .0281655
750.472 .0281571
751.193 .0281491
751.913 .0281415
752.634 .0281342
753.354 .0281271
754.074 .0281203
754.794 .0281138
755.514 .0281074
756.233 .0281012
756.952 .0280953
757.671 .0280895
758.390 .0280840
759.108 .0280787
759.826 .0280735
760.544 .0280684
761.262 .0280634
761.979 .0280585
762.697 .0280536
763.414 .0280487
764.130 .0280439
764.847 .0280391
765.563 .0280344
766.279 .0280298
766.995 .0280252
767.710 .0280208
768.426 .0280163
769.141 .0280119
769.855 .0280074
770.570 .0280029
771.284 .0279984
771.998 .0279939
772.712 .0279893
773.426 .0279847
774.139 .0279800
774.852 .0279752
775.565 .0279702
776.277 .0279649
776.990 .0279595
777.702 .0279539
778.414 .0279482
779.125 .0279423
779.836 .0279364
780.547 .0279304
781.258 .0279244
781.969 .0279182
782.679 .0279118
783.389 .0279013
784.099 .0278942
784.808 .0278869
785.517 .0278793
786.226 .0278714
786.935 .0278633
787.643 .0278549
788.352 .0278463
789.060 .0278373
789.767 .0278281
790.475 .0278185
791.182 .0278086
791.889 .0278029
792.595 .0277925
793.301 .0277817
794.008 .0277707
794.713 .0277594
795.419 .0277479
796.124 .0277361
796.829 .0277240
797.534 .0277117
798.238 .0276990
798.942 .0276861
799.646 .0276730
800.350 .0276598
801.053 .0276465
801.756 .0276331
802.459 .0276198
803.162 .0276066
803.864 .0275934
804.566 .0275802
805.267 .0275671
805.969 .0275539
806.670 .0275408
807.371 .0275276
808.071 .0275145
808.772 .0275014
809.472 .0274884
810.171 .0274756
810.871 .0274629
811.570 .0274503
812.269 .0274378
812.967 .0274255
813.666 .0274132
814.364 .0274010
815.061 .0273888
815.759 .0273766
816.456 .0273645
817.153 .0273523
817.849 .0273401
818.545 .0273279
819.241 .0273157
819.937 .0273034
820.632 .0272912
821.327 .0272790
822.022 .0272669
822.717 .0272550
823.411 .0272432
824.105 .0272316
824.798 .0272203
825.491 .0272093
826.184 .0271986
826.877 .0271883
827.569 .0271783
828.261 .0271687
828.953 .0271596
829.645 .0271510
830.336 .0271428
831.027 .0271352
831.717 .0271282
832.407 .0271217
833.097 .0271158
833.787 .0271105
834.476 .0271056
835.165 .0271013
835.854 .0270973
836.542 .0270936
837.230 .0270902
837.918 .0270870
838.605 .0270839
839.292 .0270808
839.979 .0270779
840.665 .0270750
841.352 .0270721
842.037 .0270692
842.723 .0270662
843.408 .0270631
844.093 .0270599
844.777 .0270565
845.462 .0270528
846.145 .0270488
846.829 .0270444
847.512 .0270398
848.195 .0270348
848.878 .0270294
849.560 .0270237
850.242 .0270177
850.923 .0270113
851.605 .0270047
852.286 .0269979
852.966 .0269907
853.646 .0269834
854.326 .0269758
855.006 .0269680
855.685 .0269601
856.364 .0269520
857.043 .0269437
857.721 .0269354
858.399 .0269270
859.077 .0269186
859.754 .0269101
860.431 .0269017
861.107 .0268934
861.784 .0268850
862.459 .0268766
863.135 .0268681
863.810 .0268595
864.485 .0268508
865.160 .0268419
865.834 .0268329
866.508 .0268237
867.181 .0268142
867.854 .0268046
868.527 .0267948
869.199 .0267848
869.872 .0267746
870.543 .0267640
871.215 .0267532
871.886 .0267420
872.557 .0267303
873.227 .0267183
873.897 .0267057
874.567 .0266926
875.236 .0266790
875.905 .0266649
876.573 .0266504
877.242 .0266354
877.909 .0266199
878.577 .0266041
879.244 .0265879
879.911 .0265714
880.577 .0265547
881.243 .0265379
881.909 .0265209
882.575 .0265039
883.240 .0264869
883.904 .0264700
884.569 .0264532
885.232 .0264366
885.896 .0264203
886.559 .0264042
887.222 .0263884
887.885 .0263730
888.547 .0263581
889.208 .0263437
889.870 .0263298
890.531 .0263165
891.192 .0263037
891.852 .0262914
892.512 .0262797
893.171 .0262684
893.830 .0262576
894.489 .0262472
895.148 .0262372
895.806 .0262275
896.464 .0262182
897.121 .0262091
897.778 .0262004
898.434 .0261918
899.091 .0261793
899.747 .0261710
900.402 .0261627
901.057 .0261544
901.712 .0261461
902.366 .0261377
903.020 .0261293
903.674 .0261207
904.327 .0261121
904.980 .0261035
905.633 .0260948
906.285 .0260861
906.936 .0260774
907.588 .0260728
908.239 .0260641
908.889 .0260553
909.540 .0260465
910.190 .0260376
910.839 .0260286
911.488 .0260195
912.137 .0260104
912.785 .0260013
913.433 .0259920
914.081 .0259828
914.728 .0259734
915.375 .0259639
916.021 .0259543
916.668 .0259445
917.313 .0259346
917.959 .0259244
918.604 .0259141
919.248 .0259036
919.892 .0258931
920.536 .0258824
921.180 .0258717
921.823 .0258609
922.465 .0258501
923.108 .0258392
923.750 .0258282
924.391 .0258172
925.032 .0258062
925.673 .0257951
926.313 .0257841
926.953 .0257732
927.593 .0257624
928.232 .0257516
928.871 .0257410
929.510 .0257305
930.148 .0257201
930.786 .0257098
931.423 .0256996
932.060 .0256896
932.697 .0256798
933.333 .0256702
933.969 .0256608
934.604 .0256515
935.239 .0256424
935.874 .0256333
936.508 .0256243
937.142 .0256154
937.776 .0256064
938.409 .0255974
939.042 .0255883
939.674 .0255792
940.306 .0255700
940.938 .0255607
941.569 .0255511
942.200 .0255414
942.830 .0255314
943.460 .0255211
944.090 .0255106
944.720 .0254997
945.349 .0254886
945.977 .0254773
946.606 .0254657
947.233 .0254540
947.861 .0254420
948.488 .0254298
949.115 .0254175
949.741 .0254049
950.367 .0253923
950.993 .0253794
951.618 .0253666
952.243 .0253537
952.868 .0253409
953.492 .0253281
954.115 .0253153
954.739 .0253026
955.362 .0252899
955.984 .0252772
956.607 .0252645
957.229 .0252517
957.850 .0252391
958.471 .0252265
959.092 .0252142
959.713 .0252021
960.333 .0251903
960.952 .0251788
961.572 .0251676
962.191 .0251567
962.809 .0251459
963.428 .0251353
964.045 .0251249
964.663 .0251146
965.280 .0251046
965.897 .0250947
966.513 .0250850
967.129 .0250755
967.745 .0250661
968.361 .0250566
968.976 .0250472
969.590 .0250375
970.205 .0250278
970.818 .0250179
971.432 .0250078
972.045 .0249976
972.658 .0249874
973.271 .0249772
973.883 .0249671
974.495 .0249569
975.106 .0249468
975.717 .0249367
976.328 .0249265
976.938 .0249162
977.548 .0249057
978.158 .0248951
978.768 .0248787
979.377 .0248679
979.985 .0248570
980.594 .0248461
981.202 .0248350
981.809 .0248240
982.417 .0248128
983.024 .0248016
983.631 .0247902
984.237 .0247787
984.843 .0247673
985.449 .0247558
986.054 .0247445
986.659 .0247333
987.264 .0247282
987.868 .0247174
988.472 .0247070
989.076 .0246969
989.679 .0246872
990.282 .0246777
990.885 .0246684
991.487 .0246594
992.090 .0246506
992.691 .0246419
993.293 .0246333
993.894 .0246249
994.495 .0246166
995.095 .0246084
995.696 .0246003
996.296 .0245924
996.895 .0245846
997.494 .0245769
998.093 .0245694
998.692 .0245620
999.291 .0245547
999.889 .0245476
1000.487 .0245407
1001.084 .0245339
1001.681 .0245274
1002.278 .0245211
1002.875 .0245151
1003.471 .0245094
1004.067 .0245040
1004.663 .0244989
1005.258 .0244940
1005.854 .0244894
1006.449 .0244849
1007.043 .0244805
1007.638 .0244763
1008.232 .0244720
1008.826 .0244679
1009.419 .0244638
1010.012 .0244600
1010.605 .0244564
1011.198 .0244530
1011.791 .0244500
1012.383 .0244472
1012.975 .0244448
1013.566 .0244426
1014.158 .0244407
1014.749 .0244391
1015.340 .0244378
1015.931 .0244367
1016.521 .0244359
1017.111 .0244354
1017.701 .0244352
1018.291 .0244352
1018.880 .0244355
1019.470 .0244359
1020.059 .0244365
1020.647 .0244371
1021.236 .0244377
1021.824 .0244383
1022.412 .0244389
1023.000 .0244394
1023.588 .0244400
1024.175 .0244407
1024.762 .0244416
1025.349 .0244428
1025.936 .0244442
1026.523 .0244459
1027.109 .0244478
1027.695 .0244499
1028.281 .0244523
1028.867 .0244549
1029.452 .0244576
1030.038 .0244607
1030.623 .0244640
1031.208 .0244675
1031.792 .0244713
1032.377 .0244754
1032.961 .0244797
1033.546 .0244841
1034.130 .0244886
1034.714 .0244933
1035.297 .0244980
1035.881 .0245028
1036.464 .0245077
1037.047 .0245128
1037.630 .0245182
1038.213 .0245239
1038.796 .0245299
1039.378 .0245361
1039.961 .0245426
1040.543 .0245491
1041.125 .0245557
1041.707 .0245623
1042.289 .0245687
1042.871 .0245752
1043.452 .0245815
1044.034 .0245876
1044.615 .0245937
1045.196 .0245995
1045.777 .0246050
1046.358 .0246103
1046.939 .0246151
1047.520 .0246195
1048.101 .0246236
1048.681 .0246273
1049.262 .0246307
1049.842 .0246339
1050.422 .0246370
1051.002 .0246401
1051.582 .0246431
1052.162 .0246461
1052.742 .0246491
1053.322 .0246520
1053.902 .0246549
1054.482 .0246578
1055.061 .0246607
1055.641 .0246638
1056.220 .0246670
1056.800 .0246704
1057.379 .0246739
1057.958 .0246775
1058.538 .0246809
1059.117 .0246840
1059.696 .0246868
1060.275 .0246892
1060.854 .0246913
1061.433 .0246930
1062.012 .0246944
1062.592 .0246956
1063.171 .0246968
1063.750 .0246978
1064.329 .0246986
1064.908 .0246990
1065.487 .0246990
1066.066 .0246984
1066.645 .0246973
1067.224 .0246956
1067.803 .0246934
1068.382 .0246907
1068.961 .0246877
1069.540 .0246845
1070.119 .0246810
1070.698 .0246772
1071.278 .0246730
1071.857 .0246683
1072.436 .0246631
1073.016 .0246574
1073.595 .0246513
1074.175 .0246449
1074.754 .0246384
1075.334 .0246319
1075.913 .0246255
1076.493 .0246194
1077.073 .0246134
1077.653 .0246077
1078.233 .0246020
1078.813 .0245964
1079.393 .0245908
1079.974 .0245853
1080.554 .0245801
1081.135 .0245751
1081.716 .0245705
1082.296 .0245662
1082.877 .0245624
1083.458 .0245589
1084.040 .0245555
1084.621 .0245523
1085.202 .0245491
1085.784 .0245460
1086.366 .0245428
1086.948 .0245397
1087.530 .0245367
1088.112 .0245339
1088.695 .0245311
1089.277 .0245285
1089.860 .0245259
1090.443 .0245230
1091.026 .0245199
1091.610 .0245164
1092.193 .0245125
1092.777 .0245081
1093.361 .0245033
1093.946 .0244980
1094.530 .0244924
1095.115 .0244863
1095.700 .0244798
1096.285 .0244727
1096.871 .0244650
1097.456 .0244566
1098.042 .0244473
1098.628 .0244374
1099.215 .0244269
1099.802 .0244160
1100.389 .0244049
1100.976 .0243939
1101.564 .0243831
1102.152 .0243727
1102.740 .0243628
1103.329 .0243534
1103.917 .0243444
1104.507 .0243360
1105.096 .0243280
1105.686 .0243207
1106.276 .0243141
1106.867 .0243087
1107.457 .0243046
1108.049 .0243020
1108.640 .0243009
1109.232 .0243015
1109.825 .0243036
1110.417 .0243070
1111.010 .0243118
1111.604 .0243177
1112.198 .0243245
1112.792 .0243323
1113.387 .0243411
1113.982 .0243508
1114.577 .0243615
1115.173 .0243732
1115.769 .0243854
1116.366 .0243982
1116.963 .0244112
1117.561 .0244243
1118.159 .0244373
1118.758 .0244501
1119.357 .0244628
1119.957 .0244755
1120.557 .0244882
1121.157 .0245012
1121.758 .0245146
1122.360 .0245286
1122.962 .0245432
1123.564 .0245581
1124.167 .0245664
1124.771 .0245809
1125.375 .0245956
1125.980 .0246104
1126.585 .0246255
1127.191 .0246412
1127.797 .0246576
1128.404 .0246749
1129.012 .0246935
1129.620 .0247134
1130.229 .0247347
1130.838 .0247573
1131.448 .0247810
1132.058 .0248058
1132.669 .0248400
1133.281 .0248679
1133.894 .0248972
1134.507 .0249260
1135.120 .0249601
1135.735 .0249939
1136.350 .0250266
1136.965 .0250762
1137.582 .0251263
1138.199 .0251759
1138.816 .0252208
1139.435 .0252595
1140.054 .0252942
1140.674 .0253249
1141.294 .0253499
1141.916 .0253828
1142.538 .0253576
1143.160 .0254956
1143.784 .0254807
1144.408 .0254534
1145.033 .0257225
