Measurement Sequence started on: 14-45-04-498
Integration time: 36
Scans to Average: 2 
>>>>>Begin Spectral Data<<<<<
433.946 .0432304
434.870 .0413527
435.793 .0401316
436.715 .0407602
437.635 .0414170
438.555 .0409291
439.473 .0407867
440.389 .0407099
441.305 .0406586
442.219 .0405838
443.132 .0404815
444.044 .0403951
444.954 .0403688
445.863 .0403052
446.771 .0402025
447.678 .0401202
448.584 .0400394
449.488 .0399567
450.391 .0398704
451.293 .0397819
452.194 .0396917
453.094 .0395993
453.992 .0395063
454.890 .0394131
455.786 .0393205
456.681 .0392301
457.575 .0391424
458.468 .0390574
459.360 .0389749
460.250 .0388941
461.140 .0388142
462.028 .0387351
462.915 .0386571
463.801 .0385805
464.687 .0385062
465.571 .0384351
466.454 .0383673
467.335 .0383033
468.216 .0382431
469.096 .0381856
469.975 .0381304
470.853 .0380767
471.729 .0380232
472.605 .0379695
473.479 .0379154
474.353 .0378608
475.226 .0378060
476.097 .0377517
476.968 .0376983
477.838 .0376464
478.706 .0375967
479.574 .0375490
480.441 .0375036
481.306 .0374602
482.171 .0374182
483.035 .0373772
483.898 .0373365
484.760 .0372957
485.621 .0372543
486.481 .0372124
487.340 .0371699
488.198 .0371272
489.055 .0370849
489.912 .0370435
490.767 .0370033
491.622 .0369436
492.476 .0369056
493.329 .0368674
494.180 .0368282
495.032 .0367871
495.882 .0367440
496.731 .0366988
497.580 .0366519
498.427 .0366042
499.274 .0365565
500.120 .0365345
500.965 .0364889
501.809 .0364448
502.653 .0364023
503.495 .0363614
504.337 .0363216
505.178 .0362827
506.018 .0362438
506.858 .0362047
507.696 .0361651
508.534 .0361254
509.371 .0360863
510.208 .0360480
511.043 .0360116
511.878 .0359772
512.712 .0359451
513.545 .0359149
514.377 .0358860
515.209 .0358577
516.040 .0358289
516.870 .0357986
517.699 .0357658
518.528 .0357298
519.356 .0356903
520.183 .0356469
521.010 .0355995
521.836 .0355478
522.661 .0354916
523.485 .0354310
524.309 .0353662
525.132 .0352972
525.954 .0352244
526.776 .0351479
527.597 .0350680
528.417 .0349848
529.237 .0348990
530.056 .0348112
530.874 .0347223
531.692 .0346329
532.508 .0345439
533.325 .0344560
534.140 .0343700
534.955 .0342866
535.770 .0342067
536.583 .0341309
537.397 .0340599
538.209 .0339946
539.021 .0339356
539.832 .0338836
540.643 .0338393
541.453 .0338028
542.262 .0337738
543.071 .0337515
543.879 .0337349
544.687 .0337231
545.494 .0337151
546.300 .0337098
547.106 .0337063
547.911 .0337040
548.716 .0337025
549.520 .0337013
550.323 .0337004
551.126 .0336995
551.929 .0336984
552.731 .0336968
553.532 .0336939
554.332 .0336890
555.133 .0336818
555.932 .0336720
556.731 .0336592
557.530 .0336430
558.328 .0336233
559.125 .0336001
559.922 .0335736
560.719 .0335440
561.515 .0335114
562.310 .0334764
563.105 .0334391
563.899 .0333997
564.693 .0333583
565.487 .0333153
566.280 .0332707
567.072 .0332249
567.864 .0331780
568.655 .0331302
569.446 .0330820
570.236 .0330341
571.026 .0329872
571.816 .0329415
572.605 .0328973
573.393 .0328550
574.181 .0328144
574.969 .0327757
575.756 .0327386
576.543 .0327034
577.329 .0326703
578.115 .0326394
578.900 .0326109
579.685 .0325851
580.469 .0325621
581.253 .0325420
582.036 .0325244
582.820 .0325089
583.602 .0324950
584.384 .0324823
585.166 .0324702
585.947 .0324583
586.728 .0324462
587.509 .0324337
588.289 .0324207
589.069 .0324068
589.848 .0323919
590.627 .0323758
591.405 .0323584
592.183 .0323395
592.961 .0323190
593.738 .0322968
594.515 .0322729
595.291 .0322472
596.067 .0322198
596.843 .0321907
597.618 .0321602
598.393 .0321115
599.167 .0320788
599.941 .0320454
600.715 .0320115
601.488 .0319773
602.261 .0319429
603.034 .0319086
603.806 .0318743
604.578 .0318400
605.349 .0318056
606.121 .0317713
606.891 .0317540
607.662 .0317197
608.432 .0316856
609.201 .0316518
609.971 .0316184
610.740 .0315855
611.508 .0315531
612.277 .0315213
613.045 .0314900
613.812 .0314592
614.579 .0314290
615.346 .0313993
616.113 .0313702
616.879 .0313418
617.645 .0313140
618.411 .0312870
619.176 .0312609
619.941 .0312356
620.705 .0312112
621.470 .0311877
622.233 .0311649
622.997 .0311430
623.760 .0311219
624.523 .0311017
625.286 .0310824
626.048 .0310640
626.810 .0310464
627.572 .0310295
628.333 .0310134
629.095 .0309979
629.855 .0309830
630.616 .0309685
631.376 .0309542
632.136 .0309402
632.895 .0309263
633.655 .0309124
634.414 .0308984
635.172 .0308843
635.931 .0308700
636.689 .0308553
637.447 .0308403
638.204 .0308249
638.962 .0308091
639.718 .0307931
640.475 .0307768
641.231 .0307602
641.988 .0307432
642.743 .0307257
643.499 .0307076
644.254 .0306888
645.009 .0306692
645.764 .0306488
646.518 .0306276
647.272 .0306057
648.026 .0305831
648.780 .0305601
649.533 .0305365
650.286 .0305127
651.039 .0304884
651.792 .0304637
652.544 .0304386
653.296 .0304131
654.048 .0303873
654.799 .0303611
655.550 .0303348
656.301 .0303083
657.052 .0302817
657.802 .0302551
658.552 .0302286
659.302 .0302022
660.052 .0301760
660.801 .0301500
661.550 .0301242
662.299 .0300986
663.048 .0300735
663.796 .0300487
664.544 .0300244
665.292 .0300006
666.040 .0299775
666.787 .0299548
667.534 .0299329
668.281 .0299116
669.028 .0298911
669.774 .0298713
670.521 .0298524
671.266 .0298345
672.012 .0298174
672.758 .0298012
673.503 .0297860
674.248 .0297717
674.992 .0297582
675.737 .0297456
676.481 .0297338
677.225 .0297227
677.969 .0297124
678.712 .0297029
679.455 .0296941
680.199 .0296860
680.941 .0296786
681.684 .0296720
682.426 .0296660
683.168 .0296606
683.910 .0296557
684.652 .0296514
685.393 .0296475
686.134 .0296439
686.875 .0296408
687.616 .0296378
688.356 .0296351
689.097 .0296326
689.837 .0296302
690.576 .0296277
691.316 .0296252
692.055 .0296224
692.794 .0296194
693.533 .0296161
694.272 .0296124
695.010 .0296084
695.748 .0296040
696.486 .0295991
697.224 .0295938
697.962 .0295880
698.699 .0295817
699.436 .0295747
700.173 .0295672
700.909 .0295591
701.646 .0295504
702.382 .0295411
703.118 .0295314
703.853 .0295211
704.589 .0295104
705.324 .0294992
706.059 .0294874
706.794 .0294751
707.529 .0294623
708.263 .0294489
708.997 .0294350
709.731 .0294208
710.465 .0294061
711.198 .0293912
711.931 .0293758
712.664 .0293602
713.397 .0293441
714.130 .0293276
714.862 .0293106
715.594 .0292931
716.326 .0292751
717.058 .0292568
717.789 .0292381
718.520 .0292190
719.251 .0291997
719.982 .0291802
720.713 .0291604
721.443 .0291405
722.173 .0291204
722.903 .0291002
723.633 .0290801
724.362 .0290600
725.091 .0290401
725.820 .0290205
726.549 .0290012
727.278 .0289823
728.006 .0289639
728.734 .0289459
729.462 .0289284
730.190 .0289117
730.917 .0288956
731.644 .0288804
732.371 .0288660
733.098 .0288526
733.825 .0288400
734.551 .0288284
735.277 .0288176
736.003 .0288076
736.728 .0287983
737.454 .0287896
738.179 .0287816
738.904 .0287742
739.629 .0287673
740.353 .0287610
741.077 .0287553
741.801 .0287500
742.525 .0287452
743.249 .0287407
743.972 .0287364
744.695 .0287324
745.418 .0287285
746.141 .0287246
746.863 .0287208
747.585 .0287170
748.307 .0287132
749.029 .0287094
749.750 .0287055
750.472 .0287016
751.193 .0286976
751.913 .0286935
752.634 .0286894
753.354 .0286852
754.074 .0286810
754.794 .0286768
755.514 .0286727
756.233 .0286686
756.952 .0286646
757.671 .0286607
758.390 .0286569
759.108 .0286532
759.826 .0286497
760.544 .0286463
761.262 .0286431
761.979 .0286401
762.697 .0286373
763.414 .0286348
764.130 .0286324
764.847 .0286303
765.563 .0286284
766.279 .0286267
766.995 .0286251
767.710 .0286236
768.426 .0286222
769.141 .0286210
769.855 .0286197
770.570 .0286185
771.284 .0286172
771.998 .0286158
772.712 .0286142
773.426 .0286124
774.139 .0286104
774.852 .0286081
775.565 .0286055
776.277 .0286026
776.990 .0285993
777.702 .0285956
778.414 .0285916
779.125 .0285871
779.836 .0285822
780.547 .0285768
781.258 .0285708
781.969 .0285643
782.679 .0285572
783.389 .0285446
784.099 .0285360
784.808 .0285269
785.517 .0285173
786.226 .0285072
786.935 .0284966
787.643 .0284857
788.352 .0284743
789.060 .0284627
789.767 .0284506
790.475 .0284382
791.182 .0284253
791.889 .0284179
792.595 .0284046
793.301 .0283908
794.008 .0283768
794.713 .0283625
795.419 .0283479
796.124 .0283331
796.829 .0283180
797.534 .0283028
798.238 .0282874
798.942 .0282718
799.646 .0282562
800.350 .0282405
801.053 .0282249
801.756 .0282094
802.459 .0281941
803.162 .0281790
803.864 .0281641
804.566 .0281494
805.267 .0281349
805.969 .0281207
806.670 .0281068
807.371 .0280932
808.071 .0280800
808.772 .0280671
809.472 .0280547
810.171 .0280427
810.871 .0280311
811.570 .0280197
812.269 .0280087
812.967 .0279979
813.666 .0279873
814.364 .0279769
815.061 .0279668
815.759 .0279568
816.456 .0279471
817.153 .0279376
817.849 .0279282
818.545 .0279190
819.241 .0279099
819.937 .0279009
820.632 .0278919
821.327 .0278831
822.022 .0278743
822.717 .0278656
823.411 .0278571
824.105 .0278487
824.798 .0278405
825.491 .0278324
826.184 .0278244
826.877 .0278167
827.569 .0278091
828.261 .0278017
828.953 .0277946
829.645 .0277879
830.336 .0277815
831.027 .0277756
831.717 .0277701
832.407 .0277650
833.097 .0277605
833.787 .0277563
834.476 .0277526
835.165 .0277493
835.854 .0277463
836.542 .0277436
837.230 .0277412
837.918 .0277390
838.605 .0277370
839.292 .0277351
839.979 .0277333
840.665 .0277316
841.352 .0277298
842.037 .0277281
842.723 .0277263
843.408 .0277244
844.093 .0277225
844.777 .0277204
845.462 .0277181
846.145 .0277157
846.829 .0277130
847.512 .0277102
848.195 .0277072
848.878 .0277039
849.560 .0277004
850.242 .0276967
850.923 .0276928
851.605 .0276887
852.286 .0276844
852.966 .0276799
853.646 .0276752
854.326 .0276704
855.006 .0276655
855.685 .0276606
856.364 .0276556
857.043 .0276506
857.721 .0276456
858.399 .0276406
859.077 .0276355
859.754 .0276305
860.431 .0276254
861.107 .0276202
861.784 .0276150
862.459 .0276097
863.135 .0276042
863.810 .0275986
864.485 .0275927
865.160 .0275866
865.834 .0275803
866.508 .0275736
867.181 .0275665
867.854 .0275590
868.527 .0275511
869.199 .0275427
869.872 .0275338
870.543 .0275244
871.215 .0275145
871.886 .0275041
872.557 .0274932
873.227 .0274817
873.897 .0274697
874.567 .0274571
875.236 .0274439
875.905 .0274300
876.573 .0274157
877.242 .0274007
877.909 .0273852
878.577 .0273692
879.244 .0273527
879.911 .0273359
880.577 .0273187
881.243 .0273013
881.909 .0272836
882.575 .0272657
883.240 .0272476
883.904 .0272294
884.569 .0272112
885.232 .0271929
885.896 .0271746
886.559 .0271564
887.222 .0271382
887.885 .0271202
888.547 .0271022
889.208 .0270844
889.870 .0270668
890.531 .0270493
891.192 .0270320
891.852 .0270150
892.512 .0269981
893.171 .0269814
893.830 .0269650
894.489 .0269487
895.148 .0269326
895.806 .0269167
896.464 .0269009
897.121 .0268854
897.778 .0268700
898.434 .0268549
899.091 .0268330
899.747 .0268184
900.402 .0268039
901.057 .0267896
901.712 .0267754
902.366 .0267613
903.020 .0267473
903.674 .0267333
904.327 .0267193
904.980 .0267054
905.633 .0266915
906.285 .0266776
906.936 .0266637
907.588 .0266569
908.239 .0266431
908.889 .0266294
909.540 .0266159
910.190 .0266026
910.839 .0265896
911.488 .0265767
912.137 .0265641
912.785 .0265517
913.433 .0265395
914.081 .0265274
914.728 .0265155
915.375 .0265036
916.021 .0264917
916.668 .0264798
917.313 .0264678
917.959 .0264558
918.604 .0264437
919.248 .0264316
919.892 .0264194
920.536 .0264070
921.180 .0263946
921.823 .0263819
922.465 .0263692
923.108 .0263563
923.750 .0263433
924.391 .0263303
925.032 .0263173
925.673 .0263043
926.313 .0262913
926.953 .0262785
927.593 .0262658
928.232 .0262532
928.871 .0262408
929.510 .0262285
930.148 .0262165
930.786 .0262047
931.423 .0261930
932.060 .0261816
932.697 .0261704
933.333 .0261594
933.969 .0261487
934.604 .0261381
935.239 .0261279
935.874 .0261178
936.508 .0261081
937.142 .0260987
937.776 .0260895
938.409 .0260806
939.042 .0260720
939.674 .0260637
940.306 .0260556
940.938 .0260477
941.569 .0260400
942.200 .0260325
942.830 .0260251
943.460 .0260179
944.090 .0260108
944.720 .0260039
945.349 .0259971
945.977 .0259903
946.606 .0259836
947.233 .0259769
947.861 .0259702
948.488 .0259635
949.115 .0259569
949.741 .0259504
950.367 .0259441
950.993 .0259380
951.618 .0259321
952.243 .0259263
952.868 .0259206
953.492 .0259151
954.115 .0259097
954.739 .0259044
955.362 .0258991
955.984 .0258941
956.607 .0258893
957.229 .0258846
957.850 .0258802
958.471 .0258760
959.092 .0258720
959.713 .0258681
960.333 .0258642
960.952 .0258604
961.572 .0258565
962.191 .0258527
962.809 .0258488
963.428 .0258449
964.045 .0258410
964.663 .0258372
965.280 .0258334
965.897 .0258295
966.513 .0258256
967.129 .0258216
967.745 .0258175
968.361 .0258133
968.976 .0258089
969.590 .0258045
970.205 .0258000
970.818 .0257955
971.432 .0257910
972.045 .0257864
972.658 .0257817
973.271 .0257770
973.883 .0257722
974.495 .0257673
975.106 .0257622
975.717 .0257569
976.328 .0257516
976.938 .0257461
977.548 .0257405
978.158 .0257347
978.768 .0257249
979.377 .0257183
979.985 .0257115
980.594 .0257043
981.202 .0256967
981.809 .0256888
982.417 .0256807
983.024 .0256723
983.631 .0256637
984.237 .0256548
984.843 .0256458
985.449 .0256366
986.054 .0256271
986.659 .0256174
987.264 .0256119
987.868 .0256018
988.472 .0255914
989.076 .0255810
989.679 .0255704
990.282 .0255598
990.885 .0255492
991.487 .0255386
992.090 .0255280
992.691 .0255175
993.293 .0255068
993.894 .0254961
994.495 .0254852
995.095 .0254741
995.696 .0254629
996.296 .0254517
996.895 .0254405
997.494 .0254295
998.093 .0254186
998.692 .0254079
999.291 .0253974
999.889 .0253870
1000.487 .0253768
1001.084 .0253666
1001.681 .0253564
1002.278 .0253461
1002.875 .0253358
1003.471 .0253255
1004.067 .0253152
1004.663 .0253049
1005.258 .0252947
1005.854 .0252846
1006.449 .0252745
1007.043 .0252644
1007.638 .0252541
1008.232 .0252438
1008.826 .0252332
1009.419 .0252226
1010.012 .0252117
1010.605 .0252008
1011.198 .0251898
1011.791 .0251790
1012.383 .0251682
1012.975 .0251576
1013.566 .0251472
1014.158 .0251370
1014.749 .0251269
1015.340 .0251170
1015.931 .0251071
1016.521 .0250974
1017.111 .0250878
1017.701 .0250783
1018.291 .0250689
1018.880 .0250597
1019.470 .0250506
1020.059 .0250416
1020.647 .0250329
1021.236 .0250243
1021.824 .0250159
1022.412 .0250078
1023.000 .0249999
1023.588 .0249924
1024.175 .0249851
1024.762 .0249782
1025.349 .0249716
1025.936 .0249655
1026.523 .0249596
1027.109 .0249541
1027.695 .0249490
1028.281 .0249442
1028.867 .0249398
1029.452 .0249356
1030.038 .0249318
1030.623 .0249282
1031.208 .0249247
1031.792 .0249214
1032.377 .0249181
1032.961 .0249149
1033.546 .0249115
1034.130 .0249081
1034.714 .0249046
1035.297 .0249010
1035.881 .0248974
1036.464 .0248938
1037.047 .0248902
1037.630 .0248866
1038.213 .0248831
1038.796 .0248796
1039.378 .0248760
1039.961 .0248724
1040.543 .0248687
1041.125 .0248648
1041.707 .0248608
1042.289 .0248567
1042.871 .0248525
1043.452 .0248481
1044.034 .0248438
1044.615 .0248395
1045.196 .0248353
1045.777 .0248310
1046.358 .0248268
1046.939 .0248228
1047.520 .0248189
1048.101 .0248151
1048.681 .0248115
1049.262 .0248081
1049.842 .0248051
1050.422 .0248025
1051.002 .0248003
1051.582 .0247988
1052.162 .0247978
1052.742 .0247975
1053.322 .0247978
1053.902 .0247986
1054.482 .0247999
1055.061 .0248016
1055.641 .0248036
1056.220 .0248060
1056.800 .0248087
1057.379 .0248117
1057.958 .0248151
1058.538 .0248188
1059.117 .0248228
1059.696 .0248269
1060.275 .0248313
1060.854 .0248357
1061.433 .0248402
1062.012 .0248447
1062.592 .0248493
1063.171 .0248540
1063.750 .0248587
1064.329 .0248637
1064.908 .0248689
1065.487 .0248743
1066.066 .0248798
1066.645 .0248855
1067.224 .0248912
1067.803 .0248970
1068.382 .0249028
1068.961 .0249085
1069.540 .0249142
1070.119 .0249199
1070.698 .0249256
1071.278 .0249312
1071.857 .0249366
1072.436 .0249419
1073.016 .0249469
1073.595 .0249516
1074.175 .0249559
1074.754 .0249599
1075.334 .0249637
1075.913 .0249672
1076.493 .0249707
1077.073 .0249741
1077.653 .0249774
1078.233 .0249806
1078.813 .0249838
1079.393 .0249869
1079.974 .0249900
1080.554 .0249932
1081.135 .0249965
1081.716 .0249999
1082.296 .0250036
1082.877 .0250077
1083.458 .0250120
1084.040 .0250167
1084.621 .0250216
1085.202 .0250266
1085.784 .0250317
1086.366 .0250369
1086.948 .0250423
1087.530 .0250478
1088.112 .0250536
1088.695 .0250598
1089.277 .0250664
1089.860 .0250735
1090.443 .0250810
1091.026 .0250888
1091.610 .0250967
1092.193 .0251048
1092.777 .0251128
1093.361 .0251207
1093.946 .0251285
1094.530 .0251362
1095.115 .0251438
1095.700 .0251513
1096.285 .0251586
1096.871 .0251656
1097.456 .0251722
1098.042 .0251782
1098.628 .0251837
1099.215 .0251885
1099.802 .0251929
1100.389 .0251968
1100.976 .0252004
1101.564 .0252037
1102.152 .0252069
1102.740 .0252099
1103.329 .0252129
1103.917 .0252158
1104.507 .0252186
1105.096 .0252212
1105.686 .0252237
1106.276 .0252261
1106.867 .0252286
1107.457 .0252312
1108.049 .0252342
1108.640 .0252375
1109.232 .0252414
1109.825 .0252457
1110.417 .0252506
1111.010 .0252560
1111.604 .0252619
1112.198 .0252681
1112.792 .0252748
1113.387 .0252819
1113.982 .0252896
1114.577 .0252979
1115.173 .0253070
1115.769 .0253168
1116.366 .0253272
1116.963 .0253381
1117.561 .0253494
1118.159 .0253609
1118.758 .0253726
1119.357 .0253844
1119.957 .0253964
1120.557 .0254086
1121.157 .0254212
1121.758 .0254341
1122.360 .0254473
1122.962 .0254608
1123.564 .0254743
1124.167 .0254804
1124.771 .0254938
1125.375 .0255070
1125.980 .0255198
1126.585 .0255326
1127.191 .0255454
1127.797 .0255587
1128.404 .0255724
1129.012 .0255867
1129.620 .0256015
1130.229 .0256168
1130.838 .0256323
1131.448 .0256481
1132.058 .0256642
1132.669 .0256883
1133.281 .0257047
1133.894 .0257214
1134.507 .0257466
1135.120 .0257669
1135.735 .0257895
1136.350 .0257987
1136.965 .0257879
1137.582 .0258116
1138.199 .0258296
1138.816 .0258431
1139.435 .0258650
1140.054 .0258852
1140.674 .0259133
1141.294 .0259354
1141.916 .0259617
1142.538 .0262067
1143.160 .0260903
1143.784 .0261643
1144.408 .0258169
1145.033 .0259922
