Measurement Sequence started on: 14-45-04-498
Integration time: 36
Scans to Average: 2 
>>>>>Begin Spectral Data<<<<<
433.946 .0477701
434.870 .0443281
435.793 .0400209
436.715 .0377735
437.635 .0381442
438.555 .0396776
439.473 .0392943
440.389 .0391428
441.305 .0391400
442.219 .0391748
443.132 .0396864
444.044 .0394797
444.954 .0394994
445.863 .0396365
446.771 .0397531
447.678 .0397884
448.584 .0398438
449.488 .0399073
450.391 .0399705
451.293 .0400309
452.194 .0400879
453.094 .0401391
453.992 .0401814
454.890 .0402105
455.786 .0402223
456.681 .0402148
457.575 .0401888
458.468 .0401469
459.360 .0400926
460.250 .0400298
461.140 .0399615
462.028 .0398905
462.915 .0398177
463.801 .0397430
464.687 .0396661
465.571 .0395863
466.454 .0395032
467.335 .0394174
468.216 .0393300
469.096 .0392428
469.975 .0391584
470.853 .0390787
471.729 .0390058
472.605 .0389410
473.479 .0388845
474.353 .0388360
475.226 .0387942
476.097 .0387581
476.968 .0387256
477.838 .0386957
478.706 .0386677
479.574 .0386409
480.441 .0386155
481.306 .0385916
482.171 .0385691
483.035 .0385483
483.898 .0385287
484.760 .0385097
485.621 .0384905
486.481 .0384703
487.340 .0384484
488.198 .0384242
489.055 .0383978
489.912 .0383692
490.767 .0383387
491.622 .0382885
492.476 .0382554
493.329 .0382215
494.180 .0381868
495.032 .0381511
495.882 .0381146
496.731 .0380772
497.580 .0380387
498.427 .0379991
499.274 .0379585
500.120 .0379373
500.965 .0378955
501.809 .0378530
502.653 .0378101
503.495 .0377669
504.337 .0377232
505.178 .0376790
506.018 .0376345
506.858 .0375899
507.696 .0375452
508.534 .0375009
509.371 .0374577
510.208 .0374158
511.043 .0373756
511.878 .0373370
512.712 .0373005
513.545 .0372658
514.377 .0372324
515.209 .0371999
516.040 .0371683
516.870 .0371373
517.699 .0371063
518.528 .0370758
519.356 .0370455
520.183 .0370153
521.010 .0369848
521.836 .0369537
522.661 .0369215
523.485 .0368876
524.309 .0368515
525.132 .0368129
525.954 .0367717
526.776 .0367278
527.597 .0366810
528.417 .0366318
529.237 .0365809
530.056 .0365283
530.874 .0364741
531.692 .0364188
532.508 .0363625
533.325 .0363050
534.140 .0362464
534.955 .0361872
535.770 .0361274
536.583 .0360676
537.397 .0360085
538.209 .0359508
539.021 .0358954
539.832 .0358427
540.643 .0357928
541.453 .0357454
542.262 .0357004
543.071 .0356570
543.879 .0356144
544.687 .0355722
545.494 .0355299
546.300 .0354867
547.106 .0354427
547.911 .0353979
548.716 .0353523
549.520 .0353058
550.323 .0352587
551.126 .0352110
551.929 .0351624
552.731 .0351131
553.532 .0350631
554.332 .0350123
555.133 .0349611
555.932 .0349097
556.731 .0348580
557.530 .0348065
558.328 .0347556
559.125 .0347053
559.922 .0346559
560.719 .0346076
561.515 .0345605
562.310 .0345149
563.105 .0344712
563.899 .0344294
564.693 .0343900
565.487 .0343534
566.280 .0343197
567.072 .0342889
567.864 .0342611
568.655 .0342361
569.446 .0342138
570.236 .0341934
571.026 .0341745
571.816 .0341561
572.605 .0341379
573.393 .0341194
574.181 .0341004
574.969 .0340809
575.756 .0340608
576.543 .0340402
577.329 .0340189
578.115 .0339969
578.900 .0339739
579.685 .0339491
580.469 .0339225
581.253 .0338938
582.036 .0338629
582.820 .0338298
583.602 .0337949
584.384 .0337585
585.166 .0337209
585.947 .0336821
586.728 .0336426
587.509 .0336025
588.289 .0335619
589.069 .0335209
589.848 .0334797
590.627 .0334384
591.405 .0333970
592.183 .0333557
592.961 .0333148
593.738 .0332742
594.515 .0332343
595.291 .0331951
596.067 .0331567
596.843 .0331194
597.618 .0330831
598.393 .0330322
599.167 .0329985
599.941 .0329659
600.715 .0329342
601.488 .0329035
602.261 .0328737
603.034 .0328446
603.806 .0328162
604.578 .0327885
605.349 .0327615
606.121 .0327352
606.891 .0327239
607.662 .0326988
608.432 .0326745
609.201 .0326512
609.971 .0326289
610.740 .0326076
611.508 .0325872
612.277 .0325678
613.045 .0325492
613.812 .0325314
614.579 .0325141
615.346 .0324973
616.113 .0324806
616.879 .0324642
617.645 .0324477
618.411 .0324312
619.176 .0324147
619.941 .0323979
620.705 .0323810
621.470 .0323638
622.233 .0323461
622.997 .0323279
623.760 .0323090
624.523 .0322892
625.286 .0322684
626.048 .0322465
626.810 .0322236
627.572 .0321995
628.333 .0321743
629.095 .0321482
629.855 .0321211
630.616 .0320932
631.376 .0320647
632.136 .0320356
632.895 .0320060
633.655 .0319761
634.414 .0319457
635.172 .0319150
635.931 .0318841
636.689 .0318528
637.447 .0318214
638.204 .0317898
638.962 .0317583
639.718 .0317268
640.475 .0316958
641.231 .0316652
641.988 .0316352
642.743 .0316060
643.499 .0315774
644.254 .0315496
645.009 .0315224
645.764 .0314957
646.518 .0314694
647.272 .0314435
648.026 .0314179
648.780 .0313927
649.533 .0313680
650.286 .0313438
651.039 .0313202
651.792 .0312974
652.544 .0312753
653.296 .0312540
654.048 .0312337
654.799 .0312142
655.550 .0311956
656.301 .0311778
657.052 .0311609
657.802 .0311448
658.552 .0311294
659.302 .0311147
660.052 .0311006
660.801 .0310871
661.550 .0310741
662.299 .0310615
663.048 .0310493
663.796 .0310375
664.544 .0310259
665.292 .0310145
666.040 .0310034
666.787 .0309923
667.534 .0309813
668.281 .0309702
669.028 .0309590
669.774 .0309474
670.521 .0309355
671.266 .0309232
672.012 .0309103
672.758 .0308971
673.503 .0308834
674.248 .0308694
674.992 .0308550
675.737 .0308402
676.481 .0308251
677.225 .0308097
677.969 .0307939
678.712 .0307779
679.455 .0307616
680.199 .0307452
680.941 .0307287
681.684 .0307121
682.426 .0306956
683.168 .0306790
683.910 .0306624
684.652 .0306457
685.393 .0306289
686.134 .0306119
686.875 .0305949
687.616 .0305778
688.356 .0305606
689.097 .0305433
689.837 .0305259
690.576 .0305084
691.316 .0304906
692.055 .0304725
692.794 .0304541
693.533 .0304354
694.272 .0304164
695.010 .0303972
695.748 .0303780
696.486 .0303588
697.224 .0303397
697.962 .0303208
698.699 .0303022
699.436 .0302840
700.173 .0302663
700.909 .0302492
701.646 .0302328
702.382 .0302170
703.118 .0302020
703.853 .0301878
704.589 .0301744
705.324 .0301617
706.059 .0301497
706.794 .0301384
707.529 .0301279
708.263 .0301182
708.997 .0301093
709.731 .0301013
710.465 .0300941
711.198 .0300877
711.931 .0300819
712.664 .0300768
713.397 .0300721
714.130 .0300676
714.862 .0300633
715.594 .0300590
716.326 .0300548
717.058 .0300504
717.789 .0300459
718.520 .0300412
719.251 .0300364
719.982 .0300315
720.713 .0300265
721.443 .0300213
722.173 .0300158
722.903 .0300101
723.633 .0300041
724.362 .0299977
725.091 .0299910
725.820 .0299840
726.549 .0299768
727.278 .0299695
728.006 .0299620
728.734 .0299545
729.462 .0299470
730.190 .0299395
730.917 .0299320
731.644 .0299245
732.371 .0299169
733.098 .0299091
733.825 .0299012
734.551 .0298929
735.277 .0298845
736.003 .0298757
736.728 .0298666
737.454 .0298573
738.179 .0298477
738.904 .0298378
739.629 .0298277
740.353 .0298175
741.077 .0298070
741.801 .0297962
742.525 .0297851
743.249 .0297735
743.972 .0297614
744.695 .0297488
745.418 .0297356
746.141 .0297220
746.863 .0297080
747.585 .0296937
748.307 .0296792
749.029 .0296646
749.750 .0296498
750.472 .0296349
751.193 .0296199
751.913 .0296045
752.634 .0295889
753.354 .0295731
754.074 .0295570
754.794 .0295407
755.514 .0295245
756.233 .0295083
756.952 .0294923
757.671 .0294767
758.390 .0294614
759.108 .0294465
759.826 .0294319
760.544 .0294176
761.262 .0294035
761.979 .0293896
762.697 .0293759
763.414 .0293624
764.130 .0293491
764.847 .0293359
765.563 .0293231
766.279 .0293106
766.995 .0292986
767.710 .0292871
768.426 .0292762
769.141 .0292659
769.855 .0292563
770.570 .0292473
771.284 .0292388
771.998 .0292309
772.712 .0292234
773.426 .0292164
774.139 .0292098
774.852 .0292036
775.565 .0291980
776.277 .0291930
776.990 .0291885
777.702 .0291845
778.414 .0291810
779.125 .0291779
779.836 .0291752
780.547 .0291726
781.258 .0291703
781.969 .0291680
782.679 .0291657
783.389 .0291622
784.099 .0291597
784.808 .0291572
785.517 .0291546
786.226 .0291520
786.935 .0291492
787.643 .0291465
788.352 .0291438
789.060 .0291410
789.767 .0291382
790.475 .0291353
791.182 .0291323
791.889 .0291306
792.595 .0291276
793.301 .0291245
794.008 .0291213
794.713 .0291180
795.419 .0291148
796.124 .0291116
796.829 .0291085
797.534 .0291056
798.238 .0291029
798.942 .0291003
799.646 .0290980
800.350 .0290959
801.053 .0290940
801.756 .0290923
802.459 .0290908
803.162 .0290895
803.864 .0290884
804.566 .0290874
805.267 .0290864
805.969 .0290852
806.670 .0290838
807.371 .0290820
808.071 .0290798
808.772 .0290772
809.472 .0290741
810.171 .0290706
810.871 .0290665
811.570 .0290621
812.269 .0290571
812.967 .0290517
813.666 .0290458
814.364 .0290393
815.061 .0290322
815.759 .0290246
816.456 .0290164
817.153 .0290075
817.849 .0289981
818.545 .0289880
819.241 .0289773
819.937 .0289660
820.632 .0289539
821.327 .0289412
822.022 .0289278
822.717 .0289138
823.411 .0288991
824.105 .0288840
824.798 .0288684
825.491 .0288523
826.184 .0288358
826.877 .0288188
827.569 .0288016
828.261 .0287840
828.953 .0287661
829.645 .0287482
830.336 .0287301
831.027 .0287121
831.717 .0286940
832.407 .0286761
833.097 .0286583
833.787 .0286405
834.476 .0286228
835.165 .0286052
835.854 .0285877
836.542 .0285702
837.230 .0285528
837.918 .0285356
838.605 .0285185
839.292 .0285017
839.979 .0284852
840.665 .0284690
841.352 .0284531
842.037 .0284376
842.723 .0284224
843.408 .0284075
844.093 .0283930
844.777 .0283787
845.462 .0283647
846.145 .0283509
846.829 .0283372
847.512 .0283237
848.195 .0283102
848.878 .0282968
849.560 .0282834
850.242 .0282701
850.923 .0282569
851.605 .0282438
852.286 .0282309
852.966 .0282183
853.646 .0282061
854.326 .0281942
855.006 .0281827
855.685 .0281716
856.364 .0281610
857.043 .0281507
857.721 .0281408
858.399 .0281312
859.077 .0281221
859.754 .0281134
860.431 .0281052
861.107 .0280974
861.784 .0280901
862.459 .0280832
863.135 .0280766
863.810 .0280702
864.485 .0280640
865.160 .0280579
865.834 .0280517
866.508 .0280456
867.181 .0280396
867.854 .0280336
868.527 .0280277
869.199 .0280218
869.872 .0280159
870.543 .0280101
871.215 .0280041
871.886 .0279979
872.557 .0279917
873.227 .0279852
873.897 .0279787
874.567 .0279721
875.236 .0279654
875.905 .0279586
876.573 .0279517
877.242 .0279447
877.909 .0279375
878.577 .0279301
879.244 .0279225
879.911 .0279149
880.577 .0279072
881.243 .0278996
881.909 .0278920
882.575 .0278846
883.240 .0278774
883.904 .0278704
884.569 .0278634
885.232 .0278566
885.896 .0278499
886.559 .0278433
887.222 .0278369
887.885 .0278308
888.547 .0278249
889.208 .0278195
889.870 .0278143
890.531 .0278096
891.192 .0278053
891.852 .0278013
892.512 .0277977
893.171 .0277943
893.830 .0277912
894.489 .0277884
895.148 .0277858
895.806 .0277835
896.464 .0277815
897.121 .0277797
897.778 .0277780
898.434 .0277765
899.091 .0277740
899.747 .0277721
900.402 .0277701
901.057 .0277678
901.712 .0277653
902.366 .0277624
903.020 .0277592
903.674 .0277555
904.327 .0277514
904.980 .0277466
905.633 .0277413
906.285 .0277353
906.936 .0277286
907.588 .0277230
908.239 .0277152
908.889 .0277066
909.540 .0276973
910.190 .0276873
910.839 .0276767
911.488 .0276655
912.137 .0276537
912.785 .0276413
913.433 .0276284
914.081 .0276149
914.728 .0276009
915.375 .0275864
916.021 .0275715
916.668 .0275560
917.313 .0275402
917.959 .0275240
918.604 .0275074
919.248 .0274906
919.892 .0274734
920.536 .0274559
921.180 .0274380
921.823 .0274198
922.465 .0274011
923.108 .0273820
923.750 .0273625
924.391 .0273426
925.032 .0273225
925.673 .0273020
926.313 .0272813
926.953 .0272604
927.593 .0272392
928.232 .0272177
928.871 .0271960
929.510 .0271739
930.148 .0271515
930.786 .0271289
931.423 .0271060
932.060 .0270829
932.697 .0270598
933.333 .0270366
933.969 .0270133
934.604 .0269901
935.239 .0269669
935.874 .0269436
936.508 .0269203
937.142 .0268970
937.776 .0268738
938.409 .0268505
939.042 .0268274
939.674 .0268044
940.306 .0267816
940.938 .0267589
941.569 .0267363
942.200 .0267139
942.830 .0266916
943.460 .0266695
944.090 .0266475
944.720 .0266258
945.349 .0266044
945.977 .0265834
946.606 .0265627
947.233 .0265424
947.861 .0265226
948.488 .0265033
949.115 .0264845
949.741 .0264662
950.367 .0264485
950.993 .0264314
951.618 .0264149
952.243 .0263989
952.868 .0263835
953.492 .0263685
954.115 .0263540
954.739 .0263399
955.362 .0263262
955.984 .0263129
956.607 .0263000
957.229 .0262877
957.850 .0262758
958.471 .0262645
959.092 .0262536
959.713 .0262432
960.333 .0262332
960.952 .0262234
961.572 .0262138
962.191 .0262045
962.809 .0261953
963.428 .0261863
964.045 .0261776
964.663 .0261692
965.280 .0261611
965.897 .0261533
966.513 .0261456
967.129 .0261379
967.745 .0261304
968.361 .0261228
968.976 .0261154
969.590 .0261080
970.205 .0261008
970.818 .0260940
971.432 .0260877
972.045 .0260818
972.658 .0260765
973.271 .0260717
973.883 .0260673
974.495 .0260634
975.106 .0260599
975.717 .0260567
976.328 .0260540
976.938 .0260516
977.548 .0260497
978.158 .0260481
978.768 .0260466
979.377 .0260452
979.985 .0260438
980.594 .0260423
981.202 .0260406
981.809 .0260387
982.417 .0260367
983.024 .0260345
983.631 .0260324
984.237 .0260303
984.843 .0260283
985.449 .0260264
986.054 .0260246
986.659 .0260228
987.264 .0260214
987.868 .0260198
988.472 .0260184
989.076 .0260171
989.679 .0260160
990.282 .0260151
990.885 .0260145
991.487 .0260142
992.090 .0260142
992.691 .0260146
993.293 .0260153
993.894 .0260163
994.495 .0260176
995.095 .0260192
995.696 .0260211
996.296 .0260234
996.895 .0260261
997.494 .0260291
998.093 .0260325
998.692 .0260361
999.291 .0260399
999.889 .0260437
1000.487 .0260475
1001.084 .0260512
1001.681 .0260546
1002.278 .0260579
1002.875 .0260608
1003.471 .0260636
1004.067 .0260661
1004.663 .0260683
1005.258 .0260701
1005.854 .0260716
1006.449 .0260726
1007.043 .0260731
1007.638 .0260732
1008.232 .0260730
1008.826 .0260724
1009.419 .0260715
1010.012 .0260706
1010.605 .0260695
1011.198 .0260683
1011.791 .0260671
1012.383 .0260656
1012.975 .0260641
1013.566 .0260624
1014.158 .0260607
1014.749 .0260590
1015.340 .0260574
1015.931 .0260561
1016.521 .0260550
1017.111 .0260544
1017.701 .0260542
1018.291 .0260544
1018.880 .0260550
1019.470 .0260561
1020.059 .0260575
1020.647 .0260593
1021.236 .0260614
1021.824 .0260639
1022.412 .0260667
1023.000 .0260697
1023.588 .0260730
1024.175 .0260764
1024.762 .0260798
1025.349 .0260831
1025.936 .0260861
1026.523 .0260889
1027.109 .0260912
1027.695 .0260931
1028.281 .0260945
1028.867 .0260954
1029.452 .0260959
1030.038 .0260958
1030.623 .0260952
1031.208 .0260941
1031.792 .0260924
1032.377 .0260903
1032.961 .0260876
1033.546 .0260844
1034.130 .0260808
1034.714 .0260769
1035.297 .0260727
1035.881 .0260685
1036.464 .0260641
1037.047 .0260595
1037.630 .0260549
1038.213 .0260502
1038.796 .0260453
1039.378 .0260402
1039.961 .0260350
1040.543 .0260297
1041.125 .0260243
1041.707 .0260190
1042.289 .0260137
1042.871 .0260084
1043.452 .0260030
1044.034 .0259976
1044.615 .0259919
1045.196 .0259858
1045.777 .0259795
1046.358 .0259727
1046.939 .0259656
1047.520 .0259583
1048.101 .0259507
1048.681 .0259430
1049.262 .0259351
1049.842 .0259270
1050.422 .0259186
1051.002 .0259098
1051.582 .0259005
1052.162 .0258906
1052.742 .0258801
1053.322 .0258688
1053.902 .0258569
1054.482 .0258445
1055.061 .0258318
1055.641 .0258188
1056.220 .0258056
1056.800 .0257923
1057.379 .0257788
1057.958 .0257651
1058.538 .0257513
1059.117 .0257372
1059.696 .0257230
1060.275 .0257088
1060.854 .0256947
1061.433 .0256811
1062.012 .0256679
1062.592 .0256555
1063.171 .0256437
1063.750 .0256326
1064.329 .0256221
1064.908 .0256121
1065.487 .0256026
1066.066 .0255933
1066.645 .0255845
1067.224 .0255760
1067.803 .0255680
1068.382 .0255606
1068.961 .0255537
1069.540 .0255474
1070.119 .0255416
1070.698 .0255362
1071.278 .0255311
1071.857 .0255261
1072.436 .0255213
1073.016 .0255165
1073.595 .0255115
1074.175 .0255065
1074.754 .0255012
1075.334 .0254958
1075.913 .0254902
1076.493 .0254842
1077.073 .0254780
1077.653 .0254715
1078.233 .0254646
1078.813 .0254575
1079.393 .0254501
1079.974 .0254425
1080.554 .0254347
1081.135 .0254268
1081.716 .0254189
1082.296 .0254108
1082.877 .0254028
1083.458 .0253949
1084.040 .0253871
1084.621 .0253794
1085.202 .0253719
1085.784 .0253647
1086.366 .0253576
1086.948 .0253508
1087.530 .0253441
1088.112 .0253376
1088.695 .0253311
1089.277 .0253247
1089.860 .0253184
1090.443 .0253123
1091.026 .0253065
1091.610 .0253010
1092.193 .0252961
1092.777 .0252916
1093.361 .0252877
1093.946 .0252842
1094.530 .0252809
1095.115 .0252779
1095.700 .0252752
1096.285 .0252727
1096.871 .0252706
1097.456 .0252691
1098.042 .0252682
1098.628 .0252682
1099.215 .0252692
1099.802 .0252711
1100.389 .0252739
1100.976 .0252775
1101.564 .0252816
1102.152 .0252862
1102.740 .0252910
1103.329 .0252959
1103.917 .0253010
1104.507 .0253064
1105.096 .0253120
1105.686 .0253178
1106.276 .0253240
1106.867 .0253306
1107.457 .0253375
1108.049 .0253449
1108.640 .0253529
1109.232 .0253612
1109.825 .0253700
1110.417 .0253793
1111.010 .0253892
1111.604 .0253999
1112.198 .0254114
1112.792 .0254237
1113.387 .0254370
1113.982 .0254512
1114.577 .0254663
1115.173 .0254821
1115.769 .0254984
1116.366 .0255149
1116.963 .0255311
1117.561 .0255469
1118.159 .0255622
1118.758 .0255770
1119.357 .0255914
1119.957 .0256060
1120.557 .0256208
1121.157 .0256364
1121.758 .0256531
1122.360 .0256714
1122.962 .0256914
1123.564 .0257133
1124.167 .0257225
1124.771 .0257470
1125.375 .0257736
1125.980 .0258023
1126.585 .0258331
1127.191 .0258661
1127.797 .0259013
1128.404 .0259386
1129.012 .0259776
1129.620 .0260179
1130.229 .0260593
1130.838 .0261010
1131.448 .0261423
1132.058 .0261829
1132.669 .0262390
1133.281 .0262763
1133.894 .0263107
1134.507 .0263445
1135.120 .0263799
1135.735 .0264102
1136.350 .0264217
1136.965 .0266528
1137.582 .0267116
1138.199 .0267631
1138.816 .0267991
1139.435 .0268208
1140.054 .0268329
1140.674 .0268276
1141.294 .0267929
1141.916 .0267355
1142.538 .0267267
1143.160 .0267755
1143.784 .0266410
1144.408 .0261393
1145.033 .0260124
