Measurement Sequence started on: 14-45-04-498
Integration time: 36
Scans to Average: 2 
>>>>>Begin Spectral Data<<<<<
433.946 .0401552
434.870 .0470302
435.793 .0440342
436.715 .0428540
437.635 .0420909
438.555 .0417654
439.473 .0414086
440.389 .0409218
441.305 .0406059
442.219 .0403633
443.132 .0409395
444.044 .0405274
444.954 .0402674
445.863 .0400631
446.771 .0398922
447.678 .0397316
448.584 .0395824
449.488 .0394518
450.391 .0393307
451.293 .0392154
452.194 .0391040
453.094 .0389939
453.992 .0388851
454.890 .0387766
455.786 .0386672
456.681 .0385571
457.575 .0384455
458.468 .0383327
459.360 .0382190
460.250 .0381059
461.140 .0379943
462.028 .0378852
462.915 .0377796
463.801 .0376784
464.687 .0375821
465.571 .0374913
466.454 .0374057
467.335 .0373255
468.216 .0372503
469.096 .0371798
469.975 .0371134
470.853 .0370507
471.729 .0369915
472.605 .0369357
473.479 .0368834
474.353 .0368347
475.226 .0367895
476.097 .0367477
476.968 .0367089
477.838 .0366727
478.706 .0366383
479.574 .0366054
480.441 .0365733
481.306 .0365417
482.171 .0365103
483.035 .0364790
483.898 .0364480
484.760 .0364176
485.621 .0363881
486.481 .0363599
487.340 .0363330
488.198 .0363075
489.055 .0362829
489.912 .0362587
490.767 .0362345
491.622 .0361966
492.476 .0361704
493.329 .0361432
494.180 .0361148
495.032 .0360855
495.882 .0360550
496.731 .0360233
497.580 .0359901
498.427 .0359552
499.274 .0359183
500.120 .0358940
500.965 .0358530
501.809 .0358093
502.653 .0357630
503.495 .0357141
504.337 .0356625
505.178 .0356085
506.018 .0355525
506.858 .0354946
507.696 .0354351
508.534 .0353743
509.371 .0353127
510.208 .0352508
511.043 .0351892
511.878 .0351283
512.712 .0350688
513.545 .0350114
514.377 .0349565
515.209 .0349045
516.040 .0348557
516.870 .0348100
517.699 .0347674
518.528 .0347276
519.356 .0346908
520.183 .0346567
521.010 .0346255
521.836 .0345971
522.661 .0345712
523.485 .0345475
524.309 .0345256
525.132 .0345053
525.954 .0344862
526.776 .0344673
527.597 .0344476
528.417 .0344262
529.237 .0344024
530.056 .0343752
530.874 .0343444
531.692 .0343096
532.508 .0342707
533.325 .0342277
534.140 .0341814
534.955 .0341322
535.770 .0340812
536.583 .0340288
537.397 .0339756
538.209 .0339218
539.021 .0338677
539.832 .0338131
540.643 .0337589
541.453 .0337052
542.262 .0336521
543.071 .0335997
543.879 .0335492
544.687 .0335010
545.494 .0334560
546.300 .0334144
547.106 .0333769
547.911 .0333433
548.716 .0333135
549.520 .0332868
550.323 .0332632
551.126 .0332420
551.929 .0332230
552.731 .0332051
553.532 .0331882
554.332 .0331718
555.133 .0331559
555.932 .0331403
556.731 .0331252
557.530 .0331102
558.328 .0330954
559.125 .0330807
559.922 .0330660
560.719 .0330508
561.515 .0330350
562.310 .0330183
563.105 .0330003
563.899 .0329810
564.693 .0329600
565.487 .0329375
566.280 .0329142
567.072 .0328903
567.864 .0328659
568.655 .0328413
569.446 .0328168
570.236 .0327921
571.026 .0327672
571.816 .0327418
572.605 .0327156
573.393 .0326883
574.181 .0326600
574.969 .0326305
575.756 .0326001
576.543 .0325687
577.329 .0325364
578.115 .0325035
578.900 .0324699
579.685 .0324357
580.469 .0324009
581.253 .0323658
582.036 .0323304
582.820 .0322948
583.602 .0322591
584.384 .0322234
585.166 .0321877
585.947 .0321522
586.728 .0321168
587.509 .0320817
588.289 .0320472
589.069 .0320133
589.848 .0319803
590.627 .0319484
591.405 .0319175
592.183 .0318877
592.961 .0318592
593.738 .0318319
594.515 .0318057
595.291 .0317807
596.067 .0317568
596.843 .0317342
597.618 .0317127
598.393 .0316844
599.167 .0316655
599.941 .0316475
600.715 .0316303
601.488 .0316136
602.261 .0315972
603.034 .0315810
603.806 .0315647
604.578 .0315483
605.349 .0315317
606.121 .0315148
606.891 .0315056
607.662 .0314885
608.432 .0314712
609.201 .0314537
609.971 .0314359
610.740 .0314179
611.508 .0313997
612.277 .0313811
613.045 .0313624
613.812 .0313434
614.579 .0313241
615.346 .0313047
616.113 .0312852
616.879 .0312655
617.645 .0312459
618.411 .0312263
619.176 .0312068
619.941 .0311874
620.705 .0311681
621.470 .0311488
622.233 .0311296
622.997 .0311104
623.760 .0310913
624.523 .0310722
625.286 .0310533
626.048 .0310346
626.810 .0310161
627.572 .0309981
628.333 .0309804
629.095 .0309632
629.855 .0309464
630.616 .0309301
631.376 .0309142
632.136 .0308986
632.895 .0308834
633.655 .0308685
634.414 .0308539
635.172 .0308394
635.931 .0308249
636.689 .0308105
637.447 .0307961
638.204 .0307817
638.962 .0307673
639.718 .0307529
640.475 .0307386
641.231 .0307242
641.988 .0307097
642.743 .0306952
643.499 .0306805
644.254 .0306657
645.009 .0306506
645.764 .0306353
646.518 .0306199
647.272 .0306044
648.026 .0305889
648.780 .0305734
649.533 .0305580
650.286 .0305426
651.039 .0305273
651.792 .0305121
652.544 .0304969
653.296 .0304818
654.048 .0304669
654.799 .0304521
655.550 .0304375
656.301 .0304233
657.052 .0304093
657.802 .0303958
658.552 .0303825
659.302 .0303695
660.052 .0303567
660.801 .0303440
661.550 .0303314
662.299 .0303189
663.048 .0303064
663.796 .0302941
664.544 .0302818
665.292 .0302696
666.040 .0302576
666.787 .0302457
667.534 .0302339
668.281 .0302221
669.028 .0302104
669.774 .0301989
670.521 .0301874
671.266 .0301760
672.012 .0301648
672.758 .0301537
673.503 .0301426
674.248 .0301317
674.992 .0301207
675.737 .0301098
676.481 .0300989
677.225 .0300880
677.969 .0300771
678.712 .0300663
679.455 .0300555
680.199 .0300448
680.941 .0300341
681.684 .0300234
682.426 .0300126
683.168 .0300017
683.910 .0299907
684.652 .0299796
685.393 .0299684
686.134 .0299571
686.875 .0299459
687.616 .0299347
688.356 .0299235
689.097 .0299124
689.837 .0299013
690.576 .0298903
691.316 .0298792
692.055 .0298682
692.794 .0298570
693.533 .0298458
694.272 .0298346
695.010 .0298235
695.748 .0298125
696.486 .0298016
697.224 .0297908
697.962 .0297802
698.699 .0297697
699.436 .0297594
700.173 .0297491
700.909 .0297389
701.646 .0297287
702.382 .0297186
703.118 .0297084
703.853 .0296982
704.589 .0296881
705.324 .0296779
706.059 .0296678
706.794 .0296576
707.529 .0296475
708.263 .0296373
708.997 .0296270
709.731 .0296168
710.465 .0296065
711.198 .0295961
711.931 .0295856
712.664 .0295750
713.397 .0295642
714.130 .0295533
714.862 .0295422
715.594 .0295310
716.326 .0295196
717.058 .0295081
717.789 .0294964
718.520 .0294847
719.251 .0294728
719.982 .0294607
720.713 .0294485
721.443 .0294361
722.173 .0294236
722.903 .0294108
723.633 .0293980
724.362 .0293851
725.091 .0293722
725.820 .0293594
726.549 .0293467
727.278 .0293343
728.006 .0293221
728.734 .0293102
729.462 .0292984
730.190 .0292868
730.917 .0292754
731.644 .0292640
732.371 .0292528
733.098 .0292417
733.825 .0292308
734.551 .0292200
735.277 .0292095
736.003 .0291993
736.728 .0291893
737.454 .0291796
738.179 .0291700
738.904 .0291606
739.629 .0291512
740.353 .0291418
741.077 .0291323
741.801 .0291226
742.525 .0291127
743.249 .0291025
743.972 .0290920
744.695 .0290812
745.418 .0290701
746.141 .0290586
746.863 .0290468
747.585 .0290347
748.307 .0290223
749.029 .0290096
749.750 .0289965
750.472 .0289831
751.193 .0289693
751.913 .0289552
752.634 .0289408
753.354 .0289262
754.074 .0289114
754.794 .0288967
755.514 .0288821
756.233 .0288676
756.952 .0288535
757.671 .0288398
758.390 .0288266
759.108 .0288139
759.826 .0288019
760.544 .0287904
761.262 .0287796
761.979 .0287695
762.697 .0287600
763.414 .0287511
764.130 .0287428
764.847 .0287351
765.563 .0287279
766.279 .0287213
766.995 .0287151
767.710 .0287094
768.426 .0287040
769.141 .0286988
769.855 .0286939
770.570 .0286890
771.284 .0286840
771.998 .0286790
772.712 .0286739
773.426 .0286686
774.139 .0286632
774.852 .0286575
775.565 .0286518
776.277 .0286458
776.990 .0286397
777.702 .0286334
778.414 .0286270
779.125 .0286205
779.836 .0286140
780.547 .0286076
781.258 .0286013
781.969 .0285950
782.679 .0285889
783.389 .0285806
784.099 .0285747
784.808 .0285688
785.517 .0285630
786.226 .0285572
786.935 .0285515
787.643 .0285460
788.352 .0285405
789.060 .0285351
789.767 .0285298
790.475 .0285246
791.182 .0285192
791.889 .0285160
792.595 .0285104
793.301 .0285047
794.008 .0284988
794.713 .0284928
795.419 .0284866
796.124 .0284802
796.829 .0284736
797.534 .0284666
798.238 .0284592
798.942 .0284515
799.646 .0284435
800.350 .0284351
801.053 .0284265
801.756 .0284177
802.459 .0284087
803.162 .0283996
803.864 .0283904
804.566 .0283811
805.267 .0283717
805.969 .0283620
806.670 .0283522
807.371 .0283422
808.071 .0283319
808.772 .0283215
809.472 .0283109
810.171 .0283002
810.871 .0282893
811.570 .0282783
812.269 .0282671
812.967 .0282558
813.666 .0282443
814.364 .0282326
815.061 .0282206
815.759 .0282085
816.456 .0281962
817.153 .0281837
817.849 .0281710
818.545 .0281582
819.241 .0281452
819.937 .0281319
820.632 .0281184
821.327 .0281047
822.022 .0280907
822.717 .0280766
823.411 .0280623
824.105 .0280479
824.798 .0280335
825.491 .0280191
826.184 .0280046
826.877 .0279900
827.569 .0279754
828.261 .0279606
828.953 .0279459
829.645 .0279311
830.336 .0279163
831.027 .0279017
831.717 .0278874
832.407 .0278734
833.097 .0278599
833.787 .0278468
834.476 .0278341
835.165 .0278219
835.854 .0278100
836.542 .0277984
837.230 .0277871
837.918 .0277761
838.605 .0277655
839.292 .0277552
839.979 .0277452
840.665 .0277357
841.352 .0277266
842.037 .0277179
842.723 .0277095
843.408 .0277014
844.093 .0276935
844.777 .0276858
845.462 .0276782
846.145 .0276706
846.829 .0276632
847.512 .0276558
848.195 .0276484
848.878 .0276410
849.560 .0276335
850.242 .0276261
850.923 .0276186
851.605 .0276110
852.286 .0276034
852.966 .0275958
853.646 .0275882
854.326 .0275806
855.006 .0275730
855.685 .0275654
856.364 .0275579
857.043 .0275504
857.721 .0275429
858.399 .0275354
859.077 .0275280
859.754 .0275207
860.431 .0275136
861.107 .0275066
861.784 .0274998
862.459 .0274933
863.135 .0274869
863.810 .0274807
864.485 .0274746
865.160 .0274686
865.834 .0274625
866.508 .0274564
867.181 .0274502
867.854 .0274439
868.527 .0274377
869.199 .0274314
869.872 .0274252
870.543 .0274191
871.215 .0274129
871.886 .0274067
872.557 .0274005
873.227 .0273941
873.897 .0273875
874.567 .0273807
875.236 .0273736
875.905 .0273662
876.573 .0273586
877.242 .0273507
877.909 .0273425
878.577 .0273340
879.244 .0273253
879.911 .0273163
880.577 .0273071
881.243 .0272975
881.909 .0272877
882.575 .0272776
883.240 .0272673
883.904 .0272566
884.569 .0272457
885.232 .0272345
885.896 .0272230
886.559 .0272114
887.222 .0271996
887.885 .0271877
888.547 .0271757
889.208 .0271638
889.870 .0271519
890.531 .0271400
891.192 .0271282
891.852 .0271164
892.512 .0271045
893.171 .0270927
893.830 .0270808
894.489 .0270689
895.148 .0270570
895.806 .0270452
896.464 .0270334
897.121 .0270217
897.778 .0270101
898.434 .0269987
899.091 .0269819
899.747 .0269708
900.402 .0269598
901.057 .0269489
901.712 .0269380
902.366 .0269271
903.020 .0269161
903.674 .0269049
904.327 .0268936
904.980 .0268820
905.633 .0268703
906.285 .0268583
906.936 .0268460
907.588 .0268393
908.239 .0268266
908.889 .0268136
909.540 .0268003
910.190 .0267866
910.839 .0267727
911.488 .0267585
912.137 .0267441
912.785 .0267295
913.433 .0267147
914.081 .0266999
914.728 .0266851
915.375 .0266701
916.021 .0266550
916.668 .0266398
917.313 .0266244
917.959 .0266089
918.604 .0265931
919.248 .0265773
919.892 .0265613
920.536 .0265452
921.180 .0265290
921.823 .0265128
922.465 .0264964
923.108 .0264800
923.750 .0264636
924.391 .0264471
925.032 .0264306
925.673 .0264141
926.313 .0263978
926.953 .0263816
927.593 .0263656
928.232 .0263498
928.871 .0263342
929.510 .0263188
930.148 .0263036
930.786 .0262884
931.423 .0262733
932.060 .0262581
932.697 .0262429
933.333 .0262277
933.969 .0262123
934.604 .0261970
935.239 .0261817
935.874 .0261664
936.508 .0261512
937.142 .0261361
937.776 .0261212
938.409 .0261064
939.042 .0260917
939.674 .0260774
940.306 .0260632
940.938 .0260494
941.569 .0260360
942.200 .0260229
942.830 .0260103
943.460 .0259981
944.090 .0259865
944.720 .0259753
945.349 .0259646
945.977 .0259544
946.606 .0259446
947.233 .0259352
947.861 .0259261
948.488 .0259175
949.115 .0259092
949.741 .0259013
950.367 .0258939
950.993 .0258869
951.618 .0258805
952.243 .0258745
952.868 .0258690
953.492 .0258638
954.115 .0258590
954.739 .0258545
955.362 .0258503
955.984 .0258464
956.607 .0258426
957.229 .0258389
957.850 .0258355
958.471 .0258321
959.092 .0258288
959.713 .0258255
960.333 .0258221
960.952 .0258188
961.572 .0258153
962.191 .0258117
962.809 .0258079
963.428 .0258041
964.045 .0258002
964.663 .0257961
965.280 .0257921
965.897 .0257879
966.513 .0257837
967.129 .0257795
967.745 .0257753
968.361 .0257711
968.976 .0257670
969.590 .0257628
970.205 .0257588
970.818 .0257548
971.432 .0257508
972.045 .0257468
972.658 .0257428
973.271 .0257389
973.883 .0257348
974.495 .0257308
975.106 .0257266
975.717 .0257224
976.328 .0257181
976.938 .0257137
977.548 .0257091
978.158 .0257044
978.768 .0256962
979.377 .0256907
979.985 .0256849
980.594 .0256788
981.202 .0256726
981.809 .0256663
982.417 .0256599
983.024 .0256535
983.631 .0256471
984.237 .0256406
984.843 .0256342
985.449 .0256276
986.054 .0256210
986.659 .0256144
987.264 .0256110
987.868 .0256044
988.472 .0255978
989.076 .0255912
989.679 .0255847
990.282 .0255783
990.885 .0255719
991.487 .0255656
992.090 .0255592
992.691 .0255527
993.293 .0255460
993.894 .0255391
994.495 .0255320
995.095 .0255247
995.696 .0255173
996.296 .0255098
996.895 .0255023
997.494 .0254949
998.093 .0254874
998.692 .0254799
999.291 .0254722
999.889 .0254643
1000.487 .0254560
1001.084 .0254474
1001.681 .0254385
1002.278 .0254292
1002.875 .0254197
1003.471 .0254099
1004.067 .0254001
1004.663 .0253900
1005.258 .0253799
1005.854 .0253695
1006.449 .0253589
1007.043 .0253482
1007.638 .0253372
1008.232 .0253260
1008.826 .0253147
1009.419 .0253035
1010.012 .0252924
1010.605 .0252816
1011.198 .0252710
1011.791 .0252608
1012.383 .0252509
1012.975 .0252412
1013.566 .0252319
1014.158 .0252228
1014.749 .0252139
1015.340 .0252053
1015.931 .0251970
1016.521 .0251889
1017.111 .0251812
1017.701 .0251738
1018.291 .0251669
1018.880 .0251602
1019.470 .0251538
1020.059 .0251478
1020.647 .0251420
1021.236 .0251365
1021.824 .0251313
1022.412 .0251265
1023.000 .0251220
1023.588 .0251179
1024.175 .0251141
1024.762 .0251106
1025.349 .0251074
1025.936 .0251044
1026.523 .0251016
1027.109 .0250991
1027.695 .0250967
1028.281 .0250946
1028.867 .0250929
1029.452 .0250916
1030.038 .0250907
1030.623 .0250903
1031.208 .0250902
1031.792 .0250905
1032.377 .0250912
1032.961 .0250922
1033.546 .0250935
1034.130 .0250952
1034.714 .0250971
1035.297 .0250993
1035.881 .0251017
1036.464 .0251044
1037.047 .0251071
1037.630 .0251097
1038.213 .0251122
1038.796 .0251145
1039.378 .0251164
1039.961 .0251180
1040.543 .0251192
1041.125 .0251201
1041.707 .0251207
1042.289 .0251209
1042.871 .0251209
1043.452 .0251206
1044.034 .0251201
1044.615 .0251192
1045.196 .0251180
1045.777 .0251166
1046.358 .0251148
1046.939 .0251128
1047.520 .0251106
1048.101 .0251081
1048.681 .0251055
1049.262 .0251026
1049.842 .0250995
1050.422 .0250963
1051.002 .0250929
1051.582 .0250893
1052.162 .0250858
1052.742 .0250822
1053.322 .0250788
1053.902 .0250756
1054.482 .0250730
1055.061 .0250709
1055.641 .0250694
1056.220 .0250688
1056.800 .0250691
1057.379 .0250701
1057.958 .0250718
1058.538 .0250743
1059.117 .0250774
1059.696 .0250810
1060.275 .0250851
1060.854 .0250896
1061.433 .0250944
1062.012 .0250996
1062.592 .0251050
1063.171 .0251107
1063.750 .0251165
1064.329 .0251223
1064.908 .0251281
1065.487 .0251338
1066.066 .0251393
1066.645 .0251447
1067.224 .0251498
1067.803 .0251549
1068.382 .0251598
1068.961 .0251646
1069.540 .0251694
1070.119 .0251740
1070.698 .0251784
1071.278 .0251826
1071.857 .0251863
1072.436 .0251895
1073.016 .0251923
1073.595 .0251946
1074.175 .0251964
1074.754 .0251979
1075.334 .0251991
1075.913 .0252000
1076.493 .0252008
1077.073 .0252013
1077.653 .0252017
1078.233 .0252019
1078.813 .0252019
1079.393 .0252017
1079.974 .0252013
1080.554 .0252007
1081.135 .0252001
1081.716 .0251995
1082.296 .0251990
1082.877 .0251986
1083.458 .0251984
1084.040 .0251982
1084.621 .0251982
1085.202 .0251981
1085.784 .0251980
1086.366 .0251979
1086.948 .0251978
1087.530 .0251977
1088.112 .0251977
1088.695 .0251979
1089.277 .0251985
1089.860 .0251994
1090.443 .0252006
1091.026 .0252022
1091.610 .0252041
1092.193 .0252061
1092.777 .0252083
1093.361 .0252106
1093.946 .0252128
1094.530 .0252151
1095.115 .0252173
1095.700 .0252195
1096.285 .0252218
1096.871 .0252242
1097.456 .0252268
1098.042 .0252296
1098.628 .0252326
1099.215 .0252359
1099.802 .0252396
1100.389 .0252435
1100.976 .0252476
1101.564 .0252519
1102.152 .0252565
1102.740 .0252613
1103.329 .0252664
1103.917 .0252719
1104.507 .0252778
1105.096 .0252841
1105.686 .0252907
1106.276 .0252974
1106.867 .0253040
1107.457 .0253104
1108.049 .0253164
1108.640 .0253219
1109.232 .0253269
1109.825 .0253315
1110.417 .0253359
1111.010 .0253402
1111.604 .0253445
1112.198 .0253488
1112.792 .0253531
1113.387 .0253574
1113.982 .0253615
1114.577 .0253655
1115.173 .0253693
1115.769 .0253730
1116.366 .0253768
1116.963 .0253807
1117.561 .0253849
1118.159 .0253898
1118.758 .0253953
1119.357 .0254015
1119.957 .0254084
1120.557 .0254159
1121.157 .0254240
1121.758 .0254328
1122.360 .0254422
1122.962 .0254526
1123.564 .0254639
1124.167 .0254656
1124.771 .0254785
1125.375 .0254931
1125.980 .0255099
1126.585 .0255289
1127.191 .0255502
1127.797 .0255739
1128.404 .0255999
1129.012 .0256280
1129.620 .0256583
1130.229 .0256908
1130.838 .0257254
1131.448 .0257618
1132.058 .0258002
1132.669 .0258567
1133.281 .0258992
1133.894 .0259430
1134.507 .0259880
1135.120 .0260382
1135.735 .0260782
1136.350 .0261205
1136.965 .0261808
1137.582 .0262416
1138.199 .0262997
1138.816 .0263563
1139.435 .0264097
1140.054 .0264638
1140.674 .0265086
1141.294 .0265509
1141.916 .0265961
1142.538 .0266449
1143.160 .0268089
1143.784 .0265576
1144.408 .0266427
1145.033 .0269248
