Measurement Sequence started on: 14-45-04-498
Integration time: 36
Scans to Average: 2 
>>>>>Begin Spectral Data<<<<<
433.946 .0379865
434.870 .0438804
435.793 .0435700
436.715 .0425173
437.635 .0427877
438.555 .0423838
439.473 .0423407
440.389 .0420720
441.305 .0418059
442.219 .0415586
443.132 .0414929
444.044 .0412729
444.954 .0410604
445.863 .0408954
446.771 .0407093
447.678 .0405386
448.584 .0403649
449.488 .0402004
450.391 .0400448
451.293 .0398967
452.194 .0397555
453.094 .0396196
453.992 .0394873
454.890 .0393566
455.786 .0392259
456.681 .0390955
457.575 .0389655
458.468 .0388366
459.360 .0387096
460.250 .0385856
461.140 .0384648
462.028 .0383477
462.915 .0382333
463.801 .0381210
464.687 .0380099
465.571 .0379000
466.454 .0377909
467.335 .0376834
468.216 .0375779
469.096 .0374750
469.975 .0373752
470.853 .0372792
471.729 .0371870
472.605 .0370991
473.479 .0370154
474.353 .0369361
475.226 .0368614
476.097 .0367912
476.968 .0367255
477.838 .0366645
478.706 .0366078
479.574 .0365554
480.441 .0365067
481.306 .0364614
482.171 .0364189
483.035 .0363788
483.898 .0363410
484.760 .0363052
485.621 .0362715
486.481 .0362400
487.340 .0362105
488.198 .0361831
489.055 .0361576
489.912 .0361334
490.767 .0361100
491.622 .0360741
492.476 .0360495
493.329 .0360238
494.180 .0359969
495.032 .0359686
495.882 .0359391
496.731 .0359086
497.580 .0358773
498.427 .0358452
499.274 .0358123
500.120 .0357931
500.965 .0357581
501.809 .0357214
502.653 .0356826
503.495 .0356416
504.337 .0355983
505.178 .0355529
506.018 .0355057
506.858 .0354572
507.696 .0354079
508.534 .0353584
509.371 .0353092
510.208 .0352609
511.043 .0352136
511.878 .0351674
512.712 .0351225
513.545 .0350793
514.377 .0350378
515.209 .0349983
516.040 .0349611
516.870 .0349261
517.699 .0348932
518.528 .0348626
519.356 .0348343
520.183 .0348079
521.010 .0347827
521.836 .0347578
522.661 .0347321
523.485 .0347046
524.309 .0346746
525.132 .0346413
525.954 .0346046
526.776 .0345643
527.597 .0345202
528.417 .0344725
529.237 .0344217
530.056 .0343674
530.874 .0343091
531.692 .0342464
532.508 .0341785
533.325 .0341051
534.140 .0340266
534.955 .0339435
535.770 .0338570
536.583 .0337683
537.397 .0336790
538.209 .0335907
539.021 .0335052
539.832 .0334238
540.643 .0333476
541.453 .0332771
542.262 .0332126
543.071 .0331537
543.879 .0331002
544.687 .0330522
545.494 .0330095
546.300 .0329716
547.106 .0329385
547.911 .0329105
548.716 .0328876
549.520 .0328699
550.323 .0328572
551.126 .0328489
551.929 .0328443
552.731 .0328422
553.532 .0328413
554.332 .0328404
555.133 .0328386
555.932 .0328352
556.731 .0328298
557.530 .0328224
558.328 .0328131
559.125 .0328024
559.922 .0327908
560.719 .0327783
561.515 .0327649
562.310 .0327504
563.105 .0327344
563.899 .0327170
564.693 .0326979
565.487 .0326772
566.280 .0326554
567.072 .0326328
567.864 .0326099
568.655 .0325870
569.446 .0325645
570.236 .0325426
571.026 .0325212
571.816 .0325004
572.605 .0324796
573.393 .0324586
574.181 .0324372
574.969 .0324151
575.756 .0323921
576.543 .0323683
577.329 .0323436
578.115 .0323183
578.900 .0322929
579.685 .0322676
580.469 .0322425
581.253 .0322179
582.036 .0321938
582.820 .0321699
583.602 .0321462
584.384 .0321224
585.166 .0320987
585.947 .0320748
586.728 .0320509
587.509 .0320272
588.289 .0320039
589.069 .0319813
589.848 .0319593
590.627 .0319379
591.405 .0319171
592.183 .0318965
592.961 .0318759
593.738 .0318552
594.515 .0318341
595.291 .0318124
596.067 .0317902
596.843 .0317676
597.618 .0317446
598.393 .0317103
599.167 .0316878
599.941 .0316656
600.715 .0316438
601.488 .0316224
602.261 .0316015
603.034 .0315810
603.806 .0315608
604.578 .0315409
605.349 .0315213
606.121 .0315019
606.891 .0314934
607.662 .0314743
608.432 .0314556
609.201 .0314373
609.971 .0314193
610.740 .0314015
611.508 .0313840
612.277 .0313665
613.045 .0313491
613.812 .0313317
614.579 .0313142
615.346 .0312967
616.113 .0312791
616.879 .0312613
617.645 .0312434
618.411 .0312253
619.176 .0312069
619.941 .0311883
620.705 .0311693
621.470 .0311501
622.233 .0311307
622.997 .0311111
623.760 .0310915
624.523 .0310720
625.286 .0310525
626.048 .0310331
626.810 .0310137
627.572 .0309945
628.333 .0309753
629.095 .0309563
629.855 .0309375
630.616 .0309188
631.376 .0309004
632.136 .0308821
632.895 .0308640
633.655 .0308460
634.414 .0308281
635.172 .0308102
635.931 .0307924
636.689 .0307746
637.447 .0307570
638.204 .0307395
638.962 .0307223
639.718 .0307052
640.475 .0306884
641.231 .0306718
641.988 .0306554
642.743 .0306392
643.499 .0306232
644.254 .0306074
645.009 .0305918
645.764 .0305766
646.518 .0305616
647.272 .0305470
648.026 .0305327
648.780 .0305188
649.533 .0305051
650.286 .0304916
651.039 .0304784
651.792 .0304652
652.544 .0304522
653.296 .0304394
654.048 .0304267
654.799 .0304142
655.550 .0304019
656.301 .0303899
657.052 .0303781
657.802 .0303667
658.552 .0303555
659.302 .0303445
660.052 .0303338
660.801 .0303233
661.550 .0303130
662.299 .0303028
663.048 .0302928
663.796 .0302828
664.544 .0302730
665.292 .0302633
666.040 .0302536
666.787 .0302439
667.534 .0302343
668.281 .0302247
669.028 .0302152
669.774 .0302057
670.521 .0301963
671.266 .0301868
672.012 .0301774
672.758 .0301679
673.503 .0301583
674.248 .0301485
674.992 .0301386
675.737 .0301285
676.481 .0301182
677.225 .0301077
677.969 .0300970
678.712 .0300861
679.455 .0300751
680.199 .0300640
680.941 .0300527
681.684 .0300411
682.426 .0300295
683.168 .0300177
683.910 .0300058
684.652 .0299939
685.393 .0299820
686.134 .0299702
686.875 .0299585
687.616 .0299471
688.356 .0299358
689.097 .0299249
689.837 .0299142
690.576 .0299037
691.316 .0298936
692.055 .0298837
692.794 .0298740
693.533 .0298645
694.272 .0298552
695.010 .0298461
695.748 .0298370
696.486 .0298279
697.224 .0298189
697.962 .0298100
698.699 .0298010
699.436 .0297920
700.173 .0297830
700.909 .0297741
701.646 .0297650
702.382 .0297559
703.118 .0297466
703.853 .0297372
704.589 .0297275
705.324 .0297177
706.059 .0297076
706.794 .0296974
707.529 .0296870
708.263 .0296764
708.997 .0296657
709.731 .0296549
710.465 .0296439
711.198 .0296327
711.931 .0296213
712.664 .0296099
713.397 .0295982
714.130 .0295865
714.862 .0295747
715.594 .0295627
716.326 .0295507
717.058 .0295386
717.789 .0295264
718.520 .0295141
719.251 .0295017
719.982 .0294892
720.713 .0294767
721.443 .0294641
722.173 .0294515
722.903 .0294390
723.633 .0294264
724.362 .0294140
725.091 .0294016
725.820 .0293893
726.549 .0293772
727.278 .0293652
728.006 .0293534
728.734 .0293417
729.462 .0293303
730.190 .0293190
730.917 .0293079
731.644 .0292971
732.371 .0292864
733.098 .0292759
733.825 .0292656
734.551 .0292554
735.277 .0292454
736.003 .0292356
736.728 .0292259
737.454 .0292162
738.179 .0292066
738.904 .0291971
739.629 .0291876
740.353 .0291780
741.077 .0291683
741.801 .0291585
742.525 .0291485
743.249 .0291383
743.972 .0291279
744.695 .0291172
745.418 .0291063
746.141 .0290952
746.863 .0290839
747.585 .0290725
748.307 .0290608
749.029 .0290489
749.750 .0290369
750.472 .0290246
751.193 .0290122
751.913 .0289997
752.634 .0289871
753.354 .0289744
754.074 .0289618
754.794 .0289494
755.514 .0289372
756.233 .0289253
756.952 .0289137
757.671 .0289025
758.390 .0288917
759.108 .0288814
759.826 .0288715
760.544 .0288621
761.262 .0288530
761.979 .0288443
762.697 .0288359
763.414 .0288279
764.130 .0288201
764.847 .0288125
765.563 .0288053
766.279 .0287982
766.995 .0287915
767.710 .0287849
768.426 .0287785
769.141 .0287723
769.855 .0287660
770.570 .0287598
771.284 .0287535
771.998 .0287471
772.712 .0287405
773.426 .0287338
774.139 .0287270
774.852 .0287201
775.565 .0287131
776.277 .0287061
776.990 .0286991
777.702 .0286922
778.414 .0286852
779.125 .0286784
779.836 .0286715
780.547 .0286648
781.258 .0286581
781.969 .0286515
782.679 .0286448
783.389 .0286350
784.099 .0286283
784.808 .0286217
785.517 .0286151
786.226 .0286086
786.935 .0286022
787.643 .0285959
788.352 .0285898
789.060 .0285838
789.767 .0285779
790.475 .0285721
791.182 .0285663
791.889 .0285634
792.595 .0285576
793.301 .0285517
794.008 .0285458
794.713 .0285397
795.419 .0285336
796.124 .0285274
796.829 .0285211
797.534 .0285147
798.238 .0285082
798.942 .0285016
799.646 .0284948
800.350 .0284880
801.053 .0284810
801.756 .0284740
802.459 .0284668
803.162 .0284595
803.864 .0284519
804.566 .0284441
805.267 .0284360
805.969 .0284276
806.670 .0284188
807.371 .0284097
808.071 .0284003
808.772 .0283905
809.472 .0283803
810.171 .0283696
810.871 .0283585
811.570 .0283468
812.269 .0283346
812.967 .0283218
813.666 .0283085
814.364 .0282948
815.061 .0282806
815.759 .0282661
816.456 .0282512
817.153 .0282361
817.849 .0282207
818.545 .0282051
819.241 .0281894
819.937 .0281735
820.632 .0281575
821.327 .0281415
822.022 .0281255
822.717 .0281095
823.411 .0280936
824.105 .0280778
824.798 .0280623
825.491 .0280469
826.184 .0280317
826.877 .0280169
827.569 .0280023
828.261 .0279882
828.953 .0279745
829.645 .0279612
830.336 .0279485
831.027 .0279361
831.717 .0279243
832.407 .0279130
833.097 .0279021
833.787 .0278916
834.476 .0278817
835.165 .0278722
835.854 .0278631
836.542 .0278545
837.230 .0278462
837.918 .0278382
838.605 .0278305
839.292 .0278230
839.979 .0278157
840.665 .0278085
841.352 .0278013
842.037 .0277943
842.723 .0277873
843.408 .0277805
844.093 .0277737
844.777 .0277670
845.462 .0277602
846.145 .0277534
846.829 .0277466
847.512 .0277395
848.195 .0277324
848.878 .0277250
849.560 .0277175
850.242 .0277098
850.923 .0277018
851.605 .0276936
852.286 .0276851
852.966 .0276764
853.646 .0276674
854.326 .0276582
855.006 .0276487
855.685 .0276390
856.364 .0276292
857.043 .0276194
857.721 .0276094
858.399 .0275993
859.077 .0275892
859.754 .0275790
860.431 .0275689
861.107 .0275588
861.784 .0275488
862.459 .0275391
863.135 .0275296
863.810 .0275205
864.485 .0275117
865.160 .0275032
865.834 .0274951
866.508 .0274873
867.181 .0274797
867.854 .0274724
868.527 .0274653
869.199 .0274584
869.872 .0274516
870.543 .0274450
871.215 .0274385
871.886 .0274320
872.557 .0274256
873.227 .0274190
873.897 .0274123
874.567 .0274055
875.236 .0273985
875.905 .0273913
876.573 .0273838
877.242 .0273760
877.909 .0273678
878.577 .0273592
879.244 .0273502
879.911 .0273408
880.577 .0273310
881.243 .0273209
881.909 .0273106
882.575 .0273000
883.240 .0272892
883.904 .0272784
884.569 .0272674
885.232 .0272564
885.896 .0272452
886.559 .0272340
887.222 .0272228
887.885 .0272116
888.547 .0272006
889.208 .0271897
889.870 .0271790
890.531 .0271686
891.192 .0271583
891.852 .0271483
892.512 .0271385
893.171 .0271288
893.830 .0271193
894.489 .0271100
895.148 .0271008
895.806 .0270917
896.464 .0270826
897.121 .0270737
897.778 .0270647
898.434 .0270558
899.091 .0270420
899.747 .0270329
900.402 .0270237
901.057 .0270144
901.712 .0270049
902.366 .0269952
903.020 .0269853
903.674 .0269751
904.327 .0269646
904.980 .0269538
905.633 .0269427
906.285 .0269313
906.936 .0269196
907.588 .0269129
908.239 .0269005
908.889 .0268878
909.540 .0268747
910.190 .0268611
910.839 .0268472
911.488 .0268331
912.137 .0268186
912.785 .0268039
913.433 .0267890
914.081 .0267738
914.728 .0267585
915.375 .0267430
916.021 .0267272
916.668 .0267112
917.313 .0266949
917.959 .0266784
918.604 .0266618
919.248 .0266450
919.892 .0266282
920.536 .0266112
921.180 .0265942
921.823 .0265771
922.465 .0265599
923.108 .0265425
923.750 .0265249
924.391 .0265072
925.032 .0264894
925.673 .0264715
926.313 .0264535
926.953 .0264356
927.593 .0264176
928.232 .0263997
928.871 .0263817
929.510 .0263638
930.148 .0263458
930.786 .0263279
931.423 .0263100
932.060 .0262922
932.697 .0262745
933.333 .0262568
933.969 .0262393
934.604 .0262220
935.239 .0262049
935.874 .0261879
936.508 .0261712
937.142 .0261548
937.776 .0261387
938.409 .0261230
939.042 .0261076
939.674 .0260925
940.306 .0260779
940.938 .0260636
941.569 .0260498
942.200 .0260363
942.830 .0260233
943.460 .0260108
944.090 .0259989
944.720 .0259877
945.349 .0259770
945.977 .0259669
946.606 .0259573
947.233 .0259482
947.861 .0259396
948.488 .0259312
949.115 .0259233
949.741 .0259158
950.367 .0259086
950.993 .0259020
951.618 .0258958
952.243 .0258900
952.868 .0258847
953.492 .0258796
954.115 .0258749
954.739 .0258704
955.362 .0258660
955.984 .0258618
956.607 .0258577
957.229 .0258537
957.850 .0258500
958.471 .0258464
959.092 .0258429
959.713 .0258396
960.333 .0258364
960.952 .0258331
961.572 .0258298
962.191 .0258264
962.809 .0258229
963.428 .0258193
964.045 .0258156
964.663 .0258119
965.280 .0258083
965.897 .0258046
966.513 .0258010
967.129 .0257973
967.745 .0257936
968.361 .0257899
968.976 .0257860
969.590 .0257820
970.205 .0257780
970.818 .0257739
971.432 .0257698
972.045 .0257657
972.658 .0257617
973.271 .0257577
973.883 .0257537
974.495 .0257498
975.106 .0257460
975.717 .0257422
976.328 .0257384
976.938 .0257347
977.548 .0257310
978.158 .0257273
978.768 .0257216
979.377 .0257177
979.985 .0257136
980.594 .0257095
981.202 .0257053
981.809 .0257010
982.417 .0256967
983.024 .0256923
983.631 .0256878
984.237 .0256832
984.843 .0256784
985.449 .0256733
986.054 .0256679
986.659 .0256622
987.264 .0256586
987.868 .0256526
988.472 .0256463
989.076 .0256398
989.679 .0256333
990.282 .0256266
990.885 .0256197
991.487 .0256127
992.090 .0256055
992.691 .0255980
993.293 .0255902
993.894 .0255820
994.495 .0255735
995.095 .0255647
995.696 .0255556
996.296 .0255464
996.895 .0255370
997.494 .0255276
998.093 .0255181
998.692 .0255085
999.291 .0254988
999.889 .0254889
1000.487 .0254788
1001.084 .0254685
1001.681 .0254580
1002.278 .0254473
1002.875 .0254366
1003.471 .0254258
1004.067 .0254152
1004.663 .0254046
1005.258 .0253941
1005.854 .0253837
1006.449 .0253733
1007.043 .0253630
1007.638 .0253526
1008.232 .0253422
1008.826 .0253319
1009.419 .0253217
1010.012 .0253118
1010.605 .0253021
1011.198 .0252928
1011.791 .0252839
1012.383 .0252754
1012.975 .0252674
1013.566 .0252598
1014.158 .0252526
1014.749 .0252457
1015.340 .0252390
1015.931 .0252326
1016.521 .0252264
1017.111 .0252204
1017.701 .0252147
1018.291 .0252093
1018.880 .0252042
1019.470 .0251992
1020.059 .0251945
1020.647 .0251898
1021.236 .0251853
1021.824 .0251809
1022.412 .0251765
1023.000 .0251722
1023.588 .0251679
1024.175 .0251637
1024.762 .0251596
1025.349 .0251556
1025.936 .0251518
1026.523 .0251481
1027.109 .0251444
1027.695 .0251409
1028.281 .0251374
1028.867 .0251340
1029.452 .0251306
1030.038 .0251274
1030.623 .0251243
1031.208 .0251212
1031.792 .0251184
1032.377 .0251156
1032.961 .0251129
1033.546 .0251103
1034.130 .0251078
1034.714 .0251054
1035.297 .0251031
1035.881 .0251010
1036.464 .0250990
1037.047 .0250971
1037.630 .0250954
1038.213 .0250938
1038.796 .0250922
1039.378 .0250906
1039.961 .0250889
1040.543 .0250872
1041.125 .0250855
1041.707 .0250838
1042.289 .0250820
1042.871 .0250803
1043.452 .0250786
1044.034 .0250769
1044.615 .0250753
1045.196 .0250738
1045.777 .0250722
1046.358 .0250707
1046.939 .0250691
1047.520 .0250677
1048.101 .0250663
1048.681 .0250651
1049.262 .0250641
1049.842 .0250633
1050.422 .0250628
1051.002 .0250624
1051.582 .0250622
1052.162 .0250621
1052.742 .0250620
1053.322 .0250619
1053.902 .0250617
1054.482 .0250614
1055.061 .0250612
1055.641 .0250610
1056.220 .0250610
1056.800 .0250613
1057.379 .0250620
1057.958 .0250629
1058.538 .0250642
1059.117 .0250657
1059.696 .0250675
1060.275 .0250695
1060.854 .0250717
1061.433 .0250742
1062.012 .0250771
1062.592 .0250803
1063.171 .0250839
1063.750 .0250879
1064.329 .0250922
1064.908 .0250967
1065.487 .0251014
1066.066 .0251061
1066.645 .0251108
1067.224 .0251155
1067.803 .0251201
1068.382 .0251248
1068.961 .0251296
1069.540 .0251345
1070.119 .0251397
1070.698 .0251453
1071.278 .0251512
1071.857 .0251574
1072.436 .0251639
1073.016 .0251706
1073.595 .0251774
1074.175 .0251842
1074.754 .0251910
1075.334 .0251977
1075.913 .0252042
1076.493 .0252104
1077.073 .0252162
1077.653 .0252216
1078.233 .0252263
1078.813 .0252303
1079.393 .0252335
1079.974 .0252358
1080.554 .0252371
1081.135 .0252375
1081.716 .0252371
1082.296 .0252360
1082.877 .0252344
1083.458 .0252323
1084.040 .0252300
1084.621 .0252276
1085.202 .0252251
1085.784 .0252225
1086.366 .0252199
1086.948 .0252171
1087.530 .0252142
1088.112 .0252112
1088.695 .0252082
1089.277 .0252052
1089.860 .0252024
1090.443 .0251996
1091.026 .0251970
1091.610 .0251946
1092.193 .0251924
1092.777 .0251903
1093.361 .0251882
1093.946 .0251863
1094.530 .0251844
1095.115 .0251827
1095.700 .0251814
1096.285 .0251806
1096.871 .0251805
1097.456 .0251811
1098.042 .0251825
1098.628 .0251845
1099.215 .0251870
1099.802 .0251900
1100.389 .0251932
1100.976 .0251965
1101.564 .0251999
1102.152 .0252031
1102.740 .0252062
1103.329 .0252094
1103.917 .0252126
1104.507 .0252159
1105.096 .0252192
1105.686 .0252225
1106.276 .0252259
1106.867 .0252293
1107.457 .0252329
1108.049 .0252367
1108.640 .0252408
1109.232 .0252453
1109.825 .0252502
1110.417 .0252557
1111.010 .0252618
1111.604 .0252684
1112.198 .0252755
1112.792 .0252829
1113.387 .0252905
1113.982 .0252985
1114.577 .0253067
1115.173 .0253153
1115.769 .0253244
1116.366 .0253342
1116.963 .0253446
1117.561 .0253556
1118.159 .0253672
1118.758 .0253794
1119.357 .0253919
1119.957 .0254046
1120.557 .0254177
1121.157 .0254312
1121.758 .0254454
1122.360 .0254605
1122.962 .0254768
1123.564 .0254943
1124.167 .0255019
1124.771 .0255207
1125.375 .0255406
1125.980 .0255612
1126.585 .0255824
1127.191 .0256038
1127.797 .0256255
1128.404 .0256476
1129.012 .0256703
1129.620 .0256939
1130.229 .0257187
1130.838 .0257448
1131.448 .0257719
1132.058 .0258003
1132.669 .0258425
1133.281 .0258739
1133.894 .0259067
1134.507 .0259361
1135.120 .0259733
1135.735 .0260123
1136.350 .0260608
1136.965 .0260332
1137.582 .0260671
1138.199 .0261085
1138.816 .0261528
1139.435 .0261978
1140.054 .0262483
1140.674 .0263023
1141.294 .0263672
1141.916 .0264263
1142.538 .0263560
1143.160 .0265870
1143.784 .0266467
1144.408 .0269128
1145.033 .0266413
