Measurement Sequence started on: 09-46-08-630
Integration time: 30
Scans to Average: 2 
>>>>>Begin Spectral Data<<<<<
434.745 .1122753
435.665 .1103231
436.585 .1062720
437.503 .0960111
438.420 .0882617
439.335 .0877067
440.249 .0836543
441.162 .0801371
442.074 .0772113
442.984 .0749399
443.894 .0731293
444.802 .0715968
445.708 .0703298
446.614 .0692677
447.518 .0683408
448.422 .0675439
449.324 .0668493
450.224 .0662570
451.124 .0657181
452.022 .0652282
452.920 .0647756
453.816 .0643497
454.711 .0639519
455.605 .0635947
456.497 .0632863
457.389 .0630167
458.279 .0627841
459.169 .0625884
460.057 .0624132
460.944 .0622570
461.830 .0621132
462.715 .0619694
463.599 .0618232
464.482 .0616782
465.363 .0615299
466.244 .0613894
467.124 .0612611
468.002 .0611353
468.880 .0610176
469.756 .0609023
470.632 .0607813
471.506 .0606498
472.379 .0605139
473.252 .0603751
474.123 .0602397
474.994 .0601153
475.863 .0600063
476.731 .0599164
477.599 .0598488
478.465 .0597977
479.331 .0597634
480.195 .0597382
481.059 .0597167
481.921 .0596941
482.783 .0596775
483.643 .0596643
484.503 .0596633
485.362 .0596742
486.220 .0597010
487.077 .0597359
487.933 .0597749
488.788 .0598097
489.642 .0598369
490.496 .0598572
491.348 .0598677
492.200 .0598728
493.050 .0598835
493.900 .0599007
494.749 .0599332
495.597 .0599776
496.445 .0600302
497.291 .0600788
498.136 .0601157
498.981 .0601366
499.825 .0601396
500.668 .0601285
501.510 .0601164
502.352 .0601114
503.192 .0601237
504.032 .0601606
504.871 .0602176
505.709 .0602972
506.546 .0603920
507.383 .0604832
508.219 .0605677
509.054 .0606392
509.888 .0607130
510.722 .0607895
511.554 .0608887
512.386 .0610257
513.217 .0612057
514.048 .0614409
514.877 .0617264
515.706 .0620541
516.535 .0624125
517.362 .0627875
518.189 .0631658
519.015 .0635290
519.840 .0638848
520.665 .0642159
521.489 .0645532
522.312 .0648859
523.134 .0652301
523.956 .0655927
524.777 .0659834
525.598 .0664005
526.417 .0668217
527.236 .0672396
528.055 .0676436
528.872 .0680006
529.690 .0683156
530.506 .0685656
531.322 .0687666
532.137 .0689229
532.951 .0690487
533.765 .0691400
534.578 .0692300
535.391 .0693015
536.203 .0693518
537.014 .0693765
537.824 .0693498
538.634 .0692565
539.444 .0690902
540.253 .0688563
541.061 .0685503
541.868 .0681752
542.675 .0677559
543.482 .0672816
544.288 .0667831
545.093 .0662678
545.897 .0657242
546.702 .0651842
547.505 .0646439
548.308 .0641042
549.110 .0635763
549.912 .0630727
550.713 .0625976
551.514 .0621523
552.314 .0617380
553.114 .0613541
553.913 .0609886
554.711 .0606426
555.509 .0603102
556.306 .0599946
557.103 .0596954
557.900 .0594118
558.695 .0591321
559.491 .0588626
560.285 .0586030
561.080 .0583426
561.873 .0580788
562.667 .0578114
563.459 .0575484
564.252 .0572758
565.043 .0569979
565.835 .0567097
566.625 .0564112
567.416 .0561081
568.205 .0557986
568.995 .0554785
569.783 .0551596
570.572 .0548475
571.360 .0545497
572.147 .0542660
572.934 .0540057
573.720 .0537615
574.506 .0535452
575.292 .0533419
576.077 .0531524
576.862 .0529687
577.646 .0527935
578.429 .0526257
579.213 .0524653
579.996 .0523074
580.778 .0521561
581.560 .0520132
582.341 .0518788
583.123 .0517496
583.903 .0516293
584.684 .0515104
585.463 .0513955
586.243 .0512811
587.022 .0511683
587.800 .0510525
588.578 .0509414
589.356 .0508332
590.134 .0507268
590.911 .0506254
591.687 .0505276
592.463 .0504332
593.239 .0503447
594.014 .0502592
594.789 .0501767
595.564 .0500983
596.338 .0500241
597.112 .0499516
597.885 .0498816
598.658 .0498137
599.431 .0497473
600.203 .0496831
600.975 .0496205
601.747 .0495591
602.518 .0494998
603.289 .0494421
604.059 .0493848
604.829 .0493287
605.599 .0492743
606.369 .0492204
607.138 .0491679
607.906 .0491160
608.675 .0490653
609.443 .0490162
610.210 .0489695
610.977 .0489255
611.744 .0488849
612.511 .0488474
613.277 .0488129
614.043 .0487810
614.809 .0487514
615.574 .0487232
616.339 .0486963
617.104 .0486709
617.868 .0486461
618.632 .0486218
619.395 .0485987
620.159 .0485763
620.922 .0485558
621.684 .0485362
622.447 .0485163
623.209 .0484962
623.970 .0484761
624.732 .0484546
625.493 .0484314
626.254 .0484068
627.014 .0483804
627.774 .0483529
628.534 .0483240
629.294 .0482937
630.053 .0482618
630.812 .0482302
631.571 .0481972
632.329 .0481627
633.087 .0481283
633.845 .0480923
634.602 .0480551
635.359 .0480171
636.116 .0479772
636.873 .0479353
637.629 .0478919
638.385 .0478473
639.141 .0477997
639.897 .0477512
640.652 .0477010
641.407 .0476498
642.161 .0475985
642.916 .0475461
643.670 .0474926
644.424 .0474387
645.177 .0473844
645.931 .0473282
646.684 .0472708
647.436 .0472131
648.189 .0471546
648.941 .0470965
649.693 .0470399
650.445 .0469851
651.196 .0469326
651.947 .0468830
652.698 .0468352
653.449 .0467899
654.199 .0467464
654.949 .0467045
655.699 .0466643
656.449 .0466250
657.198 .0465872
657.947 .0465498
658.696 .0465136
659.445 .0464789
660.193 .0464445
660.941 .0464109
661.689 .0463780
662.436 .0463456
663.184 .0463134
663.931 .0462814
664.678 .0462503
665.424 .0462196
666.171 .0461886
666.917 .0461577
667.663 .0461258
668.408 .0460935
669.154 .0460603
669.899 .0460260
670.644 .0459913
671.388 .0459561
672.133 .0459200
672.877 .0458843
673.621 .0458489
674.365 .0458141
675.108 .0457792
675.851 .0457443
676.594 .0457084
677.337 .0456715
678.080 .0456330
678.822 .0455939
679.564 .0455544
680.306 .0455150
681.047 .0454755
681.789 .0454372
682.530 .0453997
683.271 .0453630
684.012 .0453272
684.752 .0452922
685.492 .0452570
686.232 .0452217
686.972 .0451860
687.712 .0451499
688.451 .0451137
689.190 .0450770
689.929 .0450399
690.667 .0450026
691.406 .0449646
692.144 .0449264
692.882 .0448882
693.620 .0448508
694.357 .0448143
695.095 .0447788
695.832 .0447451
696.569 .0447127
697.305 .0446813
698.042 .0446503
698.778 .0446196
699.514 .0445882
700.249 .0445556
700.985 .0445218
701.720 .0444878
702.455 .0444532
703.190 .0444193
703.925 .0443856
704.659 .0443524
705.393 .0443199
706.127 .0442876
706.861 .0442545
707.595 .0442214
708.328 .0441879
709.061 .0441536
709.794 .0441194
710.527 .0440860
711.259 .0440535
711.991 .0440230
712.723 .0439946
713.455 .0439680
714.186 .0439428
714.918 .0439191
715.649 .0438954
716.380 .0438718
717.110 .0438482
717.841 .0438242
718.571 .0438002
719.301 .0437765
720.031 .0437529
720.760 .0437287
721.490 .0437041
722.219 .0436783
722.948 .0436509
723.676 .0436211
724.405 .0435889
725.133 .0435548
725.861 .0435187
726.589 .0434814
727.317 .0434438
728.044 .0434061
728.771 .0433686
729.498 .0433313
730.225 .0432947
730.951 .0432581
731.677 .0432222
732.403 .0431865
733.129 .0431512
733.855 .0431166
734.580 .0430826
735.305 .0430489
736.030 .0430162
736.755 .0429839
737.479 .0429522
738.203 .0429213
738.927 .0428913
739.651 .0428618
740.375 .0428326
741.098 .0428040
741.821 .0427754
742.544 .0427466
743.267 .0427171
743.989 .0426868
744.711 .0426560
745.433 .0426244
746.155 .0425922
746.877 .0425601
747.598 .0425288
748.319 .0424985
749.040 .0424689
749.760 .0424404
750.481 .0424122
751.201 .0423850
751.921 .0423578
752.640 .0423306
753.360 .0423037
754.079 .0422766
754.798 .0422492
755.517 .0422215
756.235 .0421933
756.953 .0421652
757.671 .0421375
758.389 .0421106
759.107 .0420841
759.824 .0420586
760.541 .0420338
761.258 .0420099
761.974 .0419868
762.691 .0419643
763.407 .0419423
764.123 .0419207
764.838 .0418995
765.554 .0418786
766.269 .0418585
766.984 .0418392
767.699 .0418208
768.413 .0418028
769.127 .0417849
769.841 .0417666
770.555 .0417477
771.268 .0417275
771.982 .0417057
772.694 .0416820
773.407 .0416567
774.120 .0416295
774.832 .0416009
775.544 .0415710
776.256 .0415408
776.967 .0415106
777.678 .0414810
778.389 .0414514
779.100 .0414223
779.810 .0413936
780.521 .0413655
781.231 .0413378
781.940 .0413108
782.650 .0412841
783.359 .0412585
784.068 .0412338
784.776 .0412099
785.485 .0411865
786.193 .0411636
786.901 .0411409
787.609 .0411173
788.316 .0410929
789.023 .0410673
789.730 .0410406
790.436 .0410134
791.143 .0409851
791.849 .0409562
792.555 .0409268
793.260 .0408968
793.965 .0408659
794.670 .0408342
795.375 .0408015
796.080 .0407684
796.784 .0407348
797.488 .0407014
798.191 .0406684
798.895 .0406361
799.598 .0406051
800.301 .0405753
801.003 .0405466
801.705 .0405184
802.408 .0404905
803.109 .0404633
803.811 .0404364
804.512 .0404100
805.213 .0403842
805.913 .0403594
806.614 .0403358
807.314 .0403134
808.014 .0402920
808.713 .0402718
809.412 .0402522
810.111 .0402331
810.810 .0402141
811.508 .0401947
812.206 .0401753
812.904 .0401553
813.602 .0401346
814.299 .0401136
814.996 .0400918
815.692 .0400696
816.389 .0400472
817.085 .0400246
817.781 .0400016
818.476 .0399783
819.171 .0399553
819.866 .0399320
820.561 .0399084
821.255 .0398848
821.949 .0398607
822.643 .0398365
823.336 .0398122
824.029 .0397876
824.722 .0397632
825.415 .0397396
826.107 .0397165
826.799 .0396943
827.490 .0396731
828.182 .0396526
828.873 .0396325
829.563 .0396129
830.254 .0395937
830.944 .0395747
831.634 .0395564
832.323 .0395390
833.012 .0395226
833.701 .0395079
834.390 .0394946
835.078 .0394824
835.766 .0394713
836.453 .0394610
837.141 .0394507
837.828 .0394405
838.514 .0394304
839.201 .0394199
839.887 .0394097
840.572 .0393995
841.258 .0393895
841.943 .0393796
842.628 .0393697
843.312 .0393588
843.996 .0393475
844.680 .0393355
845.363 .0393221
846.046 .0393076
846.729 .0392918
847.412 .0392750
848.094 .0392573
848.776 .0392386
849.457 .0392189
850.139 .0391984
850.819 .0391769
851.500 .0391545
852.180 .0391313
852.860 .0391075
853.540 .0390835
854.219 .0390597
854.898 .0390363
855.576 .0390135
856.254 .0389912
856.932 .0389701
857.610 .0389501
858.287 .0389313
858.964 .0389129
859.640 .0388956
860.317 .0388795
860.993 .0388640
861.668 .0388483
862.343 .0388327
863.018 .0388168
863.693 .0388001
864.367 .0387818
865.041 .0387615
865.714 .0387395
866.387 .0387157
867.060 .0386896
867.732 .0386619
868.404 .0386326
869.076 .0386027
869.748 .0385719
870.419 .0385406
871.089 .0385086
871.760 .0384756
872.430 .0384421
873.099 .0384078
873.769 .0383727
874.438 .0383373
875.106 .0383017
875.774 .0382672
876.442 .0382341
877.110 .0382033
877.777 .0381751
878.444 .0381499
879.110 .0381269
879.776 .0381052
880.442 .0380845
881.108 .0380651
881.773 .0380462
882.437 .0380280
883.102 .0380106
883.766 .0379947
884.429 .0379807
885.093 .0379687
885.755 .0379582
886.418 .0379485
887.080 .0379385
887.742 .0379274
888.403 .0379140
889.064 .0378986
889.725 .0378809
890.385 .0378615
891.045 .0378408
891.705 .0378191
892.364 .0377966
893.023 .0377741
893.682 .0377519
894.340 .0377294
894.998 .0377065
895.655 .0376834
896.312 .0376603
896.969 .0376380
897.625 .0376172
898.281 .0375981
898.937 .0375818
899.592 .0375681
900.247 .0375568
900.901 .0375471
901.555 .0375391
902.209 .0375314
902.862 .0375235
903.515 .0375151
904.168 .0375062
904.820 .0374967
905.472 .0374879
906.123 .0374795
906.774 .0374726
907.425 .0374674
908.076 .0374632
908.726 .0374594
909.375 .0374562
910.024 .0374525
910.673 .0374477
911.322 .0374415
911.970 .0374344
912.618 .0374261
913.265 .0374176
913.912 .0374087
914.558 .0373994
915.205 .0373906
915.850 .0373813
916.496 .0373707
917.141 .0373592
917.786 .0373455
918.430 .0373295
919.074 .0373114
919.718 .0372917
920.361 .0372706
921.004 .0372489
921.646 .0372270
922.288 .0372053
922.930 .0371839
923.571 .0371627
924.212 .0371409
924.853 .0371191
925.493 .0370969
926.133 .0370736
926.772 .0370503
927.411 .0370271
928.050 .0370040
928.688 .0369811
929.326 .0369584
929.963 .0369357
930.600 .0369127
931.237 .0368891
931.874 .0368646
932.510 .0368393
933.145 .0368136
933.780 .0367873
934.415 .0367614
935.050 .0367368
935.684 .0367136
936.318 .0366918
936.951 .0366714
937.584 .0366521
938.217 .0366335
938.849 .0366149
939.481 .0365959
940.112 .0365763
940.743 .0365564
941.374 .0365364
942.004 .0365166
942.634 .0364972
943.264 .0364785
943.893 .0364599
944.522 .0364411
945.150 .0364216
945.778 .0364015
946.406 .0363800
947.033 .0363578
947.660 .0363349
948.287 .0363114
948.913 .0362875
949.539 .0362630
950.165 .0362381
950.790 .0362128
951.414 .0361869
952.039 .0361601
952.663 .0361323
953.286 .0361041
953.910 .0360750
954.533 .0360460
955.155 .0360169
955.777 .0359880
956.399 .0359592
957.020 .0359312
957.641 .0359041
958.262 .0358778
958.882 .0358522
959.502 .0358270
960.122 .0358030
960.741 .0357799
961.360 .0357574
961.979 .0357358
962.597 .0357153
963.214 .0356954
963.832 .0356757
964.449 .0356563
965.066 .0356362
965.682 .0356161
966.298 .0355958
966.914 .0355749
967.529 .0355533
968.144 .0355311
968.758 .0355085
969.373 .0354853
969.986 .0354618
970.600 .0354380
971.213 .0354139
971.826 .0353906
972.438 .0353672
973.050 .0353441
973.662 .0353214
974.274 .0352987
974.885 .0352755
975.495 .0352517
976.106 .0352274
976.716 .0352030
977.325 .0351785
977.935 .0351549
978.544 .0351321
979.152 .0351105
979.761 .0350895
980.369 .0350688
980.976 .0350486
981.584 .0350286
982.191 .0350083
982.797 .0349885
983.404 .0349697
984.010 .0349522
984.615 .0349365
985.221 .0349225
985.826 .0349102
986.430 .0348986
987.035 .0348876
987.639 .0348769
988.243 .0348661
988.846 .0348556
989.449 .0348452
990.052 .0348355
990.654 .0348266
991.256 .0348180
991.858 .0348098
992.460 .0348018
993.061 .0347943
993.662 .0347865
994.262 .0347790
994.863 .0347717
995.463 .0347656
996.062 .0347607
996.662 .0347572
997.261 .0347550
997.860 .0347539
998.458 .0347537
999.056 .0347539
999.654 .0347545
1000.252 .0347561
1000.849 .0347583
1001.446 .0347617
1002.043 .0347661
1002.639 .0347721
1003.235 .0347792
1003.831 .0347876
1004.427 .0347969
1005.022 .0348070
1005.617 .0348178
1006.212 .0348290
1006.806 .0348404
1007.401 .0348516
1007.995 .0348623
1008.588 .0348723
1009.182 .0348810
1009.775 .0348884
1010.368 .0348941
1010.960 .0348982
1011.553 .0349012
1012.145 .0349034
1012.737 .0349050
1013.328 .0349063
1013.920 .0349083
1014.511 .0349106
1015.102 .0349136
1015.692 .0349175
1016.283 .0349220
1016.873 .0349270
1017.463 .0349320
1018.052 .0349364
1018.642 .0349401
1019.231 .0349431
1019.820 .0349458
1020.409 .0349479
1020.997 .0349506
1021.585 .0349536
1022.173 .0349573
1022.761 .0349609
1023.349 .0349646
1023.936 .0349669
1024.524 .0349672
1025.111 .0349654
1025.697 .0349615
1026.284 .0349564
1026.870 .0349511
1027.457 .0349470
1028.043 .0349449
1028.628 .0349449
1029.214 .0349472
1029.800 .0349507
1030.385 .0349551
1030.970 .0349592
1031.555 .0349619
1032.139 .0349624
1032.724 .0349611
1033.308 .0349578
1033.893 .0349526
1034.477 .0349464
1035.060 .0349392
1035.644 .0349312
1036.228 .0349223
1036.811 .0349131
1037.394 .0349032
1037.977 .0348933
1038.560 .0348832
1039.143 .0348728
1039.726 .0348623
1040.308 .0348522
1040.891 .0348418
1041.473 .0348316
1042.055 .0348222
1042.637 .0348133
1043.219 .0348052
1043.801 .0347986
1044.382 .0347933
1044.964 .0347878
1045.545 .0347818
1046.127 .0347743
1046.708 .0347639
1047.289 .0347512
1047.870 .0347354
1048.451 .0347178
1049.032 .0347000
1049.612 .0346825
1050.193 .0346655
1050.774 .0346496
1051.354 .0346357
1051.935 .0346212
1052.515 .0346071
1053.095 .0345914
1053.675 .0345738
1054.256 .0345552
1054.836 .0345363
1055.416 .0345181
1055.996 .0345019
1056.576 .0344886
1057.156 .0344772
1057.735 .0344679
1058.315 .0344610
1058.895 .0344540
1059.475 .0344475
1060.055 .0344406
1060.634 .0344319
1061.214 .0344208
1061.794 .0344090
1062.373 .0343962
1062.953 .0343846
1063.533 .0343749
1064.113 .0343673
1064.692 .0343625
1065.272 .0343588
1065.852 .0343553
1066.431 .0343502
1067.011 .0343444
1067.591 .0343358
1068.171 .0343239
1068.751 .0343103
1069.331 .0342946
1069.910 .0342789
1070.490 .0342641
1071.071 .0342506
1071.651 .0342393
1072.231 .0342286
1072.811 .0342180
1073.391 .0342064
1073.972 .0341941
1074.552 .0341812
1075.133 .0341677
1075.713 .0341536
1076.294 .0341393
1076.875 .0341245
1077.456 .0341116
1078.037 .0340992
1078.618 .0340876
1079.199 .0340761
1079.780 .0340637
1080.362 .0340522
1080.943 .0340392
1081.525 .0340253
1082.107 .0340131
1082.689 .0340022
1083.271 .0339923
1083.853 .0339823
1084.436 .0339724
1085.018 .0339615
1085.601 .0339489
1086.184 .0339339
1086.767 .0339153
1087.351 .0338928
1087.934 .0338682
1088.518 .0338412
1089.102 .0338149
1089.686 .0337911
1090.270 .0337702
1090.855 .0337554
1091.439 .0337460
1092.024 .0337387
1092.609 .0337329
1093.195 .0337264
1093.780 .0337199
1094.366 .0337102
1094.952 .0336997
1095.539 .0336899
1096.125 .0336844
1096.712 .0336834
1097.299 .0336876
1097.887 .0336960
1098.475 .0337071
1099.063 .0337171
1099.651 .0337239
1100.239 .0337230
1100.828 .0337158
1101.417 .0337013
1102.007 .0336826
1102.597 .0336609
1103.187 .0336417
1103.777 .0336232
1104.368 .0336086
1104.959 .0335984
1105.551 .0335920
1106.143 .0335861
1106.735 .0335828
1107.328 .0335805
1107.921 .0335800
1108.514 .0335819
1109.108 .0335862
1109.702 .0335926
1110.296 .0336040
1110.891 .0336174
1111.486 .0336328
1112.082 .0336478
1112.678 .0336638
1113.275 .0336765
1113.872 .0336869
1114.469 .0336970
1115.067 .0337057
1115.665 .0337130
1116.264 .0337231
1116.864 .0337350
1117.463 .0337493
1118.063 .0337665
1118.664 .0337899
1119.265 .0338179
1119.867 .0338509
1120.469 .0338891
1121.072 .0339301
1121.675 .0339745
1122.279 .0340244
1122.883 .0340761
1123.488 .0341346
1124.093 .0341994
1124.699 .0342714
1125.305 .0343482
1125.912 .0344333
1126.520 .0345209
1127.128 .0346077
1127.737 .0346965
1128.346 .0347819
1128.956 .0348624
1129.567 .0349380
1130.178 .0350080
1130.790 .0350746
1131.402 .0351373
1132.015 .0351989
1132.629 .0352610
1133.243 .0353291
1133.858 .0354051
1134.474 .0354881
1135.090 .0355782
1135.707 .0356752
1136.325 .0357800
1136.943 .0358910
1137.562 .0360064
1138.182 .0361235
1138.802 .0362457
1139.423 .0363773
1140.045 .0365300
1140.668 .0366959
1141.291 .0368770
1141.916 .0370939
1142.540 .0372263
1143.166 .0377075
1143.793 .0377852
1144.420 .0378892
1145.048 .0386127
