BestFit value for E:\RC_data\Compressed_For_Future_Analysis_Lite\test_shlomo\aqueous_test\GoodSpectraLarge_Full\0012_2025-06-24_09-45-30\Interpretation_History\2025-07-21_16-23-34\ResultsGraphs\BestFit\(Run)spectra_09-46-22-291_BestFit.txt
600.203 0.0435879
600.975 0.0435289
601.747 0.0434702
602.518 0.0434118
603.289 0.0433536
604.059 0.0432957
604.829 0.0432381
605.599 0.0431808
606.369 0.0431237
607.138 0.0430671
607.906 0.0430109
608.675 0.0429549
609.443 0.0428994
610.210 0.0428443
610.977 0.0427895
611.744 0.0427352
612.511 0.0426811
613.277 0.0426276
614.043 0.0425743
614.809 0.0425215
615.574 0.0424690
616.339 0.0424168
617.104 0.0423650
617.868 0.0423135
618.632 0.0422623
619.395 0.0422114
620.159 0.0421607
620.922 0.0421102
621.684 0.0420600
622.447 0.0420099
623.209 0.0419599
623.970 0.0419102
624.732 0.0418605
625.493 0.0418108
626.254 0.0417613
627.014 0.0417118
627.774 0.0416623
628.534 0.0416128
629.294 0.0415632
630.053 0.0415137
630.812 0.0414642
631.571 0.0414146
632.329 0.0413649
633.087 0.0413153
633.845 0.0412655
634.602 0.0412158
635.359 0.0411660
636.116 0.0411162
636.873 0.0410664
637.629 0.0410166
638.385 0.0409669
639.141 0.0409171
639.897 0.0408675
640.652 0.0408180
641.407 0.0407685
642.161 0.0407193
642.916 0.0406702
643.670 0.0406213
644.424 0.0405726
645.177 0.0405242
645.931 0.0404760
646.684 0.0404282
647.436 0.0403807
648.189 0.0403335
648.941 0.0402867
649.693 0.0402403
650.445 0.0401942
651.196 0.0401487
651.947 0.0401035
652.698 0.0400587
653.449 0.0400144
654.199 0.0399705
654.949 0.0399271
655.699 0.0398841
656.449 0.0398414
657.198 0.0397993
657.947 0.0397575
658.696 0.0397161
659.445 0.0396750
660.193 0.0396343
660.941 0.0395939
661.689 0.0395538
662.436 0.0395139
663.184 0.0394743
663.931 0.0394349
664.678 0.0393956
665.424 0.0393566
666.171 0.0393175
666.917 0.0392786
667.663 0.0392397
668.408 0.0392009
669.154 0.0391619
669.899 0.0391230
670.644 0.0390840
671.388 0.0390449
672.133 0.0390057
672.877 0.0389663
673.621 0.0389268
674.365 0.0388870
675.108 0.0388472
675.851 0.0388071
676.594 0.0387668
677.337 0.0387262
678.080 0.0386855
678.822 0.0386446
679.564 0.0386035
680.306 0.0385622
681.047 0.0385207
681.789 0.0384790
682.530 0.0384372
683.271 0.0383953
684.012 0.0383533
684.752 0.0383112
685.492 0.0382691
686.232 0.0382270
686.972 0.0381848
687.712 0.0381427
688.451 0.0381008
689.190 0.0380589
689.929 0.0380172
690.667 0.0379757
691.406 0.0379343
692.144 0.0378933
692.882 0.0378525
693.620 0.0378120
694.357 0.0377720
695.095 0.0377322
695.832 0.0376929
696.569 0.0376540
697.305 0.0376155
698.042 0.0375775
698.778 0.0375401
699.514 0.0375031
700.249 0.0374666
700.985 0.0374306
701.720 0.0373952
702.455 0.0373603
703.190 0.0373259
703.925 0.0372920
704.659 0.0372587
705.393 0.0372259
706.127 0.0371935
706.861 0.0371616
707.595 0.0371301
708.328 0.0370990
709.061 0.0370684
709.794 0.0370381
710.527 0.0370082
711.259 0.0369785
711.991 0.0369492
712.723 0.0369200
713.455 0.0368911
714.186 0.0368623
714.918 0.0368336
715.649 0.0368051
716.380 0.0367765
717.110 0.0367480
717.841 0.0367194
718.571 0.0366908
719.301 0.0366621
720.031 0.0366332
720.760 0.0366042
721.490 0.0365749
722.219 0.0365454
722.948 0.0365156
723.676 0.0364856
724.405 0.0364552
725.133 0.0364245
725.861 0.0363935
726.589 0.0363621
727.317 0.0363303
728.044 0.0362981
728.771 0.0362656
729.498 0.0362327
730.225 0.0361994
730.951 0.0361657
731.677 0.0361317
732.403 0.0360972
733.129 0.0360625
733.855 0.0360274
734.580 0.0359920
735.305 0.0359563
736.030 0.0359204
736.755 0.0358843
737.479 0.0358479
738.203 0.0358114
738.927 0.0357748
739.651 0.0357380
740.375 0.0357012
741.098 0.0356644
741.821 0.0356277
742.544 0.0355909
743.267 0.0355543
743.989 0.0355178
744.711 0.0354815
745.433 0.0354455
746.155 0.0354096
746.877 0.0353741
747.598 0.0353389
748.319 0.0353041
749.040 0.0352697
749.760 0.0352358
750.481 0.0352023
751.201 0.0351693
751.921 0.0351369
752.640 0.0351050
753.360 0.0350737
754.079 0.0350429
754.798 0.0350128
755.517 0.0349833
756.235 0.0349544
756.953 0.0349262
757.671 0.0348986
758.389 0.0348716
759.107 0.0348452
759.824 0.0348195
760.541 0.0347945
761.258 0.0347700
761.974 0.0347462
762.691 0.0347228
763.407 0.0347001
764.123 0.0346779
764.838 0.0346562
765.554 0.0346350
766.269 0.0346143
766.984 0.0345939
767.699 0.0345740
768.413 0.0345544
769.127 0.0345351
769.841 0.0345160
770.555 0.0344972
771.268 0.0344787
771.982 0.0344602
772.694 0.0344419
773.407 0.0344236
774.120 0.0344053
774.832 0.0343870
775.544 0.0343687
776.256 0.0343502
776.967 0.0343316
777.678 0.0343129
778.389 0.0342939
779.100 0.0342746
779.810 0.0342551
780.521 0.0342352
781.231 0.0342149
781.940 0.0341943
782.650 0.0341732
783.359 0.0341517
784.068 0.0341298
784.776 0.0341073
785.485 0.0340844
786.193 0.0340609
786.901 0.0340369
787.609 0.0340123
788.316 0.0339873
789.023 0.0339616
789.730 0.0339354
790.436 0.0339087
791.143 0.0338814
791.849 0.0338535
792.555 0.0338252
793.260 0.0337963
793.965 0.0337670
794.670 0.0337371
795.375 0.0337068
796.080 0.0336760
796.784 0.0336449
797.488 0.0336134
798.191 0.0335815
798.895 0.0335493
799.598 0.0335168
800.301 0.0334841
801.003 0.0334511
801.705 0.0334180
802.408 0.0333847
803.109 0.0333514
803.811 0.0333180
804.512 0.0332846
805.213 0.0332512
805.913 0.0332179
806.614 0.0331846
807.314 0.0331516
808.014 0.0331187
808.713 0.0330861
809.412 0.0330537
810.111 0.0330217
810.810 0.0329900
811.508 0.0329587
812.206 0.0329279
812.904 0.0328974
813.602 0.0328675
814.299 0.0328382
814.996 0.0328093
815.692 0.0327811
816.389 0.0327535
817.085 0.0327265
817.781 0.0327002
818.476 0.0326746
819.171 0.0326496
819.866 0.0326254
820.561 0.0326018
821.255 0.0325790
821.949 0.0325569
822.643 0.0325356
823.336 0.0325150
824.029 0.0324952
824.722 0.0324761
825.415 0.0324577
826.107 0.0324400
826.799 0.0324231
827.490 0.0324068
828.182 0.0323912
828.873 0.0323763
829.563 0.0323621
830.254 0.0323484
830.944 0.0323354
831.634 0.0323229
832.323 0.0323110
833.012 0.0322995
833.701 0.0322886
834.390 0.0322781
835.078 0.0322680
835.766 0.0322583
836.453 0.0322489
837.141 0.0322399
837.828 0.0322311
838.514 0.0322225
839.201 0.0322141
839.887 0.0322059
840.572 0.0321977
841.258 0.0321896
841.943 0.0321816
842.628 0.0321735
843.312 0.0321654
843.996 0.0321571
844.680 0.0321488
845.363 0.0321402
846.046 0.0321314
846.729 0.0321224
847.412 0.0321131
848.094 0.0321035
848.776 0.0320935
849.457 0.0320831
850.139 0.0320723
850.819 0.0320610
851.500 0.0320493
852.180 0.0320370
852.860 0.0320243
853.540 0.0320109
854.219 0.0319970
854.898 0.0319825
855.576 0.0319674
856.254 0.0319517
856.932 0.0319354
857.610 0.0319183
858.287 0.0319007
858.964 0.0318824
859.640 0.0318634
860.317 0.0318437
860.993 0.0318234
861.668 0.0318024
862.343 0.0317808
863.018 0.0317585
863.693 0.0317356
864.367 0.0317120
865.041 0.0316878
865.714 0.0316630
866.387 0.0316377
867.060 0.0316117
867.732 0.0315852
868.404 0.0315582
869.076 0.0315307
869.748 0.0315026
870.419 0.0314742
871.089 0.0314453
871.760 0.0314160
872.430 0.0313864
873.099 0.0313564
873.769 0.0313261
874.438 0.0312955
875.106 0.0312648
875.774 0.0312338
876.442 0.0312027
877.110 0.0311714
877.777 0.0311400
878.444 0.0311086
879.110 0.0310772
879.776 0.0310458
880.442 0.0310144
881.108 0.0309832
881.773 0.0309521
882.437 0.0309211
883.102 0.0308904
883.766 0.0308599
884.429 0.0308297
885.093 0.0307997
885.755 0.0307702
886.418 0.0307410
887.080 0.0307122
887.742 0.0306839
888.403 0.0306561
889.064 0.0306287
889.725 0.0306019
890.385 0.0305756
891.045 0.0305499
891.705 0.0305248
892.364 0.0305004
893.023 0.0304766
893.682 0.0304534
894.340 0.0304310
894.998 0.0304092
895.655 0.0303882
896.312 0.0303679
896.969 0.0303483
897.625 0.0303295
898.281 0.0303114
898.937 0.0302941
899.592 0.0302776
900.247 0.0302618
900.901 0.0302469
901.555 0.0302326
902.209 0.0302192
902.862 0.0302065
903.515 0.0301946
904.168 0.0301834
904.820 0.0301730
905.472 0.0301633
906.123 0.0301543
906.774 0.0301460
907.425 0.0301384
908.076 0.0301315
908.726 0.0301252
909.375 0.0301196
910.024 0.0301146
910.673 0.0301102
911.322 0.0301064
911.970 0.0301031
912.618 0.0301003
913.265 0.0300980
913.912 0.0300962
914.558 0.0300948
915.205 0.0300938
915.850 0.0300933
916.496 0.0300930
917.141 0.0300931
917.786 0.0300935
918.430 0.0300941
919.074 0.0300950
919.718 0.0300960
920.361 0.0300972
921.004 0.0300986
921.646 0.0301000
922.288 0.0301015
922.930 0.0301031
923.571 0.0301046
924.212 0.0301061
924.853 0.0301075
925.493 0.0301088
926.133 0.0301100
926.772 0.0301110
927.411 0.0301119
928.050 0.0301125
928.688 0.0301128
929.326 0.0301129
929.963 0.0301126
930.600 0.0301121
931.237 0.0301111
931.874 0.0301098
932.510 0.0301080
933.145 0.0301058
933.780 0.0301032
934.415 0.0301000
935.050 0.0300964
935.684 0.0300922
936.318 0.0300875
936.951 0.0300822
937.584 0.0300763
938.217 0.0300699
938.849 0.0300628
939.481 0.0300551
940.112 0.0300468
940.743 0.0300378
941.374 0.0300282
942.004 0.0300179
942.634 0.0300070
943.264 0.0299954
943.893 0.0299831
944.522 0.0299701
945.150 0.0299565
945.778 0.0299422
946.406 0.0299271
947.033 0.0299115
947.660 0.0298951
948.287 0.0298781
948.913 0.0298604
949.539 0.0298420
950.165 0.0298230
950.790 0.0298034
951.414 0.0297832
952.039 0.0297623
952.663 0.0297408
953.286 0.0297188
953.910 0.0296961
954.533 0.0296729
955.155 0.0296492
955.777 0.0296250
956.399 0.0296002
957.020 0.0295750
957.641 0.0295493
958.262 0.0295231
958.882 0.0294965
959.502 0.0294696
960.122 0.0294430
960.741 0.0294194
961.360 0.0293954
961.979 0.0293711
962.597 0.0293465
963.214 0.0293217
963.832 0.0292965
964.449 0.0292712
965.066 0.0292457
965.682 0.0292200
966.298 0.0291942
966.914 0.0291683
967.529 0.0291423
968.144 0.0291162
968.758 0.0290901
969.373 0.0290640
969.986 0.0290379
970.600 0.0290119
971.213 0.0289859
971.826 0.0289600
972.438 0.0289343
973.050 0.0289088
973.662 0.0288834
974.274 0.0288581
974.885 0.0288332
975.495 0.0288085
976.106 0.0287841
976.716 0.0287600
977.325 0.0287362
977.935 0.0287127
978.544 0.0286897
979.152 0.0286670
979.761 0.0286448
980.369 0.0286229
980.976 0.0286016
981.584 0.0285807
982.191 0.0285603
982.797 0.0285404
983.404 0.0285210
984.010 0.0285022
984.615 0.0284840
985.221 0.0284663
985.826 0.0284492
986.430 0.0284327
987.035 0.0284168
987.639 0.0284015
988.243 0.0283869
988.846 0.0283729
989.449 0.0283596
990.052 0.0283469
990.654 0.0283349
991.256 0.0283236
991.858 0.0283129
992.460 0.0283030
993.061 0.0282937
993.662 0.0282851
994.262 0.0282772
994.863 0.0282699
995.463 0.0282634
996.062 0.0282575
996.662 0.0282524
997.261 0.0282479
997.860 0.0282441
998.458 0.0282409
999.056 0.0282385
999.654 0.0282367
1000.252 0.0282341
1000.849 0.0282301
1001.446 0.0282268
1002.043 0.0282242
1002.639 0.0282221
1003.235 0.0282207
1003.831 0.0282199
1004.427 0.0282197
1005.022 0.0282201
1005.617 0.0282211
1006.212 0.0282226
1006.806 0.0282246
1007.401 0.0282272
1007.995 0.0282302
1008.588 0.0282338
1009.182 0.0282378
1009.775 0.0282423
1010.368 0.0282472
1010.96 0.0282525
1011.553 0.0282582
1012.145 0.0282643
1012.737 0.0282708
1013.328 0.0282776
1013.92 0.0282847
1014.511 0.0282921
1015.102 0.0282998
1015.692 0.0283077
1016.283 0.0283159
1016.873 0.0283243
1017.463 0.0283329
1018.052 0.0283416
1018.642 0.0283505
1019.231 0.0283595
1019.82 0.0283686
1020.409 0.0283778
1020.997 0.0283870
1021.585 0.0283962
1022.173 0.0284055
1022.761 0.0284148
1023.349 0.0284240
1023.936 0.0284332
1024.524 0.0284423
1025.111 0.0284513
1025.697 0.0284601
1026.284 0.0284689
1026.87 0.0284774
1027.457 0.0284858
1028.043 0.0284940
1028.628 0.0285020
1029.214 0.0285097
1029.80 0.0285172
1030.385 0.0285243
1030.97 0.0285312
1031.555 0.0285377
1032.139 0.0285439
1032.724 0.0285498
1033.308 0.0285553
1033.893 0.0285604
1034.477 0.0285651
1035.06 0.0285693
1035.644 0.0285731
1036.228 0.0285765
1036.811 0.0285794
1037.394 0.0285819
1037.977 0.0285838
1038.56 0.0285852
1039.143 0.0285862
1039.726 0.0285865
1040.308 0.0285864
1040.891 0.0285857
1041.473 0.0285844
1042.055 0.0285826
1042.637 0.0285802
1043.219 0.0285772
1043.801 0.0285737
1044.382 0.0285695
1044.964 0.0285647
1045.545 0.0285593
1046.127 0.0285533
1046.708 0.0285467
1047.289 0.0285395
1047.87 0.0285316
1048.451 0.0285231
1049.032 0.0285140
1049.612 0.0285043
1050.193 0.0284939
1050.774 0.0284829
1051.354 0.0284712
1051.935 0.0284590
1052.515 0.0284461
1053.095 0.0284326
1053.675 0.0284185
1054.256 0.0284037
1054.836 0.0283884
1055.416 0.0283724
1055.996 0.0283558
1056.576 0.0283387
1057.156 0.0283210
1057.735 0.0283027
1058.315 0.0282838
1058.895 0.0282644
1059.475 0.0282444
1060.055 0.0282238
1060.634 0.0282028
1061.214 0.0281812
1061.794 0.0281591
1062.373 0.0281365
1062.953 0.0281134
1063.533 0.0280898
1064.113 0.0280658
1064.692 0.0280413
1065.272 0.0280164
1065.852 0.0279910
1066.431 0.0279653
1067.011 0.0279392
1067.591 0.0279126
1068.171 0.0278857
1068.751 0.0278585
1069.331 0.0278309
1069.91 0.0278031
1070.49 0.0277749
1071.071 0.0277464
1071.651 0.0277177
1072.231 0.0276888
1072.811 0.0276596
1073.391 0.0276302
1073.972 0.0276006
1074.552 0.0275708
1075.133 0.0275409
1075.713 0.0275108
1076.294 0.0274806
1076.875 0.0274504
1077.456 0.0274200
1078.037 0.0273895
1078.618 0.0273591
1079.199 0.0273286
1079.78 0.0272981
1080.362 0.0272676
1080.943 0.0272371
1081.525 0.0272067
1082.107 0.0271764
1082.689 0.0271461
1083.271 0.0271160
1083.853 0.0270860
1084.436 0.0270560
1085.018 0.0270264
1085.601 0.0269968
1086.184 0.0269675
1086.767 0.0269384
1087.351 0.0269094
1087.934 0.0268808
1088.518 0.0268525
1089.102 0.0268244
1089.686 0.0267966
1090.27 0.0267692
1090.855 0.0267421
1091.439 0.0267153
1092.024 0.0266890
1092.609 0.0266630
1093.195 0.0266373
1093.78 0.0266122
1094.366 0.0265874
1094.952 0.0265632
1095.539 0.0265393
1096.125 0.0265160
1096.712 0.0264931
1097.299 0.0264707
1097.887 0.0264488
1098.475 0.0264275
1099.063 0.0264067
1099.651 0.0263864
1100.239 0.0263668
1100.828 0.0263476
1101.417 0.0263291
1102.007 0.0263111
1102.597 0.0262938
1103.187 0.0262770
1103.777 0.0262609
1104.368 0.0262454
1104.959 0.0262305
1105.551 0.0262163
1106.143 0.0262027
1106.735 0.0261897
1107.328 0.0261775
1107.921 0.0261658
1108.514 0.0261549
1109.108 0.0261446
1109.702 0.0261349
1110.296 0.0261260
1110.891 0.0261177
1111.486 0.0261101
1112.082 0.0261032
1112.678 0.0260969
1113.275 0.0260914
1113.872 0.0260865
1114.469 0.0260822
1115.067 0.0260787
1115.665 0.0260758
1116.264 0.0260736
1116.864 0.0260721
1117.463 0.0260712
1118.063 0.0260710
1118.664 0.0260715
1119.265 0.0260726
1119.867 0.0260743
1120.469 0.0260767
1121.072 0.0260797
1121.675 0.0260833
1122.279 0.0260876
1122.883 0.0260924
1123.488 0.0260978
1124.093 0.0261039
1124.699 0.0261105
1125.305 0.0261176
1125.912 0.0261254
1126.52 0.0261336
1127.128 0.0261424
1127.737 0.0261518
1128.346 0.0261616
1128.956 0.0261719
1129.567 0.0261827
1130.178 0.0261940
1130.79 0.0262058
1131.402 0.0262179
1132.015 0.0262305
1132.629 0.0262435
1133.243 0.0262569
1133.858 0.0262707
1134.474 0.0262848
1135.09 0.0262992
1135.707 0.0263140
1136.325 0.0263291
1136.943 0.0263445
1137.562 0.0263602
1138.182 0.0263761
1138.802 0.0263922
1139.423 0.0264086
1140.045 0.0264251
1140.668 0.0264418
1141.291 0.0264587
1141.916 0.0264757
1142.54 0.0264928
1143.166 0.0265101
1143.793 0.0265274
1144.42 0.0265447
1145.048 0.0265621
