Measurement Sequence started on: 14-45-04-498
Integration time: 36
Scans to Average: 2 
>>>>>Begin Spectral Data<<<<<
433.946 .0735648
434.870 .0601698
435.793 .0580928
436.715 .0565970
437.635 .0560230
438.555 .0564774
439.473 .0554576
440.389 .0549991
441.305 .0546267
442.219 .0542828
443.132 .0539422
444.044 .0535947
444.954 .0532364
445.863 .0528795
446.771 .0525419
447.678 .0522525
448.584 .0520250
449.488 .0518242
450.391 .0516500
451.293 .0514975
452.194 .0513368
453.094 .0511526
453.992 .0509616
454.890 .0507604
455.786 .0505587
456.681 .0503740
457.575 .0502223
458.468 .0500952
459.360 .0500043
460.250 .0499417
461.140 .0498834
462.028 .0498227
462.915 .0497392
463.801 .0496288
464.687 .0495011
465.571 .0493655
466.454 .0492229
467.335 .0490881
468.216 .0489670
469.096 .0488596
469.975 .0487622
470.853 .0486779
471.729 .0485926
472.605 .0485049
473.479 .0484154
474.353 .0483173
475.226 .0482136
476.097 .0481188
476.968 .0480286
477.838 .0479488
478.706 .0478808
479.574 .0478225
480.441 .0477731
481.306 .0477346
482.171 .0477033
483.035 .0476756
483.898 .0476543
484.760 .0476357
485.621 .0476134
486.481 .0475901
487.340 .0475623
488.198 .0475259
489.055 .0474881
489.912 .0474458
490.767 .0474031
491.622 .0473656
492.476 .0473335
493.329 .0473032
494.180 .0472762
495.032 .0472434
495.882 .0471989
496.731 .0471420
497.580 .0470773
498.427 .0469977
499.274 .0469117
500.120 .0468274
500.965 .0467466
501.809 .0466748
502.653 .0466082
503.495 .0465430
504.337 .0464829
505.178 .0464188
506.018 .0463473
506.858 .0462665
507.696 .0461879
508.534 .0461068
509.371 .0460243
510.208 .0459515
511.043 .0458852
511.878 .0458279
512.712 .0457792
513.545 .0457411
514.377 .0457129
515.209 .0456953
516.040 .0456904
516.870 .0456960
517.699 .0457101
518.528 .0457226
519.356 .0457281
520.183 .0457254
521.010 .0457164
521.836 .0456932
522.661 .0456630
523.485 .0456327
524.309 .0456032
525.132 .0455797
525.954 .0455552
526.776 .0455355
527.597 .0455154
528.417 .0454835
529.237 .0454453
530.056 .0453955
530.874 .0453465
531.692 .0453074
532.508 .0452833
533.325 .0452788
534.140 .0452851
534.955 .0453067
535.770 .0453346
536.583 .0453640
537.397 .0453942
538.209 .0454199
539.021 .0454383
539.832 .0454481
540.643 .0454455
541.453 .0454337
542.262 .0454048
543.071 .0453609
543.879 .0453018
544.687 .0452248
545.494 .0451325
546.300 .0450292
547.106 .0449174
547.911 .0448130
548.716 .0447155
549.520 .0446211
550.323 .0445341
551.126 .0444561
551.929 .0443827
552.731 .0443060
553.532 .0442302
554.332 .0441594
555.133 .0440929
555.932 .0440364
556.731 .0439954
557.530 .0439671
558.328 .0439591
559.125 .0439639
559.922 .0439762
560.719 .0439884
561.515 .0439918
562.310 .0439769
563.105 .0439499
563.899 .0439108
564.693 .0438610
565.487 .0438002
566.280 .0437423
567.072 .0436856
567.864 .0436291
568.655 .0435693
569.446 .0435085
570.236 .0434382
571.026 .0433595
571.816 .0432645
572.605 .0431604
573.393 .0430512
574.181 .0429476
574.969 .0428513
575.756 .0427695
576.543 .0427057
577.329 .0426581
578.115 .0426198
578.900 .0425907
579.685 .0425610
580.469 .0425291
581.253 .0424952
582.036 .0424602
582.820 .0424259
583.602 .0423989
584.384 .0423770
585.166 .0423631
585.947 .0423543
586.728 .0423487
587.509 .0423403
588.289 .0423301
589.069 .0423168
589.848 .0422992
590.627 .0422804
591.405 .0422610
592.183 .0422431
592.961 .0422287
593.738 .0422158
594.515 .0422022
595.291 .0421874
596.067 .0421708
596.843 .0421483
597.618 .0421232
598.393 .0420970
599.167 .0420719
599.941 .0420484
600.715 .0420281
601.488 .0420102
602.261 .0419944
603.034 .0419799
603.806 .0419643
604.578 .0419475
605.349 .0419295
606.121 .0419107
606.891 .0418930
607.662 .0418774
608.432 .0418651
609.201 .0418564
609.971 .0418514
610.740 .0418485
611.508 .0418464
612.277 .0418435
613.045 .0418399
613.812 .0418352
614.579 .0418286
615.346 .0418209
616.113 .0418135
616.879 .0418078
617.645 .0418038
618.411 .0418020
619.176 .0418017
619.941 .0418018
620.705 .0418026
621.470 .0418022
622.233 .0417986
622.997 .0417936
623.760 .0417862
624.523 .0417758
625.286 .0417632
626.048 .0417489
626.810 .0417325
627.572 .0417159
628.333 .0416983
629.095 .0416790
629.855 .0416582
630.616 .0416383
631.376 .0416179
632.136 .0415982
632.895 .0415796
633.655 .0415609
634.414 .0415432
635.172 .0415271
635.931 .0415104
636.689 .0414944
637.447 .0414791
638.204 .0414636
638.962 .0414476
639.718 .0414323
640.475 .0414179
641.231 .0414046
641.988 .0413927
642.743 .0413818
643.499 .0413703
644.254 .0413580
645.009 .0413438
645.764 .0413274
646.518 .0413103
647.272 .0412908
648.026 .0412707
648.780 .0412511
649.533 .0412324
650.286 .0412154
651.039 .0412002
651.792 .0411864
652.544 .0411735
653.296 .0411606
654.048 .0411471
654.799 .0411332
655.550 .0411190
656.301 .0411052
657.052 .0410921
657.802 .0410800
658.552 .0410689
659.302 .0410577
660.052 .0410471
660.801 .0410357
661.550 .0410230
662.299 .0410093
663.048 .0409943
663.796 .0409797
664.544 .0409654
665.292 .0409523
666.040 .0409406
666.787 .0409304
667.534 .0409204
668.281 .0409098
669.028 .0408976
669.774 .0408829
670.521 .0408658
671.266 .0408464
672.012 .0408253
672.758 .0408043
673.503 .0407848
674.248 .0407676
674.992 .0407509
675.737 .0407361
676.481 .0407216
677.225 .0407065
677.969 .0406897
678.712 .0406701
679.455 .0406479
680.199 .0406237
680.941 .0405975
681.684 .0405705
682.426 .0405438
683.168 .0405184
683.910 .0404937
684.652 .0404699
685.393 .0404471
686.134 .0404238
686.875 .0404004
687.616 .0403779
688.356 .0403558
689.097 .0403347
689.837 .0403155
690.576 .0402987
691.316 .0402847
692.055 .0402732
692.794 .0402632
693.533 .0402541
694.272 .0402455
695.010 .0402361
695.748 .0402254
696.486 .0402150
697.224 .0402053
697.962 .0401961
698.699 .0401887
699.436 .0401823
700.173 .0401764
700.909 .0401703
701.646 .0401623
702.382 .0401522
703.118 .0401391
703.853 .0401231
704.589 .0401042
705.324 .0400844
706.059 .0400650
706.794 .0400455
707.529 .0400277
708.263 .0400109
708.997 .0399948
709.731 .0399781
710.465 .0399597
711.198 .0399393
711.931 .0399167
712.664 .0398926
713.397 .0398669
714.130 .0398403
714.862 .0398141
715.594 .0397886
716.326 .0397644
717.058 .0397419
717.789 .0397210
718.520 .0397005
719.251 .0396814
719.982 .0396622
720.713 .0396427
721.443 .0396223
722.173 .0396020
722.903 .0395812
723.633 .0395595
724.362 .0395379
725.091 .0395162
725.820 .0394950
726.549 .0394756
727.278 .0394566
728.006 .0394387
728.734 .0394214
729.462 .0394047
730.190 .0393878
730.917 .0393711
731.644 .0393551
732.371 .0393400
733.098 .0393265
733.825 .0393141
734.551 .0393031
735.277 .0392933
736.003 .0392845
736.728 .0392757
737.454 .0392673
738.179 .0392584
738.904 .0392492
739.629 .0392401
740.353 .0392312
741.077 .0392228
741.801 .0392151
742.525 .0392075
743.249 .0392010
743.972 .0391935
744.695 .0391856
745.418 .0391766
746.141 .0391677
746.863 .0391580
747.585 .0391483
748.307 .0391386
749.029 .0391294
749.750 .0391197
750.472 .0391103
751.193 .0391002
751.913 .0390902
752.634 .0390792
753.354 .0390669
754.074 .0390531
754.794 .0390389
755.514 .0390227
756.233 .0390056
756.952 .0389878
757.671 .0389702
758.390 .0389520
759.108 .0389341
759.826 .0389169
760.544 .0389004
761.262 .0388846
761.979 .0388693
762.697 .0388537
763.414 .0388384
764.130 .0388226
764.847 .0388063
765.563 .0387904
766.279 .0387746
766.995 .0387585
767.710 .0387426
768.426 .0387264
769.141 .0387099
769.855 .0386927
770.570 .0386755
771.284 .0386583
771.998 .0386407
772.712 .0386232
773.426 .0386062
774.139 .0385898
774.852 .0385749
775.565 .0385599
776.277 .0385456
776.990 .0385312
777.702 .0385169
778.414 .0385020
779.125 .0384872
779.836 .0384724
780.547 .0384577
781.258 .0384431
781.969 .0384287
782.679 .0384136
783.389 .0383983
784.099 .0383820
784.808 .0383649
785.517 .0383465
786.226 .0383272
786.935 .0383069
787.643 .0382868
788.352 .0382663
789.060 .0382463
789.767 .0382271
790.475 .0382088
791.182 .0381911
791.889 .0381744
792.595 .0381589
793.301 .0381446
794.008 .0381317
794.713 .0381204
795.419 .0381101
796.124 .0381012
796.829 .0380932
797.534 .0380858
798.238 .0380786
798.942 .0380716
799.646 .0380646
800.350 .0380573
801.053 .0380495
801.756 .0380411
802.459 .0380321
803.162 .0380227
803.864 .0380123
804.566 .0380010
805.267 .0379895
805.969 .0379766
806.670 .0379628
807.371 .0379487
808.071 .0379350
808.772 .0379221
809.472 .0379099
810.171 .0378989
810.871 .0378891
811.570 .0378796
812.269 .0378703
812.967 .0378607
813.666 .0378512
814.364 .0378419
815.061 .0378325
815.759 .0378234
816.456 .0378147
817.153 .0378058
817.849 .0377969
818.545 .0377871
819.241 .0377758
819.937 .0377621
820.632 .0377461
821.327 .0377278
822.022 .0377067
822.717 .0376843
823.411 .0376613
824.105 .0376382
824.798 .0376158
825.491 .0375932
826.184 .0375706
826.877 .0375486
827.569 .0375267
828.261 .0375045
828.953 .0374818
829.645 .0374587
830.336 .0374354
831.027 .0374121
831.717 .0373894
832.407 .0373672
833.097 .0373463
833.787 .0373269
834.476 .0373082
835.165 .0372900
835.854 .0372723
836.542 .0372549
837.230 .0372374
837.918 .0372192
838.605 .0372003
839.292 .0371807
839.979 .0371613
840.665 .0371421
841.352 .0371237
842.037 .0371066
842.723 .0370917
843.408 .0370777
844.093 .0370643
844.777 .0370508
845.462 .0370369
846.145 .0370219
846.829 .0370058
847.512 .0369887
848.195 .0369711
848.878 .0369531
849.560 .0369349
850.242 .0369161
850.923 .0368967
851.605 .0368762
852.286 .0368541
852.966 .0368306
853.646 .0368056
854.326 .0367794
855.006 .0367533
855.685 .0367280
856.364 .0367036
857.043 .0366803
857.721 .0366579
858.399 .0366367
859.077 .0366155
859.754 .0365941
860.431 .0365729
861.107 .0365525
861.784 .0365333
862.459 .0365155
863.135 .0364993
863.810 .0364850
864.485 .0364716
865.160 .0364593
865.834 .0364471
866.508 .0364342
867.181 .0364204
867.854 .0364060
868.527 .0363912
869.199 .0363764
869.872 .0363624
870.543 .0363498
871.215 .0363384
871.886 .0363285
872.557 .0363196
873.227 .0363112
873.897 .0363039
874.567 .0362971
875.236 .0362901
875.905 .0362839
876.573 .0362774
877.242 .0362710
877.909 .0362647
878.577 .0362584
879.244 .0362514
879.911 .0362438
880.577 .0362356
881.243 .0362257
881.909 .0362137
882.575 .0362000
883.240 .0361839
883.904 .0361665
884.569 .0361472
885.232 .0361263
885.896 .0361053
886.559 .0360848
887.222 .0360648
887.885 .0360453
888.547 .0360272
889.208 .0360098
889.870 .0359927
890.531 .0359755
891.192 .0359585
891.852 .0359412
892.512 .0359242
893.171 .0359080
893.830 .0358929
894.489 .0358790
895.148 .0358660
895.806 .0358541
896.464 .0358424
897.121 .0358299
897.778 .0358168
898.434 .0358028
899.091 .0357884
899.747 .0357730
900.402 .0357571
901.057 .0357416
901.712 .0357264
902.366 .0357108
903.020 .0356951
903.674 .0356791
904.327 .0356626
904.980 .0356445
905.633 .0356251
906.285 .0356046
906.936 .0355830
907.588 .0355611
908.239 .0355383
908.889 .0355149
909.540 .0354912
910.190 .0354658
910.839 .0354397
911.488 .0354124
912.137 .0353839
912.785 .0353543
913.433 .0353247
914.081 .0352946
914.728 .0352641
915.375 .0352346
916.021 .0352064
916.668 .0351788
917.313 .0351521
917.959 .0351263
918.604 .0351013
919.248 .0350777
919.892 .0350557
920.536 .0350345
921.180 .0350162
921.823 .0349994
922.465 .0349839
923.108 .0349696
923.750 .0349568
924.391 .0349440
925.032 .0349309
925.673 .0349176
926.313 .0349026
926.953 .0348861
927.593 .0348689
928.232 .0348498
928.871 .0348297
929.510 .0348084
930.148 .0347857
930.786 .0347621
931.423 .0347380
932.060 .0347129
932.697 .0346879
933.333 .0346631
933.969 .0346383
934.604 .0346136
935.239 .0345899
935.874 .0345679
936.508 .0345478
937.142 .0345302
937.776 .0345152
938.409 .0345035
939.042 .0344951
939.674 .0344885
940.306 .0344844
940.938 .0344821
941.569 .0344808
942.200 .0344801
942.830 .0344793
943.460 .0344785
944.090 .0344776
944.720 .0344765
945.349 .0344749
945.977 .0344723
946.606 .0344691
947.233 .0344645
947.861 .0344580
948.488 .0344498
949.115 .0344397
949.741 .0344276
950.367 .0344145
950.993 .0343999
951.618 .0343839
952.243 .0343671
952.868 .0343497
953.492 .0343314
954.115 .0343125
954.739 .0342928
955.362 .0342724
955.984 .0342524
956.607 .0342328
957.229 .0342128
957.850 .0341937
958.471 .0341753
959.092 .0341571
959.713 .0341388
960.333 .0341206
960.952 .0341032
961.572 .0340871
962.191 .0340726
962.809 .0340595
963.428 .0340478
964.045 .0340381
964.663 .0340286
965.280 .0340191
965.897 .0340094
966.513 .0339987
967.129 .0339869
967.745 .0339745
968.361 .0339612
968.976 .0339480
969.590 .0339353
970.205 .0339233
970.818 .0339119
971.432 .0339007
972.045 .0338889
972.658 .0338761
973.271 .0338617
973.883 .0338455
974.495 .0338271
975.106 .0338070
975.717 .0337866
976.328 .0337667
976.938 .0337484
977.548 .0337318
978.158 .0337182
978.768 .0337070
979.377 .0336970
979.985 .0336877
980.594 .0336774
981.202 .0336663
981.809 .0336544
982.417 .0336407
983.024 .0336268
983.631 .0336135
984.237 .0336018
984.843 .0335911
985.449 .0335819
986.054 .0335735
986.659 .0335642
987.264 .0335535
987.868 .0335407
988.472 .0335254
989.076 .0335085
989.679 .0334903
990.282 .0334717
990.885 .0334537
991.487 .0334361
992.090 .0334183
992.691 .0334010
993.293 .0333836
993.894 .0333649
994.495 .0333441
995.095 .0333226
995.696 .0333000
996.296 .0332770
996.895 .0332545
997.494 .0332328
998.093 .0332130
998.692 .0331947
999.291 .0331774
999.889 .0331613
1000.487 .0331458
1001.084 .0331306
1001.681 .0331153
1002.278 .0331004
1002.875 .0330868
1003.471 .0330740
1004.067 .0330632
1004.663 .0330554
1005.258 .0330488
1005.854 .0330439
1006.449 .0330399
1007.043 .0330363
1007.638 .0330326
1008.232 .0330282
1008.826 .0330243
1009.419 .0330207
1010.012 .0330182
1010.605 .0330170
1011.198 .0330168
1011.791 .0330184
1012.383 .0330205
1012.975 .0330219
1013.566 .0330221
1014.158 .0330213
1014.749 .0330180
1015.340 .0330134
1015.931 .0330082
1016.521 .0330021
1017.111 .0329956
1017.701 .0329891
1018.291 .0329836
1018.880 .0329766
1019.470 .0329692
1020.059 .0329613
1020.647 .0329514
1021.236 .0329412
1021.824 .0329297
1022.412 .0329184
1023.000 .0329089
1023.588 .0329024
1024.175 .0328981
1024.762 .0328966
1025.349 .0328978
1025.936 .0329000
1026.523 .0329027
1027.109 .0329059
1027.695 .0329085
1028.281 .0329097
1028.867 .0329110
1029.452 .0329121
1030.038 .0329129
1030.623 .0329150
1031.208 .0329179
1031.792 .0329216
1032.377 .0329254
1032.961 .0329283
1033.546 .0329302
1034.130 .0329317
1034.714 .0329332
1035.297 .0329343
1035.881 .0329358
1036.464 .0329376
1037.047 .0329401
1037.630 .0329434
1038.213 .0329491
1038.796 .0329560
1039.378 .0329642
1039.961 .0329731
1040.543 .0329832
1041.125 .0329927
1041.707 .0330018
1042.289 .0330089
1042.871 .0330142
1043.452 .0330164
1044.034 .0330154
1044.615 .0330106
1045.196 .0330040
1045.777 .0329960
1046.358 .0329877
1046.939 .0329792
1047.520 .0329719
1048.101 .0329649
1048.681 .0329594
1049.262 .0329542
1049.842 .0329498
1050.422 .0329462
1051.002 .0329437
1051.582 .0329421
1052.162 .0329436
1052.742 .0329474
1053.322 .0329540
1053.902 .0329634
1054.482 .0329760
1055.061 .0329908
1055.641 .0330067
1056.220 .0330222
1056.800 .0330366
1057.379 .0330494
1057.958 .0330580
1058.538 .0330633
1059.117 .0330662
1059.696 .0330675
1060.275 .0330671
1060.854 .0330649
1061.433 .0330610
1062.012 .0330556
1062.592 .0330483
1063.171 .0330388
1063.750 .0330283
1064.329 .0330184
1064.908 .0330063
1065.487 .0329945
1066.066 .0329829
1066.645 .0329723
1067.224 .0329607
1067.803 .0329495
1068.382 .0329370
1068.961 .0329243
1069.540 .0329112
1070.119 .0328973
1070.698 .0328838
1071.278 .0328704
1071.857 .0328552
1072.436 .0328378
1073.016 .0328168
1073.595 .0327917
1074.175 .0327607
1074.754 .0327271
1075.334 .0326918
1075.913 .0326575
1076.493 .0326265
1077.073 .0326011
1077.653 .0325822
1078.233 .0325702
1078.813 .0325627
1079.393 .0325576
1079.974 .0325542
1080.554 .0325516
1081.135 .0325501
1081.716 .0325497
1082.296 .0325527
1082.877 .0325614
1083.458 .0325740
1084.040 .0325909
1084.621 .0326093
1085.202 .0326284
1085.784 .0326474
1086.366 .0326625
1086.948 .0326738
1087.530 .0326816
1088.112 .0326867
1088.695 .0326899
1089.277 .0326910
1089.860 .0326910
1090.443 .0326889
1091.026 .0326853
1091.610 .0326800
1092.193 .0326712
1092.777 .0326590
1093.361 .0326430
1093.946 .0326223
1094.530 .0325986
1095.115 .0325693
1095.700 .0325378
1096.285 .0325055
1096.871 .0324736
1097.456 .0324420
1098.042 .0324133
1098.628 .0323870
1099.215 .0323628
1099.802 .0323408
1100.389 .0323218
1100.976 .0323027
1101.564 .0322851
1102.152 .0322664
1102.740 .0322490
1103.329 .0322317
1103.917 .0322168
1104.507 .0322044
1105.096 .0321971
1105.686 .0321931
1106.276 .0321911
1106.867 .0321901
1107.457 .0321929
1108.049 .0321950
1108.640 .0321968
1109.232 .0321993
1109.825 .0322032
1110.417 .0322065
1111.010 .0322115
1111.604 .0322155
1112.198 .0322213
1112.792 .0322249
1113.387 .0322315
1113.982 .0322396
1114.577 .0322512
1115.173 .0322664
1115.769 .0322826
1116.366 .0323034
1116.963 .0323243
1117.561 .0323391
1118.159 .0323474
1118.758 .0323456
1119.357 .0323355
1119.957 .0323131
1120.557 .0322841
1121.157 .0322499
1121.758 .0322175
1122.360 .0321855
1122.962 .0321532
1123.564 .0321214
1124.167 .0320894
1124.771 .0320568
1125.375 .0320221
1125.980 .0319868
1126.585 .0319532
1127.191 .0319284
1127.797 .0319182
1128.404 .0319218
1129.012 .0319433
1129.620 .0319791
1130.229 .0320283
1130.838 .0320893
1131.448 .0321580
1132.058 .0322315
1132.669 .0323149
1133.281 .0324102
1133.894 .0325131
1134.507 .0326257
1135.120 .0327434
1135.735 .0328655
1136.350 .0329911
1136.965 .0331126
1137.582 .0332243
1138.199 .0333269
1138.816 .0334276
1139.435 .0335174
1140.054 .0336046
1140.674 .0336872
1141.294 .0337810
1141.916 .0339026
1142.538 .0338713
1143.160 .0340809
1143.784 .0340628
1144.408 .0345164
1145.033 .0351349
