Measurement Sequence started on: 14-45-04-498
Integration time: 36
Scans to Average: 2 
>>>>>Begin Spectral Data<<<<<
433.946 .0401552
434.870 .0470302
435.793 .0440342
436.715 .0428540
437.635 .0420909
438.555 .0417654
439.473 .0414086
440.389 .0409218
441.305 .0406059
442.219 .0403633
443.132 .0401656
444.044 .0400213
444.954 .0398828
445.863 .0397696
446.771 .0396781
447.678 .0395934
448.584 .0395250
449.488 .0394572
450.391 .0393854
451.293 .0392979
452.194 .0392000
453.094 .0390937
453.992 .0389721
454.890 .0388453
455.786 .0387135
456.681 .0385740
457.575 .0384397
458.468 .0383049
459.360 .0381740
460.250 .0380476
461.140 .0379292
462.028 .0378169
462.915 .0377066
463.801 .0376012
464.687 .0375013
465.571 .0374045
466.454 .0373127
467.335 .0372264
468.216 .0371482
469.096 .0370796
469.975 .0370203
470.853 .0369665
471.729 .0369229
472.605 .0368833
473.479 .0368482
474.353 .0368142
475.226 .0367807
476.097 .0367453
476.968 .0367074
477.838 .0366678
478.706 .0366254
479.574 .0365822
480.441 .0365419
481.306 .0365072
482.171 .0364792
483.035 .0364536
483.898 .0364324
484.760 .0364110
485.621 .0363917
486.481 .0363670
487.340 .0363412
488.198 .0363134
489.055 .0362822
489.912 .0362514
490.767 .0362202
491.622 .0361912
492.476 .0361675
493.329 .0361478
494.180 .0361308
495.032 .0361144
495.882 .0360976
496.731 .0360749
497.580 .0360482
498.427 .0360187
499.274 .0359846
500.120 .0359464
500.965 .0359077
501.809 .0358668
502.653 .0358243
503.495 .0357809
504.337 .0357314
505.178 .0356780
506.018 .0356197
506.858 .0355535
507.696 .0354817
508.534 .0354074
509.371 .0353298
510.208 .0352515
511.043 .0351756
511.878 .0351034
512.712 .0350312
513.545 .0349632
514.377 .0348975
515.209 .0348323
516.040 .0347695
516.870 .0347077
517.699 .0346536
518.528 .0346088
519.356 .0345727
520.183 .0345459
521.010 .0345314
521.836 .0345260
522.661 .0345243
523.485 .0345270
524.309 .0345285
525.132 .0345228
525.954 .0345121
526.776 .0344938
527.597 .0344791
528.417 .0344606
529.237 .0344480
530.056 .0344337
530.874 .0344191
531.692 .0343996
532.508 .0343734
533.325 .0343432
534.140 .0343075
534.955 .0342567
535.770 .0341950
536.583 .0341216
537.397 .0340463
538.209 .0339605
539.021 .0338789
539.832 .0337935
540.643 .0337107
541.453 .0336266
542.262 .0335492
543.071 .0334788
543.879 .0334234
544.687 .0333787
545.494 .0333436
546.300 .0333175
547.106 .0332973
547.911 .0332738
548.716 .0332613
549.520 .0332447
550.323 .0332276
551.126 .0332080
551.929 .0331959
552.731 .0331824
553.532 .0331763
554.332 .0331738
555.133 .0331728
555.932 .0331728
556.731 .0331680
557.530 .0331509
558.328 .0331297
559.125 .0331057
559.922 .0330786
560.719 .0330478
561.515 .0330244
562.310 .0329995
563.105 .0329822
563.899 .0329697
564.693 .0329578
565.487 .0329461
566.280 .0329335
567.072 .0329180
567.864 .0328993
568.655 .0328767
569.446 .0328524
570.236 .0328247
571.026 .0327967
571.816 .0327656
572.605 .0327317
573.393 .0326969
574.181 .0326620
574.969 .0326266
575.756 .0325943
576.543 .0325624
577.329 .0325332
578.115 .0325051
578.900 .0324771
579.685 .0324488
580.469 .0324178
581.253 .0323853
582.036 .0323513
582.820 .0323154
583.602 .0322786
584.384 .0322393
585.166 .0322001
585.947 .0321603
586.728 .0321194
587.509 .0320777
588.289 .0320358
589.069 .0319939
589.848 .0319536
590.627 .0319145
591.405 .0318777
592.183 .0318439
592.961 .0318138
593.738 .0317864
594.515 .0317619
595.291 .0317409
596.067 .0317230
596.843 .0317066
597.618 .0316929
598.393 .0316799
599.167 .0316670
599.941 .0316540
600.715 .0316403
601.488 .0316258
602.261 .0316104
603.034 .0315937
603.806 .0315770
604.578 .0315600
605.349 .0315441
606.121 .0315286
606.891 .0315138
607.662 .0314985
608.432 .0314826
609.201 .0314651
609.971 .0314463
610.740 .0314261
611.508 .0314047
612.277 .0313830
613.045 .0313618
613.812 .0313413
614.579 .0313217
615.346 .0313034
616.113 .0312862
616.879 .0312687
617.645 .0312511
618.411 .0312322
619.176 .0312118
619.941 .0311903
620.705 .0311679
621.470 .0311453
622.233 .0311228
622.997 .0311016
623.760 .0310820
624.523 .0310641
625.286 .0310471
626.048 .0310310
626.810 .0310149
627.572 .0309980
628.333 .0309797
629.095 .0309602
629.855 .0309400
630.616 .0309196
631.376 .0308997
632.136 .0308813
632.895 .0308651
633.655 .0308511
634.414 .0308384
635.172 .0308271
635.931 .0308167
636.689 .0308057
637.447 .0307941
638.204 .0307820
638.962 .0307695
639.718 .0307568
640.475 .0307444
641.231 .0307328
641.988 .0307212
642.743 .0307097
643.499 .0306971
644.254 .0306826
645.009 .0306667
645.764 .0306487
646.518 .0306290
647.272 .0306089
648.026 .0305889
648.780 .0305690
649.533 .0305502
650.286 .0305330
651.039 .0305168
651.792 .0305011
652.544 .0304858
653.296 .0304701
654.048 .0304546
654.799 .0304397
655.550 .0304251
656.301 .0304119
657.052 .0304005
657.802 .0303898
658.552 .0303797
659.302 .0303698
660.052 .0303595
660.801 .0303481
661.550 .0303356
662.299 .0303222
663.048 .0303082
663.796 .0302944
664.544 .0302811
665.292 .0302685
666.040 .0302570
666.787 .0302456
667.534 .0302342
668.281 .0302221
669.028 .0302094
669.774 .0301958
670.521 .0301818
671.266 .0301679
672.012 .0301550
672.758 .0301430
673.503 .0301327
674.248 .0301236
674.992 .0301155
675.737 .0301076
676.481 .0300998
677.225 .0300911
677.969 .0300818
678.712 .0300717
679.455 .0300609
680.199 .0300497
680.941 .0300385
681.684 .0300274
682.426 .0300164
683.168 .0300054
683.910 .0299946
684.652 .0299831
685.393 .0299714
686.134 .0299592
686.875 .0299466
687.616 .0299339
688.356 .0299214
689.097 .0299088
689.837 .0298966
690.576 .0298848
691.316 .0298733
692.055 .0298623
692.794 .0298520
693.533 .0298421
694.272 .0298323
695.010 .0298230
695.748 .0298138
696.486 .0298040
697.224 .0297944
697.962 .0297841
698.699 .0297734
699.436 .0297622
700.173 .0297504
700.909 .0297381
701.646 .0297259
702.382 .0297143
703.118 .0297031
703.853 .0296927
704.589 .0296832
705.324 .0296737
706.059 .0296648
706.794 .0296558
707.529 .0296465
708.263 .0296372
708.997 .0296279
709.731 .0296179
710.465 .0296082
711.198 .0295986
711.931 .0295893
712.664 .0295800
713.397 .0295708
714.130 .0295609
714.862 .0295506
715.594 .0295396
716.326 .0295276
717.058 .0295150
717.789 .0295024
718.520 .0294889
719.251 .0294754
719.982 .0294619
720.713 .0294485
721.443 .0294352
722.173 .0294225
722.903 .0294100
723.633 .0293974
724.362 .0293849
725.091 .0293725
725.820 .0293599
726.549 .0293474
727.278 .0293346
728.006 .0293216
728.734 .0293086
729.462 .0292952
730.190 .0292816
730.917 .0292680
731.644 .0292549
732.371 .0292425
733.098 .0292311
733.825 .0292208
734.551 .0292117
735.277 .0292032
736.003 .0291950
736.728 .0291866
737.454 .0291781
738.179 .0291688
738.904 .0291592
739.629 .0291491
740.353 .0291391
741.077 .0291296
741.801 .0291209
742.525 .0291130
743.249 .0291061
743.972 .0290994
744.695 .0290924
745.418 .0290843
746.141 .0290751
746.863 .0290644
747.585 .0290522
748.307 .0290386
749.029 .0290239
749.750 .0290085
750.472 .0289930
751.193 .0289772
751.913 .0289618
752.634 .0289464
753.354 .0289306
754.074 .0289145
754.794 .0288981
755.514 .0288810
756.233 .0288635
756.952 .0288460
757.671 .0288289
758.390 .0288122
759.108 .0287963
759.826 .0287814
760.544 .0287680
761.262 .0287561
761.979 .0287455
762.697 .0287360
763.414 .0287278
764.130 .0287205
764.847 .0287140
765.563 .0287087
766.279 .0287047
766.995 .0287016
767.710 .0286996
768.426 .0286987
769.141 .0286982
769.855 .0286973
770.570 .0286958
771.284 .0286935
771.998 .0286903
772.712 .0286862
773.426 .0286812
774.139 .0286757
774.852 .0286702
775.565 .0286641
776.277 .0286573
776.990 .0286500
777.702 .0286419
778.414 .0286328
779.125 .0286229
779.836 .0286126
780.547 .0286023
781.258 .0285924
781.969 .0285833
782.679 .0285755
783.389 .0285686
784.099 .0285628
784.808 .0285577
785.517 .0285537
786.226 .0285502
786.935 .0285469
787.643 .0285444
788.352 .0285423
789.060 .0285403
789.767 .0285380
790.475 .0285352
791.182 .0285317
791.889 .0285276
792.595 .0285226
793.301 .0285166
794.008 .0285101
794.713 .0285032
795.419 .0284961
796.124 .0284890
796.829 .0284816
797.534 .0284736
798.238 .0284652
798.942 .0284564
799.646 .0284472
800.350 .0284380
801.053 .0284290
801.756 .0284203
802.459 .0284119
803.162 .0284036
803.864 .0283952
804.566 .0283866
805.267 .0283775
805.969 .0283676
806.670 .0283568
807.371 .0283455
808.071 .0283341
808.772 .0283231
809.472 .0283122
810.171 .0283019
810.871 .0282923
811.570 .0282830
812.269 .0282735
812.967 .0282634
813.666 .0282525
814.364 .0282406
815.061 .0282277
815.759 .0282141
816.456 .0282003
817.153 .0281868
817.849 .0281736
818.545 .0281607
819.241 .0281484
819.937 .0281365
820.632 .0281245
821.327 .0281119
822.022 .0280988
822.717 .0280845
823.411 .0280692
824.105 .0280536
824.798 .0280378
825.491 .0280221
826.184 .0280063
826.877 .0279910
827.569 .0279758
828.261 .0279608
828.953 .0279455
829.645 .0279300
830.336 .0279149
831.027 .0278994
831.717 .0278837
832.407 .0278683
833.097 .0278535
833.787 .0278388
834.476 .0278242
835.165 .0278095
835.854 .0277949
836.542 .0277807
837.230 .0277669
837.918 .0277543
838.605 .0277434
839.292 .0277341
839.979 .0277263
840.665 .0277202
841.352 .0277152
842.037 .0277103
842.723 .0277054
843.408 .0277000
844.093 .0276936
844.777 .0276866
845.462 .0276786
846.145 .0276707
846.829 .0276635
847.512 .0276571
848.195 .0276510
848.878 .0276458
849.560 .0276409
850.242 .0276353
850.923 .0276290
851.605 .0276214
852.286 .0276122
852.966 .0276018
853.646 .0275905
854.326 .0275790
855.006 .0275678
855.685 .0275578
856.364 .0275488
857.043 .0275413
857.721 .0275348
858.399 .0275287
859.077 .0275228
859.754 .0275167
860.431 .0275103
861.107 .0275031
861.784 .0274957
862.459 .0274884
863.135 .0274813
863.810 .0274746
864.485 .0274684
865.160 .0274631
865.834 .0274585
866.508 .0274543
867.181 .0274504
867.854 .0274464
868.527 .0274423
869.199 .0274377
869.872 .0274324
870.543 .0274267
871.215 .0274203
871.886 .0274132
872.557 .0274056
873.227 .0273975
873.897 .0273892
874.567 .0273812
875.236 .0273737
875.905 .0273669
876.573 .0273604
877.242 .0273543
877.909 .0273482
878.577 .0273419
879.244 .0273347
879.911 .0273268
880.577 .0273181
881.243 .0273087
881.909 .0272983
882.575 .0272878
883.240 .0272770
883.904 .0272661
884.569 .0272554
885.232 .0272443
885.896 .0272328
886.559 .0272211
887.222 .0272087
887.885 .0271957
888.547 .0271819
889.208 .0271675
889.870 .0271523
890.531 .0271373
891.192 .0271222
891.852 .0271074
892.512 .0270933
893.171 .0270803
893.830 .0270682
894.489 .0270569
895.148 .0270466
895.806 .0270372
896.464 .0270283
897.121 .0270198
897.778 .0270108
898.434 .0270016
899.091 .0269917
899.747 .0269814
900.402 .0269703
901.057 .0269590
901.712 .0269477
902.366 .0269357
903.020 .0269239
903.674 .0269123
904.327 .0269008
904.980 .0268894
905.633 .0268781
906.285 .0268668
906.936 .0268554
907.588 .0268442
908.239 .0268328
908.889 .0268215
909.540 .0268098
910.190 .0267973
910.839 .0267842
911.488 .0267707
912.137 .0267568
912.785 .0267425
913.433 .0267284
914.081 .0267138
914.728 .0266988
915.375 .0266829
916.021 .0266661
916.668 .0266485
917.313 .0266299
917.959 .0266105
918.604 .0265907
919.248 .0265710
919.892 .0265522
920.536 .0265343
921.180 .0265181
921.823 .0265033
922.465 .0264897
923.108 .0264763
923.750 .0264628
924.391 .0264485
925.032 .0264336
925.673 .0264178
926.313 .0264014
926.953 .0263849
927.593 .0263686
928.232 .0263522
928.871 .0263360
929.510 .0263201
930.148 .0263040
930.786 .0262876
931.423 .0262713
932.060 .0262543
932.697 .0262374
933.333 .0262206
933.969 .0262039
934.604 .0261882
935.239 .0261732
935.874 .0261587
936.508 .0261449
937.142 .0261319
937.776 .0261193
938.409 .0261066
939.042 .0260941
939.674 .0260809
940.306 .0260669
940.938 .0260521
941.569 .0260363
942.200 .0260201
942.830 .0260039
943.460 .0259880
944.090 .0259728
944.720 .0259583
945.349 .0259445
945.977 .0259318
946.606 .0259201
947.233 .0259093
947.861 .0258993
948.488 .0258899
949.115 .0258813
949.741 .0258739
950.367 .0258679
950.993 .0258632
951.618 .0258602
952.243 .0258585
952.868 .0258574
953.492 .0258567
954.115 .0258559
954.739 .0258545
955.362 .0258524
955.984 .0258498
956.607 .0258464
957.229 .0258428
957.850 .0258395
958.471 .0258360
959.092 .0258330
959.713 .0258299
960.333 .0258265
960.952 .0258231
961.572 .0258192
962.191 .0258151
962.809 .0258109
963.428 .0258065
964.045 .0258017
964.663 .0257968
965.280 .0257920
965.897 .0257874
966.513 .0257827
967.129 .0257785
967.745 .0257744
968.361 .0257704
968.976 .0257668
969.590 .0257631
970.205 .0257594
970.818 .0257556
971.432 .0257510
972.045 .0257461
972.658 .0257410
973.271 .0257360
973.883 .0257311
974.495 .0257266
975.106 .0257227
975.717 .0257194
976.328 .0257164
976.938 .0257139
977.548 .0257117
978.158 .0257096
978.768 .0257067
979.377 .0257034
979.985 .0256994
980.594 .0256946
981.202 .0256891
981.809 .0256834
982.417 .0256774
983.024 .0256712
983.631 .0256650
984.237 .0256584
984.843 .0256514
985.449 .0256434
986.054 .0256339
986.659 .0256236
987.264 .0256123
987.868 .0256002
988.472 .0255881
989.076 .0255769
989.679 .0255671
990.282 .0255588
990.885 .0255523
991.487 .0255472
992.090 .0255431
992.691 .0255394
993.293 .0255354
993.894 .0255311
994.495 .0255269
995.095 .0255223
995.696 .0255182
996.296 .0255145
996.895 .0255114
997.494 .0255087
998.093 .0255060
998.692 .0255029
999.291 .0254991
999.889 .0254933
1000.487 .0254857
1001.084 .0254759
1001.681 .0254643
1002.278 .0254509
1002.875 .0254371
1003.471 .0254227
1004.067 .0254087
1004.663 .0253959
1005.258 .0253837
1005.854 .0253719
1006.449 .0253606
1007.043 .0253488
1007.638 .0253360
1008.232 .0253225
1008.826 .0253083
1009.419 .0252934
1010.012 .0252795
1010.605 .0252666
1011.198 .0252548
1011.791 .0252447
1012.383 .0252358
1012.975 .0252274
1013.566 .0252195
1014.158 .0252113
1014.749 .0252021
1015.340 .0251931
1015.931 .0251840
1016.521 .0251750
1017.111 .0251669
1017.701 .0251602
1018.291 .0251544
1018.880 .0251494
1019.470 .0251450
1020.059 .0251401
1020.647 .0251351
1021.236 .0251302
1021.824 .0251249
1022.412 .0251198
1023.000 .0251150
1023.588 .0251103
1024.175 .0251065
1024.762 .0251027
1025.349 .0250988
1025.936 .0250948
1026.523 .0250909
1027.109 .0250866
1027.695 .0250822
1028.281 .0250788
1028.867 .0250769
1029.452 .0250765
1030.038 .0250775
1030.623 .0250794
1031.208 .0250814
1031.792 .0250829
1032.377 .0250833
1032.961 .0250829
1033.546 .0250819
1034.130 .0250803
1034.714 .0250792
1035.297 .0250795
1035.881 .0250813
1036.464 .0250850
1037.047 .0250904
1037.630 .0250974
1038.213 .0251046
1038.796 .0251114
1039.378 .0251178
1039.961 .0251241
1040.543 .0251300
1041.125 .0251358
1041.707 .0251411
1042.289 .0251464
1042.871 .0251510
1043.452 .0251545
1044.034 .0251569
1044.615 .0251581
1045.196 .0251573
1045.777 .0251542
1046.358 .0251491
1046.939 .0251430
1047.520 .0251353
1048.101 .0251272
1048.681 .0251185
1049.262 .0251089
1049.842 .0250994
1050.422 .0250897
1051.002 .0250798
1051.582 .0250707
1052.162 .0250628
1052.742 .0250561
1053.322 .0250513
1053.902 .0250483
1054.482 .0250467
1055.061 .0250461
1055.641 .0250467
1056.220 .0250467
1056.800 .0250467
1057.379 .0250472
1057.958 .0250470
1058.538 .0250466
1059.117 .0250476
1059.696 .0250486
1060.275 .0250508
1060.854 .0250537
1061.433 .0250590
1062.012 .0250659
1062.592 .0250762
1063.171 .0250882
1063.750 .0251023
1064.329 .0251176
1064.908 .0251335
1065.487 .0251476
1066.066 .0251607
1066.645 .0251711
1067.224 .0251793
1067.803 .0251847
1068.382 .0251890
1068.961 .0251924
1069.540 .0251966
1070.119 .0252011
1070.698 .0252066
1071.278 .0252109
1071.857 .0252144
1072.436 .0252155
1073.016 .0252148
1073.595 .0252116
1074.175 .0252070
1074.754 .0252018
1075.334 .0251966
1075.913 .0251933
1076.493 .0251918
1077.073 .0251907
1077.653 .0251916
1078.233 .0251933
1078.813 .0251948
1079.393 .0251956
1079.974 .0251961
1080.554 .0251966
1081.135 .0251976
1081.716 .0251995
1082.296 .0252015
1082.877 .0252038
1083.458 .0252059
1084.040 .0252062
1084.621 .0252057
1085.202 .0252054
1085.784 .0252038
1086.366 .0252022
1086.948 .0252010
1087.530 .0251995
1088.112 .0251989
1088.695 .0251985
1089.277 .0251981
1089.860 .0251980
1090.443 .0251974
1091.026 .0251956
1091.610 .0251939
1092.193 .0251926
1092.777 .0251910
1093.361 .0251894
1093.946 .0251893
1094.530 .0251885
1095.115 .0251890
1095.700 .0251915
1096.285 .0251958
1096.871 .0252027
1097.456 .0252130
1098.042 .0252245
1098.628 .0252361
1099.215 .0252472
1099.802 .0252571
1100.389 .0252644
1100.976 .0252703
1101.564 .0252719
1102.152 .0252706
1102.740 .0252689
1103.329 .0252671
1103.917 .0252653
1104.507 .0252655
1105.096 .0252685
1105.686 .0252735
1106.276 .0252790
1106.867 .0252862
1107.457 .0252934
1108.049 .0253010
1108.640 .0253080
1109.232 .0253123
1109.825 .0253159
1110.417 .0253214
1111.010 .0253279
1111.604 .0253370
1112.198 .0253488
1112.792 .0253635
1113.387 .0253789
1113.982 .0253934
1114.577 .0254068
1115.173 .0254161
1115.769 .0254205
1116.366 .0254217
1116.963 .0254170
1117.561 .0254109
1118.159 .0254039
1118.758 .0253985
1119.357 .0253954
1119.957 .0253930
1120.557 .0253920
1121.157 .0253900
1121.758 .0253891
1122.360 .0253896
1122.962 .0253882
1123.564 .0253896
1124.167 .0253945
1124.771 .0254025
1125.375 .0254138
1125.980 .0254311
1126.585 .0254527
1127.191 .0254761
1127.797 .0255020
1128.404 .0255272
1129.012 .0255538
1129.620 .0255841
1130.229 .0256177
1130.838 .0256532
1131.448 .0256934
1132.058 .0257360
1132.669 .0257807
1133.281 .0258317
1133.894 .0258865
1134.507 .0259423
1135.120 .0260015
1135.735 .0260618
1136.350 .0261219
1136.965 .0261808
1137.582 .0262416
1138.199 .0262997
1138.816 .0263563
1139.435 .0264097
1140.054 .0264638
1140.674 .0265086
1141.294 .0265509
1141.916 .0265961
1142.538 .0266449
1143.160 .0268089
1143.784 .0265576
1144.408 .0266427
1145.033 .0269248
