Measurement Sequence started on: 14-45-04-498
Integration time: 36
Scans to Average: 2 
>>>>>Begin Spectral Data<<<<<
433.946 .0609870
434.870 .0473004
435.793 .0466159
436.715 .0439954
437.635 .0441446
438.555 .0434601
439.473 .0420736
440.389 .0412212
441.305 .0404512
442.219 .0398185
443.132 .0392561
444.044 .0387862
444.954 .0384334
445.863 .0381589
446.771 .0379586
447.678 .0378076
448.584 .0377151
449.488 .0376736
450.391 .0376648
451.293 .0376881
452.194 .0377267
453.094 .0377621
453.992 .0378020
454.890 .0378313
455.786 .0378483
456.681 .0378550
457.575 .0378524
458.468 .0378418
459.360 .0378242
460.250 .0378083
461.140 .0377812
462.028 .0377426
462.915 .0376966
463.801 .0376292
464.687 .0375400
465.571 .0374384
466.454 .0373336
467.335 .0372295
468.216 .0371365
469.096 .0370540
469.975 .0369867
470.853 .0369308
471.729 .0368782
472.605 .0368189
473.479 .0367543
474.353 .0366797
475.226 .0365959
476.097 .0365046
476.968 .0364174
477.838 .0363372
478.706 .0362694
479.574 .0362168
480.441 .0361784
481.306 .0361489
482.171 .0361230
483.035 .0360924
483.898 .0360591
484.760 .0360160
485.621 .0359697
486.481 .0359185
487.340 .0358704
488.198 .0358263
489.055 .0357831
489.912 .0357411
490.767 .0357000
491.622 .0356573
492.476 .0356112
493.329 .0355615
494.180 .0355119
495.032 .0354612
495.882 .0354125
496.731 .0353677
497.580 .0353289
498.427 .0352950
499.274 .0352669
500.120 .0352416
500.965 .0352191
501.809 .0351996
502.653 .0351780
503.495 .0351576
504.337 .0351295
505.178 .0350893
506.018 .0350320
506.858 .0349575
507.696 .0348694
508.534 .0347643
509.371 .0346487
510.208 .0345301
511.043 .0344069
511.878 .0342855
512.712 .0341612
513.545 .0340388
514.377 .0339158
515.209 .0337956
516.040 .0336791
516.870 .0335752
517.699 .0334891
518.528 .0334319
519.356 .0334117
520.183 .0334275
521.010 .0334713
521.836 .0335326
522.661 .0335999
523.485 .0336568
524.309 .0336933
525.132 .0337094
525.954 .0336999
526.776 .0336818
527.597 .0336572
528.417 .0336252
529.237 .0335983
530.056 .0335659
530.874 .0335257
531.692 .0334710
532.508 .0334008
533.325 .0333072
534.140 .0331967
534.955 .0330740
535.770 .0329450
536.583 .0328158
537.397 .0327015
538.209 .0325944
539.021 .0325040
539.832 .0324310
540.643 .0323687
541.453 .0323194
542.262 .0322912
543.071 .0322722
543.879 .0322711
544.687 .0322742
545.494 .0322881
546.300 .0323053
547.106 .0323271
547.911 .0323466
548.716 .0323623
549.520 .0323745
550.323 .0323813
551.126 .0323802
551.929 .0323830
552.731 .0323822
553.532 .0323830
554.332 .0323842
555.133 .0323835
555.932 .0323791
556.731 .0323719
557.530 .0323587
558.328 .0323424
559.125 .0323225
559.922 .0322999
560.719 .0322765
561.515 .0322547
562.310 .0322382
563.105 .0322241
563.899 .0322171
564.693 .0322146
565.487 .0322105
566.280 .0322057
567.072 .0322020
567.864 .0321916
568.655 .0321761
569.446 .0321560
570.236 .0321317
571.026 .0321029
571.816 .0320692
572.605 .0320322
573.393 .0319952
574.181 .0319608
574.969 .0319257
575.756 .0318886
576.543 .0318564
577.329 .0318269
578.115 .0317996
578.900 .0317765
579.685 .0317546
580.469 .0317325
581.253 .0317108
582.036 .0316874
582.820 .0316612
583.602 .0316340
584.384 .0316031
585.166 .0315693
585.947 .0315335
586.728 .0314972
587.509 .0314595
588.289 .0314240
589.069 .0313921
589.848 .0313609
590.627 .0313313
591.405 .0313035
592.183 .0312764
592.961 .0312502
593.738 .0312228
594.515 .0311958
595.291 .0311680
596.067 .0311423
596.843 .0311174
597.618 .0310944
598.393 .0310752
599.167 .0310591
599.941 .0310445
600.715 .0310317
601.488 .0310200
602.261 .0310073
603.034 .0309939
603.806 .0309806
604.578 .0309663
605.349 .0309520
606.121 .0309380
606.891 .0309243
607.662 .0309097
608.432 .0308950
609.201 .0308785
609.971 .0308604
610.740 .0308420
611.508 .0308215
612.277 .0308004
613.045 .0307802
613.812 .0307603
614.579 .0307399
615.346 .0307199
616.113 .0306998
616.879 .0306789
617.645 .0306580
618.411 .0306361
619.176 .0306143
619.941 .0305941
620.705 .0305753
621.470 .0305578
622.233 .0305427
622.997 .0305300
623.760 .0305178
624.523 .0305063
625.286 .0304941
626.048 .0304796
626.810 .0304635
627.572 .0304453
628.333 .0304263
629.095 .0304072
629.855 .0303887
630.616 .0303715
631.376 .0303561
632.136 .0303431
632.895 .0303309
633.655 .0303204
634.414 .0303110
635.172 .0303017
635.931 .0302921
636.689 .0302813
637.447 .0302697
638.204 .0302570
638.962 .0302433
639.718 .0302286
640.475 .0302131
641.231 .0301959
641.988 .0301776
642.743 .0301583
643.499 .0301376
644.254 .0301156
645.009 .0300923
645.764 .0300677
646.518 .0300425
647.272 .0300163
648.026 .0299892
648.780 .0299621
649.533 .0299359
650.286 .0299100
651.039 .0298846
651.792 .0298602
652.544 .0298376
653.296 .0298166
654.048 .0297985
654.799 .0297824
655.550 .0297686
656.301 .0297564
657.052 .0297451
657.802 .0297339
658.552 .0297226
659.302 .0297105
660.052 .0296982
660.801 .0296850
661.550 .0296713
662.299 .0296580
663.048 .0296460
663.796 .0296358
664.544 .0296274
665.292 .0296200
666.040 .0296143
666.787 .0296090
667.534 .0296038
668.281 .0295983
669.028 .0295928
669.774 .0295873
670.521 .0295816
671.266 .0295761
672.012 .0295710
672.758 .0295661
673.503 .0295618
674.248 .0295571
674.992 .0295519
675.737 .0295456
676.481 .0295380
677.225 .0295294
677.969 .0295199
678.712 .0295097
679.455 .0294996
680.199 .0294898
680.941 .0294803
681.684 .0294710
682.426 .0294613
683.168 .0294512
683.910 .0294404
684.652 .0294281
685.393 .0294151
686.134 .0294015
686.875 .0293875
687.616 .0293733
688.356 .0293594
689.097 .0293462
689.837 .0293330
690.576 .0293201
691.316 .0293070
692.055 .0292935
692.794 .0292793
693.533 .0292641
694.272 .0292484
695.010 .0292326
695.748 .0292175
696.486 .0292029
697.224 .0291893
697.962 .0291769
698.699 .0291653
699.436 .0291544
700.173 .0291436
700.909 .0291327
701.646 .0291219
702.382 .0291106
703.118 .0290994
703.853 .0290881
704.589 .0290767
705.324 .0290652
706.059 .0290539
706.794 .0290421
707.529 .0290307
708.263 .0290192
708.997 .0290080
709.731 .0289971
710.465 .0289866
711.198 .0289762
711.931 .0289658
712.664 .0289550
713.397 .0289441
714.130 .0289321
714.862 .0289203
715.594 .0289083
716.326 .0288969
717.058 .0288863
717.789 .0288768
718.520 .0288676
719.251 .0288583
719.982 .0288485
720.713 .0288377
721.443 .0288252
722.173 .0288113
722.903 .0287959
723.633 .0287799
724.362 .0287647
725.091 .0287500
725.820 .0287365
726.549 .0287247
727.278 .0287138
728.006 .0287026
728.734 .0286904
729.462 .0286767
730.190 .0286611
730.917 .0286447
731.644 .0286278
732.371 .0286108
733.098 .0285953
733.825 .0285816
734.551 .0285693
735.277 .0285586
736.003 .0285490
736.728 .0285392
737.454 .0285297
738.179 .0285205
738.904 .0285111
739.629 .0285023
740.353 .0284946
741.077 .0284886
741.801 .0284838
742.525 .0284806
743.249 .0284780
743.972 .0284762
744.695 .0284749
745.418 .0284728
746.141 .0284699
746.863 .0284668
747.585 .0284629
748.307 .0284583
749.029 .0284524
749.750 .0284452
750.472 .0284364
751.193 .0284258
751.913 .0284130
752.634 .0283987
753.354 .0283826
754.074 .0283659
754.794 .0283491
755.514 .0283333
756.233 .0283184
756.952 .0283046
757.671 .0282925
758.390 .0282812
759.108 .0282704
759.826 .0282597
760.544 .0282489
761.262 .0282389
761.979 .0282294
762.697 .0282201
763.414 .0282121
764.130 .0282049
764.847 .0281988
765.563 .0281930
766.279 .0281867
766.995 .0281795
767.710 .0281704
768.426 .0281590
769.141 .0281450
769.855 .0281288
770.570 .0281117
771.284 .0280936
771.998 .0280759
772.712 .0280587
773.426 .0280423
774.139 .0280270
774.852 .0280118
775.565 .0279964
776.277 .0279807
776.990 .0279639
777.702 .0279469
778.414 .0279300
779.125 .0279142
779.836 .0278998
780.547 .0278877
781.258 .0278779
781.969 .0278699
782.679 .0278633
783.389 .0278575
784.099 .0278520
784.808 .0278469
785.517 .0278420
786.226 .0278376
786.935 .0278342
787.643 .0278320
788.352 .0278309
789.060 .0278307
789.767 .0278310
790.475 .0278312
791.182 .0278303
791.889 .0278280
792.595 .0278244
793.301 .0278195
794.008 .0278138
794.713 .0278073
795.419 .0278002
796.124 .0277925
796.829 .0277843
797.534 .0277749
798.238 .0277650
798.942 .0277545
799.646 .0277437
800.350 .0277330
801.053 .0277224
801.756 .0277125
802.459 .0277034
803.162 .0276951
803.864 .0276878
804.566 .0276811
805.267 .0276748
805.969 .0276686
806.670 .0276635
807.371 .0276595
808.071 .0276567
808.772 .0276549
809.472 .0276546
810.171 .0276550
810.871 .0276556
811.570 .0276560
812.269 .0276561
812.967 .0276554
813.666 .0276536
814.364 .0276505
815.061 .0276460
815.759 .0276411
816.456 .0276355
817.153 .0276283
817.849 .0276201
818.545 .0276093
819.241 .0275966
819.937 .0275821
820.632 .0275662
821.327 .0275489
822.022 .0275309
822.717 .0275132
823.411 .0274956
824.105 .0274787
824.798 .0274628
825.491 .0274477
826.184 .0274341
826.877 .0274209
827.569 .0274075
828.261 .0273940
828.953 .0273811
829.645 .0273680
830.336 .0273553
831.027 .0273429
831.717 .0273310
832.407 .0273197
833.097 .0273087
833.787 .0272976
834.476 .0272857
835.165 .0272731
835.854 .0272591
836.542 .0272437
837.230 .0272272
837.918 .0272100
838.605 .0271933
839.292 .0271778
839.979 .0271640
840.665 .0271515
841.352 .0271407
842.037 .0271313
842.723 .0271226
843.408 .0271140
844.093 .0271050
844.777 .0270959
845.462 .0270867
846.145 .0270771
846.829 .0270673
847.512 .0270580
848.195 .0270494
848.878 .0270412
849.560 .0270322
850.242 .0270224
850.923 .0270108
851.605 .0269967
852.286 .0269803
852.966 .0269616
853.646 .0269417
854.326 .0269211
855.006 .0269005
855.685 .0268803
856.364 .0268608
857.043 .0268423
857.721 .0268243
858.399 .0268070
859.077 .0267894
859.754 .0267716
860.431 .0267540
861.107 .0267371
861.784 .0267212
862.459 .0267072
863.135 .0266949
863.810 .0266847
864.485 .0266770
865.160 .0266706
865.834 .0266656
866.508 .0266621
867.181 .0266591
867.854 .0266564
868.527 .0266533
869.199 .0266500
869.872 .0266462
870.543 .0266426
871.215 .0266382
871.886 .0266325
872.557 .0266269
873.227 .0266199
873.897 .0266123
874.567 .0266046
875.236 .0265968
875.905 .0265893
876.573 .0265822
877.242 .0265750
877.909 .0265674
878.577 .0265603
879.244 .0265532
879.911 .0265459
880.577 .0265395
881.243 .0265335
881.909 .0265280
882.575 .0265235
883.240 .0265202
883.904 .0265170
884.569 .0265150
885.232 .0265126
885.896 .0265097
886.559 .0265059
887.222 .0265009
887.885 .0264952
888.547 .0264889
889.208 .0264824
889.870 .0264751
890.531 .0264675
891.192 .0264600
891.852 .0264519
892.512 .0264442
893.171 .0264367
893.830 .0264297
894.489 .0264230
895.148 .0264172
895.806 .0264114
896.464 .0264068
897.121 .0264033
897.778 .0264004
898.434 .0263975
899.091 .0263948
899.747 .0263916
900.402 .0263879
901.057 .0263836
901.712 .0263787
902.366 .0263727
903.020 .0263662
903.674 .0263583
904.327 .0263497
904.980 .0263409
905.633 .0263320
906.285 .0263225
906.936 .0263134
907.588 .0263036
908.239 .0262928
908.889 .0262815
909.540 .0262692
910.190 .0262562
910.839 .0262425
911.488 .0262280
912.137 .0262128
912.785 .0261972
913.433 .0261819
914.081 .0261661
914.728 .0261503
915.375 .0261338
916.021 .0261166
916.668 .0260990
917.313 .0260809
917.959 .0260624
918.604 .0260437
919.248 .0260255
919.892 .0260078
920.536 .0259905
921.180 .0259738
921.823 .0259581
922.465 .0259432
923.108 .0259283
923.750 .0259135
924.391 .0258985
925.032 .0258836
925.673 .0258685
926.313 .0258530
926.953 .0258375
927.593 .0258217
928.232 .0258055
928.871 .0257888
929.510 .0257720
930.148 .0257548
930.786 .0257369
931.423 .0257185
932.060 .0256994
932.697 .0256792
933.333 .0256576
933.969 .0256351
934.604 .0256117
935.239 .0255879
935.874 .0255640
936.508 .0255410
937.142 .0255198
937.776 .0255001
938.409 .0254826
939.042 .0254668
939.674 .0254525
940.306 .0254392
940.938 .0254257
941.569 .0254119
942.200 .0253976
942.830 .0253821
943.460 .0253657
944.090 .0253486
944.720 .0253316
945.349 .0253146
945.977 .0252982
946.606 .0252821
947.233 .0252664
947.861 .0252507
948.488 .0252345
949.115 .0252169
949.741 .0251984
950.367 .0251784
950.993 .0251571
951.618 .0251359
952.243 .0251152
952.868 .0250960
953.492 .0250793
954.115 .0250649
954.739 .0250533
955.362 .0250448
955.984 .0250381
956.607 .0250330
957.229 .0250288
957.850 .0250248
958.471 .0250203
959.092 .0250152
959.713 .0250095
960.333 .0250028
960.952 .0249963
961.572 .0249897
962.191 .0249832
962.809 .0249781
963.428 .0249736
964.045 .0249701
964.663 .0249678
965.280 .0249654
965.897 .0249625
966.513 .0249595
967.129 .0249555
967.745 .0249508
968.361 .0249458
968.976 .0249405
969.590 .0249351
970.205 .0249303
970.818 .0249263
971.432 .0249226
972.045 .0249193
972.658 .0249161
973.271 .0249113
973.883 .0249057
974.495 .0248985
975.106 .0248898
975.717 .0248806
976.328 .0248710
976.938 .0248614
977.548 .0248527
978.158 .0248452
978.768 .0248384
979.377 .0248322
979.985 .0248266
980.594 .0248207
981.202 .0248148
981.809 .0248088
982.417 .0248041
983.024 .0248006
983.631 .0247992
984.237 .0247992
984.843 .0248006
985.449 .0248029
986.054 .0248057
986.659 .0248084
987.264 .0248111
987.868 .0248142
988.472 .0248182
989.076 .0248230
989.679 .0248293
990.282 .0248368
990.885 .0248455
991.487 .0248544
992.090 .0248635
992.691 .0248711
993.293 .0248780
993.894 .0248838
994.495 .0248891
995.095 .0248943
995.696 .0248996
996.296 .0249050
996.895 .0249104
997.494 .0249148
998.093 .0249179
998.692 .0249186
999.291 .0249179
999.889 .0249150
1000.487 .0249110
1001.084 .0249067
1001.681 .0249024
1002.278 .0248983
1002.875 .0248951
1003.471 .0248920
1004.067 .0248891
1004.663 .0248852
1005.258 .0248801
1005.854 .0248728
1006.449 .0248639
1007.043 .0248540
1007.638 .0248431
1008.232 .0248318
1008.826 .0248210
1009.419 .0248104
1010.012 .0248011
1010.605 .0247924
1011.198 .0247845
1011.791 .0247771
1012.383 .0247704
1012.975 .0247634
1013.566 .0247563
1014.158 .0247494
1014.749 .0247431
1015.340 .0247377
1015.931 .0247343
1016.521 .0247322
1017.111 .0247314
1017.701 .0247323
1018.291 .0247336
1018.880 .0247347
1019.470 .0247356
1020.059 .0247357
1020.647 .0247351
1021.236 .0247334
1021.824 .0247309
1022.412 .0247277
1023.000 .0247242
1023.588 .0247203
1024.175 .0247146
1024.762 .0247083
1025.349 .0247009
1025.936 .0246931
1026.523 .0246847
1027.109 .0246767
1027.695 .0246696
1028.281 .0246632
1028.867 .0246579
1029.452 .0246529
1030.038 .0246477
1030.623 .0246416
1031.208 .0246346
1031.792 .0246266
1032.377 .0246175
1032.961 .0246091
1033.546 .0246014
1034.130 .0245967
1034.714 .0245938
1035.297 .0245924
1035.881 .0245922
1036.464 .0245932
1037.047 .0245933
1037.630 .0245919
1038.213 .0245896
1038.796 .0245858
1039.378 .0245813
1039.961 .0245773
1040.543 .0245733
1041.125 .0245711
1041.707 .0245695
1042.289 .0245678
1042.871 .0245644
1043.452 .0245596
1044.034 .0245517
1044.615 .0245412
1045.196 .0245289
1045.777 .0245146
1046.358 .0244989
1046.939 .0244834
1047.520 .0244686
1048.101 .0244550
1048.681 .0244430
1049.262 .0244320
1049.842 .0244217
1050.422 .0244120
1051.002 .0244021
1051.582 .0243921
1052.162 .0243830
1052.742 .0243745
1053.322 .0243663
1053.902 .0243584
1054.482 .0243510
1055.061 .0243444
1055.641 .0243384
1056.220 .0243332
1056.800 .0243282
1057.379 .0243221
1057.958 .0243156
1058.538 .0243077
1059.117 .0243004
1059.696 .0242927
1060.275 .0242854
1060.854 .0242785
1061.433 .0242719
1062.012 .0242663
1062.592 .0242619
1063.171 .0242591
1063.750 .0242573
1064.329 .0242557
1064.908 .0242546
1065.487 .0242535
1066.066 .0242536
1066.645 .0242535
1067.224 .0242550
1067.803 .0242570
1068.382 .0242595
1068.961 .0242618
1069.540 .0242639
1070.119 .0242661
1070.698 .0242671
1071.278 .0242672
1071.857 .0242662
1072.436 .0242645
1073.016 .0242624
1073.595 .0242602
1074.175 .0242604
1074.754 .0242625
1075.334 .0242650
1075.913 .0242680
1076.493 .0242727
1077.073 .0242766
1077.653 .0242802
1078.233 .0242837
1078.813 .0242861
1079.393 .0242886
1079.974 .0242919
1080.554 .0242962
1081.135 .0243034
1081.716 .0243134
1082.296 .0243234
1082.877 .0243332
1083.458 .0243444
1084.040 .0243526
1084.621 .0243553
1085.202 .0243551
1085.784 .0243504
1086.366 .0243412
1086.948 .0243295
1087.530 .0243166
1088.112 .0243058
1088.695 .0242993
1089.277 .0242943
1089.860 .0242918
1090.443 .0242907
1091.026 .0242906
1091.610 .0242886
1092.193 .0242864
1092.777 .0242838
1093.361 .0242811
1093.946 .0242805
1094.530 .0242815
1095.115 .0242862
1095.700 .0242947
1096.285 .0243035
1096.871 .0243149
1097.456 .0243256
1098.042 .0243347
1098.628 .0243399
1099.215 .0243445
1099.802 .0243461
1100.389 .0243466
1100.976 .0243457
1101.564 .0243435
1102.152 .0243429
1102.740 .0243459
1103.329 .0243503
1103.917 .0243583
1104.507 .0243714
1105.096 .0243882
1105.686 .0244069
1106.276 .0244282
1106.867 .0244498
1107.457 .0244728
1108.049 .0244933
1108.640 .0245126
1109.232 .0245297
1109.825 .0245453
1110.417 .0245577
1111.010 .0245675
1111.604 .0245775
1112.198 .0245847
1112.792 .0245876
1113.387 .0245867
1113.982 .0245822
1114.577 .0245784
1115.173 .0245718
1115.769 .0245629
1116.366 .0245571
1116.963 .0245514
1117.561 .0245443
1118.159 .0245359
1118.758 .0245266
1119.357 .0245186
1119.957 .0245105
1120.557 .0245071
1121.157 .0245069
1121.758 .0245176
1122.360 .0245399
1122.962 .0245680
1123.564 .0246047
1124.167 .0246446
1124.771 .0246816
1125.375 .0247145
1125.980 .0247437
1126.585 .0247667
1127.191 .0247857
1127.797 .0248078
1128.404 .0248308
1129.012 .0248590
1129.620 .0248930
1130.229 .0249303
1130.838 .0249683
1131.448 .0250075
1132.058 .0250396
1132.669 .0250634
1133.281 .0250825
1133.894 .0250924
1134.507 .0250976
1135.120 .0251025
1135.735 .0251070
1136.350 .0251144
1136.965 .0251301
1137.582 .0251545
1138.199 .0251866
1138.816 .0252266
1139.435 .0252732
1140.054 .0253229
1140.674 .0253804
1141.294 .0254387
1141.916 .0255151
1142.538 .0255466
1143.160 .0255613
1143.784 .0257302
1144.408 .0257837
1145.033 .0263014
