Measurement Sequence started on: 14-45-04-498
Integration time: 36
Scans to Average: 2 
>>>>>Begin Spectral Data<<<<<
433.946 .0569927
434.870 .0534430
435.793 .0491567
436.715 .0486044
437.635 .0483345
438.555 .0480012
439.473 .0471447
440.389 .0465034
441.305 .0460366
442.219 .0456046
443.132 .0452169
444.044 .0449039
444.954 .0446464
445.863 .0444547
446.771 .0443252
447.678 .0442451
448.584 .0442114
449.488 .0442021
450.391 .0441982
451.293 .0441921
452.194 .0441811
453.094 .0441491
453.992 .0440931
454.890 .0440296
455.786 .0439652
456.681 .0438986
457.575 .0438373
458.468 .0437846
459.360 .0437379
460.250 .0436898
461.140 .0436315
462.028 .0435662
462.915 .0434858
463.801 .0433871
464.687 .0432707
465.571 .0431459
466.454 .0430190
467.335 .0428971
468.216 .0427852
469.096 .0426912
469.975 .0426146
470.853 .0425515
471.729 .0425023
472.605 .0424653
473.479 .0424350
474.353 .0424065
475.226 .0423770
476.097 .0423497
476.968 .0423210
477.838 .0422945
478.706 .0422694
479.574 .0422466
480.441 .0422263
481.306 .0422056
482.171 .0421793
483.035 .0421487
483.898 .0421122
484.760 .0420713
485.621 .0420245
486.481 .0419750
487.340 .0419235
488.198 .0418700
489.055 .0418151
489.912 .0417589
490.767 .0417027
491.622 .0416473
492.476 .0415906
493.329 .0415373
494.180 .0414890
495.032 .0414458
495.882 .0414067
496.731 .0413746
497.580 .0413490
498.427 .0413256
499.274 .0412982
500.120 .0412680
500.965 .0412328
501.809 .0411939
502.653 .0411483
503.495 .0411016
504.337 .0410501
505.178 .0409949
506.018 .0409360
506.858 .0408755
507.696 .0408162
508.534 .0407575
509.371 .0406978
510.208 .0406415
511.043 .0405883
511.878 .0405387
512.712 .0404895
513.545 .0404488
514.377 .0404106
515.209 .0403770
516.040 .0403466
516.870 .0403252
517.699 .0403106
518.528 .0403055
519.356 .0403077
520.183 .0403092
521.010 .0403085
521.836 .0402995
522.661 .0402809
523.485 .0402501
524.309 .0402047
525.132 .0401424
525.954 .0400675
526.776 .0399910
527.597 .0399096
528.417 .0398234
529.237 .0397381
530.056 .0396536
530.874 .0395675
531.692 .0394790
532.508 .0393964
533.325 .0393172
534.140 .0392490
534.955 .0391842
535.770 .0391242
536.583 .0390735
537.397 .0390361
538.209 .0390114
539.021 .0389963
539.832 .0389894
540.643 .0389857
541.453 .0389806
542.262 .0389823
543.071 .0389751
543.879 .0389629
544.687 .0389487
545.494 .0389318
546.300 .0389161
547.106 .0389022
547.911 .0388968
548.716 .0389014
549.520 .0389074
550.323 .0389139
551.126 .0389106
551.929 .0389008
552.731 .0388805
553.532 .0388458
554.332 .0388014
555.133 .0387532
555.932 .0387029
556.731 .0386567
557.530 .0386131
558.328 .0385761
559.125 .0385408
559.922 .0385044
560.719 .0384654
561.515 .0384171
562.310 .0383628
563.105 .0383066
563.899 .0382436
564.693 .0381832
565.487 .0381226
566.280 .0380695
567.072 .0380190
567.864 .0379692
568.655 .0379166
569.446 .0378594
570.236 .0377982
571.026 .0377345
571.816 .0376651
572.605 .0375990
573.393 .0375360
574.181 .0374792
574.969 .0374273
575.756 .0373804
576.543 .0373354
577.329 .0372934
578.115 .0372492
578.900 .0372044
579.685 .0371583
580.469 .0371164
581.253 .0370788
582.036 .0370469
582.820 .0370205
583.602 .0369987
584.384 .0369785
585.166 .0369595
585.947 .0369382
586.728 .0369154
587.509 .0368892
588.289 .0368623
589.069 .0368351
589.848 .0368082
590.627 .0367812
591.405 .0367552
592.183 .0367303
592.961 .0367046
593.738 .0366777
594.515 .0366499
595.291 .0366218
596.067 .0365941
596.843 .0365649
597.618 .0365351
598.393 .0365042
599.167 .0364732
599.941 .0364403
600.715 .0364062
601.488 .0363722
602.261 .0363383
603.034 .0363054
603.806 .0362741
604.578 .0362442
605.349 .0362170
606.121 .0361914
606.891 .0361669
607.662 .0361427
608.432 .0361181
609.201 .0360925
609.971 .0360671
610.740 .0360414
611.508 .0360165
612.277 .0359922
613.045 .0359695
613.812 .0359474
614.579 .0359258
615.346 .0359048
616.113 .0358833
616.879 .0358623
617.645 .0358420
618.411 .0358211
619.176 .0358012
619.941 .0357817
620.705 .0357623
621.470 .0357430
622.233 .0357234
622.997 .0357031
623.760 .0356825
624.523 .0356617
625.286 .0356404
626.048 .0356191
626.810 .0355987
627.572 .0355776
628.333 .0355558
629.095 .0355332
629.855 .0355086
630.616 .0354825
631.376 .0354549
632.136 .0354255
632.895 .0353960
633.655 .0353666
634.414 .0353372
635.172 .0353080
635.931 .0352791
636.689 .0352496
637.447 .0352197
638.204 .0351889
638.962 .0351568
639.718 .0351251
640.475 .0350939
641.231 .0350631
641.988 .0350339
642.743 .0350060
643.499 .0349790
644.254 .0349525
645.009 .0349268
645.764 .0349002
646.518 .0348745
647.272 .0348495
648.026 .0348253
648.780 .0348027
649.533 .0347828
650.286 .0347637
651.039 .0347464
651.792 .0347301
652.544 .0347138
653.296 .0346973
654.048 .0346812
654.799 .0346645
655.550 .0346478
656.301 .0346313
657.052 .0346157
657.802 .0346006
658.552 .0345866
659.302 .0345723
660.052 .0345583
660.801 .0345441
661.550 .0345294
662.299 .0345143
663.048 .0344993
663.796 .0344843
664.544 .0344692
665.292 .0344539
666.040 .0344383
666.787 .0344230
667.534 .0344077
668.281 .0343922
669.028 .0343769
669.774 .0343615
670.521 .0343459
671.266 .0343303
672.012 .0343150
672.758 .0342993
673.503 .0342837
674.248 .0342675
674.992 .0342506
675.737 .0342333
676.481 .0342162
677.225 .0341992
677.969 .0341825
678.712 .0341667
679.455 .0341509
680.199 .0341354
680.941 .0341203
681.684 .0341052
682.426 .0340897
683.168 .0340733
683.910 .0340559
684.652 .0340372
685.393 .0340172
686.134 .0339963
686.875 .0339752
687.616 .0339541
688.356 .0339334
689.097 .0339126
689.837 .0338917
690.576 .0338712
691.316 .0338505
692.055 .0338295
692.794 .0338085
693.533 .0337877
694.272 .0337666
695.010 .0337459
695.748 .0337267
696.486 .0337079
697.224 .0336905
697.962 .0336742
698.699 .0336589
699.436 .0336442
700.173 .0336302
700.909 .0336164
701.646 .0336037
702.382 .0335913
703.118 .0335786
703.853 .0335654
704.589 .0335523
705.324 .0335383
706.059 .0335234
706.794 .0335076
707.529 .0334909
708.263 .0334734
708.997 .0334563
709.731 .0334382
710.465 .0334205
711.198 .0334027
711.931 .0333845
712.664 .0333654
713.397 .0333459
714.130 .0333255
714.862 .0333048
715.594 .0332844
716.326 .0332642
717.058 .0332444
717.789 .0332261
718.520 .0332082
719.251 .0331908
719.982 .0331738
720.713 .0331571
721.443 .0331397
722.173 .0331227
722.903 .0331057
723.633 .0330891
724.362 .0330730
725.091 .0330575
725.820 .0330420
726.549 .0330270
727.278 .0330121
728.006 .0329968
728.734 .0329810
729.462 .0329650
730.190 .0329487
730.917 .0329331
731.644 .0329185
732.371 .0329050
733.098 .0328922
733.825 .0328805
734.551 .0328689
735.277 .0328568
736.003 .0328436
736.728 .0328300
737.454 .0328160
738.179 .0328019
738.904 .0327884
739.629 .0327764
740.353 .0327662
741.077 .0327583
741.801 .0327517
742.525 .0327458
743.249 .0327400
743.972 .0327336
744.695 .0327258
745.418 .0327170
746.141 .0327070
746.863 .0326971
747.585 .0326874
748.307 .0326788
749.029 .0326704
749.750 .0326628
750.472 .0326558
751.193 .0326482
751.913 .0326392
752.634 .0326289
753.354 .0326165
754.074 .0326033
754.794 .0325887
755.514 .0325735
756.233 .0325586
756.952 .0325444
757.671 .0325308
758.390 .0325181
759.108 .0325062
759.826 .0324956
760.544 .0324854
761.262 .0324761
761.979 .0324664
762.697 .0324561
763.414 .0324453
764.130 .0324333
764.847 .0324201
765.563 .0324063
766.279 .0323916
766.995 .0323770
767.710 .0323624
768.426 .0323474
769.141 .0323325
769.855 .0323180
770.570 .0323032
771.284 .0322877
771.998 .0322716
772.712 .0322553
773.426 .0322389
774.139 .0322231
774.852 .0322080
775.565 .0321939
776.277 .0321816
776.990 .0321703
777.702 .0321599
778.414 .0321507
779.125 .0321419
779.836 .0321332
780.547 .0321244
781.258 .0321155
781.969 .0321059
782.679 .0320962
783.389 .0320864
784.099 .0320760
784.808 .0320654
785.517 .0320545
786.226 .0320434
786.935 .0320321
787.643 .0320206
788.352 .0320089
789.060 .0319973
789.767 .0319854
790.475 .0319730
791.182 .0319600
791.889 .0319466
792.595 .0319327
793.301 .0319181
794.008 .0319029
794.713 .0318874
795.419 .0318718
796.124 .0318560
796.829 .0318402
797.534 .0318248
798.238 .0318093
798.942 .0317944
799.646 .0317798
800.350 .0317655
801.053 .0317519
801.756 .0317386
802.459 .0317256
803.162 .0317128
803.864 .0317004
804.566 .0316886
805.267 .0316775
805.969 .0316674
806.670 .0316578
807.371 .0316492
808.071 .0316418
808.772 .0316349
809.472 .0316278
810.171 .0316208
810.871 .0316133
811.570 .0316050
812.269 .0315960
812.967 .0315861
813.666 .0315756
814.364 .0315650
815.061 .0315545
815.759 .0315443
816.456 .0315339
817.153 .0315239
817.849 .0315135
818.545 .0315026
819.241 .0314912
819.937 .0314789
820.632 .0314656
821.327 .0314512
822.022 .0314359
822.717 .0314193
823.411 .0314021
824.105 .0313841
824.798 .0313653
825.491 .0313463
826.184 .0313271
826.877 .0313079
827.569 .0312896
828.261 .0312729
828.953 .0312572
829.645 .0312427
830.336 .0312294
831.027 .0312170
831.717 .0312056
832.407 .0311948
833.097 .0311847
833.787 .0311752
834.476 .0311664
835.165 .0311582
835.854 .0311510
836.542 .0311453
837.230 .0311403
837.918 .0311359
838.605 .0311319
839.292 .0311278
839.979 .0311229
840.665 .0311171
841.352 .0311112
842.037 .0311042
842.723 .0310962
843.408 .0310873
844.093 .0310776
844.777 .0310673
845.462 .0310565
846.145 .0310452
846.829 .0310336
847.512 .0310223
848.195 .0310108
848.878 .0309993
849.560 .0309880
850.242 .0309766
850.923 .0309642
851.605 .0309507
852.286 .0309361
852.966 .0309198
853.646 .0309030
854.326 .0308859
855.006 .0308687
855.685 .0308519
856.364 .0308356
857.043 .0308196
857.721 .0308038
858.399 .0307879
859.077 .0307708
859.754 .0307528
860.431 .0307341
861.107 .0307144
861.784 .0306942
862.459 .0306742
863.135 .0306549
863.810 .0306365
864.485 .0306189
865.160 .0306021
865.834 .0305863
866.508 .0305715
867.181 .0305571
867.854 .0305432
868.527 .0305304
869.199 .0305176
869.872 .0305053
870.543 .0304936
871.215 .0304816
871.886 .0304695
872.557 .0304569
873.227 .0304437
873.897 .0304302
874.567 .0304160
875.236 .0304015
875.905 .0303870
876.573 .0303727
877.242 .0303578
877.909 .0303423
878.577 .0303267
879.244 .0303103
879.911 .0302926
880.577 .0302747
881.243 .0302564
881.909 .0302385
882.575 .0302214
883.240 .0302047
883.904 .0301892
884.569 .0301744
885.232 .0301599
885.896 .0301452
886.559 .0301297
887.222 .0301137
887.885 .0300971
888.547 .0300806
889.208 .0300646
889.870 .0300498
890.531 .0300367
891.192 .0300252
891.852 .0300145
892.512 .0300042
893.171 .0299937
893.830 .0299829
894.489 .0299715
895.148 .0299595
895.806 .0299480
896.464 .0299375
897.121 .0299281
897.778 .0299204
898.434 .0299140
899.091 .0299083
899.747 .0299023
900.402 .0298953
901.057 .0298866
901.712 .0298760
902.366 .0298640
903.020 .0298511
903.674 .0298382
904.327 .0298257
904.980 .0298140
905.633 .0298033
906.285 .0297936
906.936 .0297841
907.588 .0297741
908.239 .0297638
908.889 .0297531
909.540 .0297416
910.190 .0297296
910.839 .0297178
911.488 .0297065
912.137 .0296957
912.785 .0296856
913.433 .0296763
914.081 .0296674
914.728 .0296587
915.375 .0296499
916.021 .0296403
916.668 .0296305
917.313 .0296202
917.959 .0296089
918.604 .0295968
919.248 .0295840
919.892 .0295702
920.536 .0295556
921.180 .0295406
921.823 .0295252
922.465 .0295092
923.108 .0294926
923.750 .0294755
924.391 .0294576
925.032 .0294393
925.673 .0294205
926.313 .0294013
926.953 .0293822
927.593 .0293628
928.232 .0293434
928.871 .0293242
929.510 .0293054
930.148 .0292870
930.786 .0292688
931.423 .0292511
932.060 .0292340
932.697 .0292173
933.333 .0292011
933.969 .0291855
934.604 .0291705
935.239 .0291554
935.874 .0291402
936.508 .0291243
937.142 .0291082
937.776 .0290912
938.409 .0290735
939.042 .0290550
939.674 .0290363
940.306 .0290169
940.938 .0289970
941.569 .0289771
942.200 .0289570
942.830 .0289362
943.460 .0289152
944.090 .0288937
944.720 .0288718
945.349 .0288496
945.977 .0288280
946.606 .0288071
947.233 .0287877
947.861 .0287693
948.488 .0287517
949.115 .0287350
949.741 .0287185
950.367 .0287020
950.993 .0286852
951.618 .0286682
952.243 .0286511
952.868 .0286342
953.492 .0286173
954.115 .0286006
954.739 .0285843
955.362 .0285682
955.984 .0285514
956.607 .0285339
957.229 .0285159
957.850 .0284968
958.471 .0284772
959.092 .0284573
959.713 .0284368
960.333 .0284166
960.952 .0283968
961.572 .0283778
962.191 .0283599
962.809 .0283430
963.428 .0283268
964.045 .0283114
964.663 .0282966
965.280 .0282822
965.897 .0282676
966.513 .0282537
967.129 .0282409
967.745 .0282282
968.361 .0282164
968.976 .0282054
969.590 .0281953
970.205 .0281859
970.818 .0281771
971.432 .0281690
972.045 .0281612
972.658 .0281537
973.271 .0281466
973.883 .0281393
974.495 .0281321
975.106 .0281247
975.717 .0281172
976.328 .0281097
976.938 .0281022
977.548 .0280946
978.158 .0280877
978.768 .0280809
979.377 .0280746
979.985 .0280678
980.594 .0280609
981.202 .0280537
981.809 .0280453
982.417 .0280361
983.024 .0280264
983.631 .0280157
984.237 .0280050
984.843 .0279941
985.449 .0279834
986.054 .0279731
986.659 .0279634
987.264 .0279540
987.868 .0279448
988.472 .0279358
989.076 .0279267
989.679 .0279173
990.282 .0279084
990.885 .0278999
991.487 .0278921
992.090 .0278855
992.691 .0278798
993.293 .0278746
993.894 .0278700
994.495 .0278656
995.095 .0278611
995.696 .0278566
996.296 .0278514
996.895 .0278452
997.494 .0278388
998.093 .0278325
998.692 .0278257
999.291 .0278194
999.889 .0278130
1000.487 .0278065
1001.084 .0277996
1001.681 .0277922
1002.278 .0277839
1002.875 .0277753
1003.471 .0277663
1004.067 .0277569
1004.663 .0277473
1005.258 .0277385
1005.854 .0277298
1006.449 .0277219
1007.043 .0277151
1007.638 .0277084
1008.232 .0277022
1008.826 .0276973
1009.419 .0276928
1010.012 .0276894
1010.605 .0276869
1011.198 .0276853
1011.791 .0276838
1012.383 .0276824
1012.975 .0276802
1013.566 .0276765
1014.158 .0276718
1014.749 .0276654
1015.340 .0276572
1015.931 .0276487
1016.521 .0276402
1017.111 .0276317
1017.701 .0276237
1018.291 .0276166
1018.880 .0276091
1019.470 .0276015
1020.059 .0275931
1020.647 .0275838
1021.236 .0275734
1021.824 .0275626
1022.412 .0275517
1023.000 .0275415
1023.588 .0275334
1024.175 .0275271
1024.762 .0275226
1025.349 .0275202
1025.936 .0275186
1026.523 .0275176
1027.109 .0275174
1027.695 .0275175
1028.281 .0275171
1028.867 .0275168
1029.452 .0275164
1030.038 .0275165
1030.623 .0275167
1031.208 .0275174
1031.792 .0275186
1032.377 .0275200
1032.961 .0275212
1033.546 .0275222
1034.130 .0275236
1034.714 .0275253
1035.297 .0275266
1035.881 .0275276
1036.464 .0275283
1037.047 .0275289
1037.630 .0275285
1038.213 .0275275
1038.796 .0275267
1039.378 .0275259
1039.961 .0275248
1040.543 .0275244
1041.125 .0275241
1041.707 .0275239
1042.289 .0275233
1042.871 .0275226
1043.452 .0275214
1044.034 .0275200
1044.615 .0275186
1045.196 .0275178
1045.777 .0275181
1046.358 .0275191
1046.939 .0275202
1047.520 .0275221
1048.101 .0275239
1048.681 .0275244
1049.262 .0275236
1049.842 .0275214
1050.422 .0275179
1051.002 .0275138
1051.582 .0275095
1052.162 .0275061
1052.742 .0275037
1053.322 .0275018
1053.902 .0275006
1054.482 .0274991
1055.061 .0274977
1055.641 .0274944
1056.220 .0274893
1056.800 .0274828
1057.379 .0274747
1057.958 .0274654
1058.538 .0274556
1059.117 .0274459
1059.696 .0274368
1060.275 .0274277
1060.854 .0274187
1061.433 .0274100
1062.012 .0274019
1062.592 .0273942
1063.171 .0273877
1063.750 .0273814
1064.329 .0273771
1064.908 .0273729
1065.487 .0273694
1066.066 .0273674
1066.645 .0273656
1067.224 .0273649
1067.803 .0273635
1068.382 .0273618
1068.961 .0273591
1069.540 .0273547
1070.119 .0273488
1070.698 .0273412
1071.278 .0273326
1071.857 .0273230
1072.436 .0273129
1073.016 .0273036
1073.595 .0272949
1074.175 .0272870
1074.754 .0272807
1075.334 .0272748
1075.913 .0272676
1076.493 .0272600
1077.073 .0272514
1077.653 .0272421
1078.233 .0272326
1078.813 .0272236
1079.393 .0272163
1079.974 .0272114
1080.554 .0272095
1081.135 .0272094
1081.716 .0272109
1082.296 .0272140
1082.877 .0272159
1083.458 .0272156
1084.040 .0272134
1084.621 .0272082
1085.202 .0272017
1085.784 .0271957
1086.366 .0271904
1086.948 .0271870
1087.530 .0271877
1088.112 .0271909
1088.695 .0271956
1089.277 .0272011
1089.860 .0272054
1090.443 .0272061
1091.026 .0272038
1091.610 .0271985
1092.193 .0271912
1092.777 .0271851
1093.361 .0271819
1093.946 .0271813
1094.530 .0271851
1095.115 .0271916
1095.700 .0271989
1096.285 .0272069
1096.871 .0272135
1097.456 .0272172
1098.042 .0272186
1098.628 .0272180
1099.215 .0272167
1099.802 .0272167
1100.389 .0272198
1100.976 .0272252
1101.564 .0272335
1102.152 .0272417
1102.740 .0272484
1103.329 .0272534
1103.917 .0272549
1104.507 .0272526
1105.096 .0272472
1105.686 .0272403
1106.276 .0272315
1106.867 .0272230
1107.457 .0272146
1108.049 .0272083
1108.640 .0272043
1109.232 .0272004
1109.825 .0271975
1110.417 .0271956
1111.010 .0271938
1111.604 .0271922
1112.198 .0271913
1112.792 .0271921
1113.387 .0271930
1113.982 .0271975
1114.577 .0272051
1115.173 .0272197
1115.769 .0272399
1116.366 .0272639
1116.963 .0272908
1117.561 .0273207
1118.159 .0273500
1118.758 .0273767
1119.357 .0274017
1119.957 .0274245
1120.557 .0274454
1121.157 .0274685
1121.758 .0274935
1122.360 .0275228
1122.962 .0275563
1123.564 .0275947
1124.167 .0276324
1124.771 .0276680
1125.375 .0276986
1125.980 .0277242
1126.585 .0277440
1127.191 .0277581
1127.797 .0277696
1128.404 .0277814
1129.012 .0277983
1129.620 .0278224
1130.229 .0278523
1130.838 .0278901
1131.448 .0279294
1132.058 .0279716
1132.669 .0280132
1133.281 .0280542
1133.894 .0280932
1134.507 .0281306
1135.120 .0281729
1135.735 .0282165
1136.350 .0282609
1136.965 .0283108
1137.582 .0283656
1138.199 .0284276
1138.816 .0284879
1139.435 .0285514
1140.054 .0286151
1140.674 .0286759
1141.294 .0287385
1141.916 .0287945
1142.538 .0288940
1143.160 .0288999
1143.784 .0288761
1144.408 .0290882
1145.033 .0290310
