Measurement Sequence started on: 14-45-04-498
Integration time: 36
Scans to Average: 2 
>>>>>Begin Spectral Data<<<<<
433.946 .0495706
434.870 .0513153
435.793 .0493599
436.715 .0480829
437.635 .0483626
438.555 .0479798
439.473 .0475947
440.389 .0472082
441.305 .0469292
442.219 .0467153
443.132 .0465312
444.044 .0463951
444.954 .0463073
445.863 .0462400
446.771 .0461814
447.678 .0461141
448.584 .0460500
449.488 .0459802
450.391 .0459154
451.293 .0458643
452.194 .0458376
453.094 .0458252
453.992 .0458207
454.890 .0458173
455.786 .0458071
456.681 .0457767
457.575 .0457274
458.468 .0456508
459.360 .0455616
460.250 .0454700
461.140 .0453798
462.028 .0452965
462.915 .0452264
463.801 .0451599
464.687 .0450935
465.571 .0450222
466.454 .0449362
467.335 .0448387
468.216 .0447351
469.096 .0446313
469.975 .0445340
470.853 .0444433
471.729 .0443623
472.605 .0442909
473.479 .0442279
474.353 .0441673
475.226 .0441033
476.097 .0440361
476.968 .0439620
477.838 .0438797
478.706 .0437920
479.574 .0437056
480.441 .0436259
481.306 .0435555
482.171 .0434921
483.035 .0434364
483.898 .0433860
484.760 .0433387
485.621 .0432974
486.481 .0432572
487.340 .0432204
488.198 .0431876
489.055 .0431560
489.912 .0431269
490.767 .0431012
491.622 .0430801
492.476 .0430649
493.329 .0430541
494.180 .0430472
495.032 .0430435
495.882 .0430427
496.731 .0430421
497.580 .0430403
498.427 .0430336
499.274 .0430204
500.120 .0429973
500.965 .0429663
501.809 .0429278
502.653 .0428848
503.495 .0428363
504.337 .0427831
505.178 .0427268
506.018 .0426652
506.858 .0425987
507.696 .0425321
508.534 .0424607
509.371 .0423836
510.208 .0423058
511.043 .0422275
511.878 .0421493
512.712 .0420726
513.545 .0419958
514.377 .0419206
515.209 .0418483
516.040 .0417778
516.870 .0417110
517.699 .0416577
518.528 .0416152
519.356 .0415840
520.183 .0415661
521.010 .0415595
521.836 .0415607
522.661 .0415674
523.485 .0415744
524.309 .0415736
525.132 .0415692
525.954 .0415586
526.776 .0415449
527.597 .0415337
528.417 .0415197
529.237 .0415041
530.056 .0414823
530.874 .0414501
531.692 .0414025
532.508 .0413437
533.325 .0412759
534.140 .0411964
534.955 .0411066
535.770 .0410109
536.583 .0409155
537.397 .0408211
538.209 .0407286
539.021 .0406345
539.832 .0405368
540.643 .0404365
541.453 .0403362
542.262 .0402410
543.071 .0401531
543.879 .0400770
544.687 .0400140
545.494 .0399622
546.300 .0399248
547.106 .0398974
547.911 .0398800
548.716 .0398694
549.520 .0398588
550.323 .0398406
551.126 .0398188
551.929 .0397944
552.731 .0397655
553.532 .0397324
554.332 .0397015
555.133 .0396693
555.932 .0396402
556.731 .0396134
557.530 .0395904
558.328 .0395679
559.125 .0395459
559.922 .0395212
560.719 .0394911
561.515 .0394587
562.310 .0394218
563.105 .0393825
563.899 .0393466
564.693 .0393113
565.487 .0392779
566.280 .0392478
567.072 .0392238
567.864 .0392003
568.655 .0391761
569.446 .0391510
570.236 .0391215
571.026 .0390864
571.816 .0390462
572.605 .0390026
573.393 .0389571
574.181 .0389115
574.969 .0388644
575.756 .0388169
576.543 .0387702
577.329 .0387239
578.115 .0386779
578.900 .0386330
579.685 .0385891
580.469 .0385464
581.253 .0385064
582.036 .0384689
582.820 .0384321
583.602 .0383965
584.384 .0383615
585.166 .0383254
585.947 .0382873
586.728 .0382483
587.509 .0382095
588.289 .0381717
589.069 .0381352
589.848 .0381006
590.627 .0380669
591.405 .0380343
592.183 .0380015
592.961 .0379693
593.738 .0379365
594.515 .0379023
595.291 .0378682
596.067 .0378342
596.843 .0378002
597.618 .0377676
598.393 .0377366
599.167 .0377080
599.941 .0376812
600.715 .0376550
601.488 .0376295
602.261 .0376058
603.034 .0375829
603.806 .0375615
604.578 .0375413
605.349 .0375225
606.121 .0375043
606.891 .0374863
607.662 .0374691
608.432 .0374516
609.201 .0374348
609.971 .0374174
610.740 .0373992
611.508 .0373808
612.277 .0373611
613.045 .0373411
613.812 .0373204
614.579 .0372989
615.346 .0372760
616.113 .0372519
616.879 .0372266
617.645 .0372007
618.411 .0371745
619.176 .0371476
619.941 .0371203
620.705 .0370927
621.470 .0370647
622.233 .0370362
622.997 .0370083
623.760 .0369813
624.523 .0369548
625.286 .0369296
626.048 .0369048
626.810 .0368809
627.572 .0368569
628.333 .0368332
629.095 .0368091
629.855 .0367845
630.616 .0367597
631.376 .0367342
632.136 .0367090
632.895 .0366841
633.655 .0366591
634.414 .0366349
635.172 .0366109
635.931 .0365869
636.689 .0365621
637.447 .0365373
638.204 .0365117
638.962 .0364852
639.718 .0364582
640.475 .0364308
641.231 .0364027
641.988 .0363740
642.743 .0363451
643.499 .0363162
644.254 .0362882
645.009 .0362609
645.764 .0362351
646.518 .0362120
647.272 .0361908
648.026 .0361712
648.780 .0361530
649.533 .0361365
650.286 .0361205
651.039 .0361043
651.792 .0360877
652.544 .0360709
653.296 .0360536
654.048 .0360363
654.799 .0360192
655.550 .0360023
656.301 .0359855
657.052 .0359682
657.802 .0359504
658.552 .0359322
659.302 .0359124
660.052 .0358915
660.801 .0358697
661.550 .0358469
662.299 .0358234
663.048 .0357996
663.796 .0357764
664.544 .0357535
665.292 .0357308
666.040 .0357088
666.787 .0356873
667.534 .0356664
668.281 .0356457
669.028 .0356247
669.774 .0356044
670.521 .0355840
671.266 .0355634
672.012 .0355427
672.758 .0355220
673.503 .0355012
674.248 .0354799
674.992 .0354584
675.737 .0354370
676.481 .0354156
677.225 .0353947
677.969 .0353739
678.712 .0353538
679.455 .0353341
680.199 .0353152
680.941 .0352968
681.684 .0352792
682.426 .0352615
683.168 .0352442
683.910 .0352272
684.652 .0352103
685.393 .0351934
686.134 .0351768
686.875 .0351608
687.616 .0351454
688.356 .0351303
689.097 .0351158
689.837 .0351020
690.576 .0350894
691.316 .0350770
692.055 .0350650
692.794 .0350538
693.533 .0350432
694.272 .0350330
695.010 .0350232
695.748 .0350136
696.486 .0350040
697.224 .0349945
697.962 .0349842
698.699 .0349733
699.436 .0349623
700.173 .0349510
700.909 .0349394
701.646 .0349283
702.382 .0349175
703.118 .0349067
703.853 .0348964
704.589 .0348863
705.324 .0348756
706.059 .0348650
706.794 .0348538
707.529 .0348421
708.263 .0348303
708.997 .0348183
709.731 .0348061
710.465 .0347945
711.198 .0347833
711.931 .0347715
712.664 .0347592
713.397 .0347466
714.130 .0347325
714.862 .0347175
715.594 .0347012
716.326 .0346840
717.058 .0346663
717.789 .0346484
718.520 .0346299
719.251 .0346119
719.982 .0345943
720.713 .0345766
721.443 .0345589
722.173 .0345407
722.903 .0345222
723.633 .0345032
724.362 .0344832
725.091 .0344622
725.820 .0344401
726.549 .0344175
727.278 .0343940
728.006 .0343704
728.734 .0343470
729.462 .0343240
730.190 .0343023
730.917 .0342812
731.644 .0342612
732.371 .0342422
733.098 .0342239
733.825 .0342063
734.551 .0341892
735.277 .0341719
736.003 .0341548
736.728 .0341384
737.454 .0341228
738.179 .0341077
738.904 .0340931
739.629 .0340789
740.353 .0340648
741.077 .0340508
741.801 .0340364
742.525 .0340213
743.249 .0340061
743.972 .0339903
744.695 .0339742
745.418 .0339584
746.141 .0339428
746.863 .0339284
747.585 .0339155
748.307 .0339041
749.029 .0338938
749.750 .0338849
750.472 .0338775
751.193 .0338709
751.913 .0338652
752.634 .0338601
753.354 .0338552
754.074 .0338512
754.794 .0338471
755.514 .0338430
756.233 .0338388
756.952 .0338346
757.671 .0338299
758.390 .0338246
759.108 .0338184
759.826 .0338115
760.544 .0338037
761.262 .0337959
761.979 .0337876
762.697 .0337793
763.414 .0337714
764.130 .0337639
764.847 .0337569
765.563 .0337509
766.279 .0337455
766.995 .0337410
767.710 .0337370
768.426 .0337334
769.141 .0337295
769.855 .0337252
770.570 .0337204
771.284 .0337153
771.998 .0337100
772.712 .0337043
773.426 .0336986
774.139 .0336927
774.852 .0336866
775.565 .0336797
776.277 .0336723
776.990 .0336639
777.702 .0336542
778.414 .0336434
779.125 .0336314
779.836 .0336190
780.547 .0336071
781.258 .0335957
781.969 .0335857
782.679 .0335766
783.389 .0335682
784.099 .0335594
784.808 .0335503
785.517 .0335402
786.226 .0335294
786.935 .0335176
787.643 .0335055
788.352 .0334931
789.060 .0334811
789.767 .0334689
790.475 .0334559
791.182 .0334418
791.889 .0334261
792.595 .0334081
793.301 .0333880
794.008 .0333661
794.713 .0333437
795.419 .0333214
796.124 .0333004
796.829 .0332805
797.534 .0332619
798.238 .0332444
798.942 .0332279
799.646 .0332116
800.350 .0331956
801.053 .0331795
801.756 .0331636
802.459 .0331485
803.162 .0331343
803.864 .0331213
804.566 .0331096
805.267 .0330988
805.969 .0330886
806.670 .0330784
807.371 .0330684
808.071 .0330585
808.772 .0330491
809.472 .0330400
810.171 .0330315
810.871 .0330234
811.570 .0330161
812.269 .0330090
812.967 .0330024
813.666 .0329959
814.364 .0329895
815.061 .0329836
815.759 .0329786
816.456 .0329741
817.153 .0329707
817.849 .0329673
818.545 .0329639
819.241 .0329593
819.937 .0329538
820.632 .0329469
821.327 .0329388
822.022 .0329297
822.717 .0329198
823.411 .0329094
824.105 .0328987
824.798 .0328877
825.491 .0328764
826.184 .0328644
826.877 .0328519
827.569 .0328380
828.261 .0328241
828.953 .0328099
829.645 .0327964
830.336 .0327837
831.027 .0327725
831.717 .0327625
832.407 .0327532
833.097 .0327449
833.787 .0327372
834.476 .0327297
835.165 .0327228
835.854 .0327163
836.542 .0327109
837.230 .0327060
837.918 .0327026
838.605 .0327000
839.292 .0326986
839.979 .0326974
840.665 .0326960
841.352 .0326942
842.037 .0326917
842.723 .0326886
843.408 .0326843
844.093 .0326794
844.777 .0326742
845.462 .0326679
846.145 .0326608
846.829 .0326527
847.512 .0326438
848.195 .0326336
848.878 .0326221
849.560 .0326091
850.242 .0325947
850.923 .0325789
851.605 .0325614
852.286 .0325425
852.966 .0325225
853.646 .0325016
854.326 .0324802
855.006 .0324592
855.685 .0324383
856.364 .0324179
857.043 .0323983
857.721 .0323795
858.399 .0323614
859.077 .0323434
859.754 .0323251
860.431 .0323068
861.107 .0322884
861.784 .0322698
862.459 .0322517
863.135 .0322340
863.810 .0322169
864.485 .0322003
865.160 .0321844
865.834 .0321689
866.508 .0321535
867.181 .0321381
867.854 .0321221
868.527 .0321054
869.199 .0320877
869.872 .0320693
870.543 .0320506
871.215 .0320315
871.886 .0320123
872.557 .0319929
873.227 .0319735
873.897 .0319539
874.567 .0319340
875.236 .0319139
875.905 .0318937
876.573 .0318729
877.242 .0318516
877.909 .0318302
878.577 .0318088
879.244 .0317876
879.911 .0317669
880.577 .0317470
881.243 .0317277
881.909 .0317093
882.575 .0316917
883.240 .0316750
883.904 .0316587
884.569 .0316427
885.232 .0316262
885.896 .0316095
886.559 .0315928
887.222 .0315756
887.885 .0315586
888.547 .0315420
889.208 .0315258
889.870 .0315103
890.531 .0314956
891.192 .0314819
891.852 .0314692
892.512 .0314578
893.171 .0314474
893.830 .0314386
894.489 .0314314
895.148 .0314256
895.806 .0314218
896.464 .0314201
897.121 .0314200
897.778 .0314208
898.434 .0314230
899.091 .0314257
899.747 .0314285
900.402 .0314315
901.057 .0314340
901.712 .0314364
902.366 .0314383
903.020 .0314392
903.674 .0314392
904.327 .0314383
904.980 .0314360
905.633 .0314322
906.285 .0314274
906.936 .0314217
907.588 .0314150
908.239 .0314083
908.889 .0314019
909.540 .0313956
910.190 .0313897
910.839 .0313846
911.488 .0313800
912.137 .0313756
912.785 .0313707
913.433 .0313657
914.081 .0313602
914.728 .0313546
915.375 .0313481
916.021 .0313414
916.668 .0313348
917.313 .0313285
917.959 .0313221
918.604 .0313163
919.248 .0313104
919.892 .0313042
920.536 .0312975
921.180 .0312900
921.823 .0312816
922.465 .0312718
923.108 .0312609
923.750 .0312492
924.391 .0312365
925.032 .0312234
925.673 .0312095
926.313 .0311955
926.953 .0311810
927.593 .0311656
928.232 .0311489
928.871 .0311311
929.510 .0311122
930.148 .0310915
930.786 .0310695
931.423 .0310462
932.060 .0310222
932.697 .0309971
933.333 .0309716
933.969 .0309450
934.604 .0309180
935.239 .0308910
935.874 .0308635
936.508 .0308357
937.142 .0308082
937.776 .0307801
938.409 .0307520
939.042 .0307227
939.674 .0306923
940.306 .0306604
940.938 .0306278
941.569 .0305943
942.200 .0305600
942.830 .0305256
943.460 .0304914
944.090 .0304571
944.720 .0304230
945.349 .0303885
945.977 .0303533
946.606 .0303174
947.233 .0302807
947.861 .0302425
948.488 .0302036
949.115 .0301646
949.741 .0301258
950.367 .0300878
950.993 .0300506
951.618 .0300142
952.243 .0299786
952.868 .0299437
953.492 .0299083
954.115 .0298726
954.739 .0298369
955.362 .0298006
955.984 .0297643
956.607 .0297287
957.229 .0296942
957.850 .0296615
958.471 .0296309
959.092 .0296020
959.713 .0295746
960.333 .0295492
960.952 .0295249
961.572 .0295016
962.191 .0294793
962.809 .0294581
963.428 .0294377
964.045 .0294181
964.663 .0293994
965.280 .0293810
965.897 .0293641
966.513 .0293482
967.129 .0293324
967.745 .0293169
968.361 .0293012
968.976 .0292848
969.590 .0292677
970.205 .0292494
970.818 .0292305
971.432 .0292105
972.045 .0291909
972.658 .0291712
973.271 .0291520
973.883 .0291341
974.495 .0291171
975.106 .0291010
975.717 .0290859
976.328 .0290706
976.938 .0290559
977.548 .0290419
978.158 .0290287
978.768 .0290160
979.377 .0290048
979.985 .0289951
980.594 .0289868
981.202 .0289796
981.809 .0289732
982.417 .0289675
983.024 .0289627
983.631 .0289585
984.237 .0289541
984.843 .0289506
985.449 .0289471
986.054 .0289441
986.659 .0289419
987.264 .0289405
987.868 .0289397
988.472 .0289399
989.076 .0289410
989.679 .0289430
990.282 .0289459
990.885 .0289497
991.487 .0289542
992.090 .0289596
992.691 .0289655
993.293 .0289724
993.894 .0289798
994.495 .0289882
995.095 .0289975
995.696 .0290075
996.296 .0290177
996.895 .0290278
997.494 .0290374
998.093 .0290466
998.692 .0290550
999.291 .0290626
999.889 .0290690
1000.487 .0290750
1001.084 .0290802
1001.681 .0290849
1002.278 .0290890
1002.875 .0290933
1003.471 .0290969
1004.067 .0291000
1004.663 .0291029
1005.258 .0291051
1005.854 .0291070
1006.449 .0291091
1007.043 .0291117
1007.638 .0291152
1008.232 .0291199
1008.826 .0291267
1009.419 .0291355
1010.012 .0291466
1010.605 .0291591
1011.198 .0291723
1011.791 .0291858
1012.383 .0291989
1012.975 .0292109
1013.566 .0292222
1014.158 .0292333
1014.749 .0292441
1015.340 .0292556
1015.931 .0292676
1016.521 .0292800
1017.111 .0292927
1017.701 .0293048
1018.291 .0293157
1018.880 .0293244
1019.470 .0293315
1020.059 .0293367
1020.647 .0293409
1021.236 .0293448
1021.824 .0293488
1022.412 .0293545
1023.000 .0293614
1023.588 .0293700
1024.175 .0293803
1024.762 .0293921
1025.349 .0294048
1025.936 .0294183
1026.523 .0294325
1027.109 .0294469
1027.695 .0294617
1028.281 .0294773
1028.867 .0294930
1029.452 .0295091
1030.038 .0295257
1030.623 .0295421
1031.208 .0295577
1031.792 .0295733
1032.377 .0295871
1032.961 .0295998
1033.546 .0296109
1034.130 .0296203
1034.714 .0296267
1035.297 .0296313
1035.881 .0296340
1036.464 .0296348
1037.047 .0296352
1037.630 .0296352
1038.213 .0296342
1038.796 .0296340
1039.378 .0296335
1039.961 .0296324
1040.543 .0296308
1041.125 .0296290
1041.707 .0296253
1042.289 .0296213
1042.871 .0296164
1043.452 .0296111
1044.034 .0296059
1044.615 .0296020
1045.196 .0295975
1045.777 .0295936
1046.358 .0295891
1046.939 .0295835
1047.520 .0295763
1048.101 .0295687
1048.681 .0295594
1049.262 .0295501
1049.842 .0295400
1050.422 .0295306
1051.002 .0295218
1051.582 .0295146
1052.162 .0295080
1052.742 .0295023
1053.322 .0294960
1053.902 .0294887
1054.482 .0294798
1055.061 .0294706
1055.641 .0294600
1056.220 .0294502
1056.800 .0294403
1057.379 .0294310
1057.958 .0294226
1058.538 .0294144
1059.117 .0294070
1059.696 .0294003
1060.275 .0293929
1060.854 .0293843
1061.433 .0293748
1062.012 .0293643
1062.592 .0293527
1063.171 .0293400
1063.750 .0293265
1064.329 .0293119
1064.908 .0292957
1065.487 .0292782
1066.066 .0292601
1066.645 .0292418
1067.224 .0292243
1067.803 .0292061
1068.382 .0291882
1068.961 .0291700
1069.540 .0291513
1070.119 .0291317
1070.698 .0291122
1071.278 .0290922
1071.857 .0290726
1072.436 .0290523
1073.016 .0290345
1073.595 .0290177
1074.175 .0290046
1074.754 .0289935
1075.334 .0289833
1075.913 .0289737
1076.493 .0289643
1077.073 .0289540
1077.653 .0289436
1078.233 .0289309
1078.813 .0289179
1079.393 .0289041
1079.974 .0288921
1080.554 .0288802
1081.135 .0288698
1081.716 .0288617
1082.296 .0288566
1082.877 .0288528
1083.458 .0288494
1084.040 .0288448
1084.621 .0288405
1085.202 .0288358
1085.784 .0288283
1086.366 .0288183
1086.948 .0288072
1087.530 .0287956
1088.112 .0287842
1088.695 .0287725
1089.277 .0287627
1089.860 .0287538
1090.443 .0287470
1091.026 .0287407
1091.610 .0287338
1092.193 .0287264
1092.777 .0287172
1093.361 .0287070
1093.946 .0286954
1094.530 .0286825
1095.115 .0286691
1095.700 .0286575
1096.285 .0286502
1096.871 .0286448
1097.456 .0286426
1098.042 .0286456
1098.628 .0286509
1099.215 .0286560
1099.802 .0286601
1100.389 .0286630
1100.976 .0286631
1101.564 .0286595
1102.152 .0286516
1102.740 .0286414
1103.329 .0286319
1103.917 .0286229
1104.507 .0286148
1105.096 .0286107
1105.686 .0286097
1106.276 .0286074
1106.867 .0286052
1107.457 .0286019
1108.049 .0285958
1108.640 .0285888
1109.232 .0285806
1109.825 .0285744
1110.417 .0285714
1111.010 .0285732
1111.604 .0285795
1112.198 .0285898
1112.792 .0286041
1113.387 .0286183
1113.982 .0286325
1114.577 .0286476
1115.173 .0286624
1115.769 .0286769
1116.366 .0286925
1116.963 .0287103
1117.561 .0287281
1118.159 .0287463
1118.758 .0287636
1119.357 .0287794
1119.957 .0287916
1120.557 .0288010
1121.157 .0288051
1121.758 .0288085
1122.360 .0288137
1122.962 .0288186
1123.564 .0288256
1124.167 .0288358
1124.771 .0288477
1125.375 .0288612
1125.980 .0288765
1126.585 .0288934
1127.191 .0289111
1127.797 .0289351
1128.404 .0289639
1129.012 .0290015
1129.620 .0290482
1130.229 .0291053
1130.838 .0291675
1131.448 .0292339
1132.058 .0292988
1132.669 .0293606
1133.281 .0294186
1133.894 .0294738
1134.507 .0295255
1135.120 .0295770
1135.735 .0296327
1136.350 .0296963
1136.965 .0297643
1137.582 .0298397
1138.199 .0299150
1138.816 .0299911
1139.435 .0300620
1140.054 .0301319
1140.674 .0302033
1141.294 .0302743
1141.916 .0303330
1142.538 .0303003
1143.160 .0304966
1143.784 .0307384
1144.408 .0307205
1145.033 .0303114
