Measurement Sequence started on: 14-45-04-498
Integration time: 36
Scans to Average: 2 
>>>>>Begin Spectral Data<<<<<
433.946 .0344995
434.870 .0434088
435.793 .0432513
436.715 .0425324
437.635 .0408948
438.555 .0406671
439.473 .0405266
440.389 .0401287
441.305 .0398038
442.219 .0395552
443.132 .0393896
444.044 .0392584
444.954 .0391527
445.863 .0390751
446.771 .0390142
447.678 .0389445
448.584 .0388915
449.488 .0388380
450.391 .0387809
451.293 .0387292
452.194 .0386797
453.094 .0386210
453.992 .0385572
454.890 .0384926
455.786 .0384228
456.681 .0383400
457.575 .0382540
458.468 .0381604
459.360 .0380658
460.250 .0379723
461.140 .0378772
462.028 .0377893
462.915 .0377136
463.801 .0376346
464.687 .0375489
465.571 .0374615
466.454 .0373695
467.335 .0372721
468.216 .0371748
469.096 .0370784
469.975 .0369850
470.853 .0368974
471.729 .0368144
472.605 .0367321
473.479 .0366556
474.353 .0365789
475.226 .0365011
476.097 .0364242
476.968 .0363456
477.838 .0362650
478.706 .0361917
479.574 .0361275
480.441 .0360728
481.306 .0360279
482.171 .0359923
483.035 .0359645
483.898 .0359455
484.760 .0359285
485.621 .0359145
486.481 .0359026
487.340 .0358928
488.198 .0358796
489.055 .0358671
489.912 .0358542
490.767 .0358405
491.622 .0358276
492.476 .0358131
493.329 .0357951
494.180 .0357754
495.032 .0357511
495.882 .0357222
496.731 .0356887
497.580 .0356522
498.427 .0356085
499.274 .0355642
500.120 .0355192
500.965 .0354741
501.809 .0354312
502.653 .0353897
503.495 .0353455
504.337 .0352961
505.178 .0352429
506.018 .0351818
506.858 .0351119
507.696 .0350388
508.534 .0349609
509.371 .0348823
510.208 .0348077
511.043 .0347369
511.878 .0346692
512.712 .0346057
513.545 .0345423
514.377 .0344762
515.209 .0344063
516.040 .0343349
516.870 .0342617
517.699 .0341938
518.528 .0341351
519.356 .0340847
520.183 .0340470
521.010 .0340248
521.836 .0340136
522.661 .0340078
523.485 .0340041
524.309 .0339988
525.132 .0339844
525.954 .0339602
526.776 .0339227
527.597 .0338785
528.417 .0338249
529.237 .0337691
530.056 .0337077
530.874 .0336439
531.692 .0335785
532.508 .0335090
533.325 .0334381
534.140 .0333617
534.955 .0332780
535.770 .0331888
536.583 .0330974
537.397 .0330139
538.209 .0329287
539.021 .0328524
539.832 .0327825
540.643 .0327212
541.453 .0326637
542.262 .0326126
543.071 .0325682
543.879 .0325309
544.687 .0325025
545.494 .0324802
546.300 .0324658
547.106 .0324609
547.911 .0324619
548.716 .0324716
549.520 .0324826
550.323 .0324963
551.126 .0325075
551.929 .0325222
552.731 .0325366
553.532 .0325491
554.332 .0325659
555.133 .0325843
555.932 .0326043
556.731 .0326236
557.530 .0326427
558.328 .0326614
559.125 .0326799
559.922 .0326967
560.719 .0327073
561.515 .0327155
562.310 .0327191
563.105 .0327177
563.899 .0327133
564.693 .0327057
565.487 .0326921
566.280 .0326726
567.072 .0326494
567.864 .0326167
568.655 .0325767
569.446 .0325314
570.236 .0324790
571.026 .0324189
571.816 .0323522
572.605 .0322825
573.393 .0322115
574.181 .0321423
574.969 .0320753
575.756 .0320146
576.543 .0319598
577.329 .0319112
578.115 .0318688
578.900 .0318331
579.685 .0318040
580.469 .0317794
581.253 .0317581
582.036 .0317392
582.820 .0317201
583.602 .0317035
584.384 .0316872
585.166 .0316738
585.947 .0316611
586.728 .0316496
587.509 .0316402
588.289 .0316326
589.069 .0316236
589.848 .0316140
590.627 .0316017
591.405 .0315869
592.183 .0315689
592.961 .0315481
593.738 .0315251
594.515 .0314996
595.291 .0314726
596.067 .0314451
596.843 .0314163
597.618 .0313872
598.393 .0313573
599.167 .0313274
599.941 .0312974
600.715 .0312667
601.488 .0312363
602.261 .0312069
603.034 .0311782
603.806 .0311510
604.578 .0311246
605.349 .0311002
606.121 .0310780
606.891 .0310577
607.662 .0310395
608.432 .0310235
609.201 .0310094
609.971 .0309969
610.740 .0309855
611.508 .0309749
612.277 .0309644
613.045 .0309538
613.812 .0309429
614.579 .0309313
615.346 .0309184
616.113 .0309049
616.879 .0308903
617.645 .0308751
618.411 .0308594
619.176 .0308432
619.941 .0308261
620.705 .0308086
621.470 .0307908
622.233 .0307723
622.997 .0307531
623.760 .0307332
624.523 .0307122
625.286 .0306903
626.048 .0306673
626.810 .0306432
627.572 .0306180
628.333 .0305932
629.095 .0305682
629.855 .0305434
630.616 .0305191
631.376 .0304957
632.136 .0304734
632.895 .0304526
633.655 .0304332
634.414 .0304146
635.172 .0303975
635.931 .0303819
636.689 .0303669
637.447 .0303530
638.204 .0303397
638.962 .0303270
639.718 .0303150
640.475 .0303032
641.231 .0302911
641.988 .0302791
642.743 .0302676
643.499 .0302564
644.254 .0302443
645.009 .0302321
645.764 .0302192
646.518 .0302060
647.272 .0301921
648.026 .0301768
648.780 .0301613
649.533 .0301457
650.286 .0301296
651.039 .0301132
651.792 .0300970
652.544 .0300817
653.296 .0300669
654.048 .0300535
654.799 .0300406
655.550 .0300282
656.301 .0300158
657.052 .0300034
657.802 .0299905
658.552 .0299774
659.302 .0299642
660.052 .0299508
660.801 .0299372
661.550 .0299237
662.299 .0299097
663.048 .0298962
663.796 .0298829
664.544 .0298699
665.292 .0298565
666.040 .0298434
666.787 .0298306
667.534 .0298183
668.281 .0298066
669.028 .0297955
669.774 .0297847
670.521 .0297740
671.266 .0297634
672.012 .0297525
672.758 .0297416
673.503 .0297309
674.248 .0297200
674.992 .0297094
675.737 .0296989
676.481 .0296891
677.225 .0296796
677.969 .0296702
678.712 .0296612
679.455 .0296514
680.199 .0296412
680.941 .0296299
681.684 .0296177
682.426 .0296050
683.168 .0295915
683.910 .0295778
684.652 .0295640
685.393 .0295505
686.134 .0295376
686.875 .0295250
687.616 .0295127
688.356 .0295006
689.097 .0294881
689.837 .0294750
690.576 .0294613
691.316 .0294469
692.055 .0294318
692.794 .0294164
693.533 .0294011
694.272 .0293862
695.010 .0293718
695.748 .0293583
696.486 .0293454
697.224 .0293334
697.962 .0293219
698.699 .0293110
699.436 .0293005
700.173 .0292907
700.909 .0292815
701.646 .0292733
702.382 .0292655
703.118 .0292583
703.853 .0292515
704.589 .0292451
705.324 .0292388
706.059 .0292327
706.794 .0292264
707.529 .0292202
708.263 .0292138
708.997 .0292073
709.731 .0291998
710.465 .0291918
711.198 .0291828
711.931 .0291726
712.664 .0291607
713.397 .0291476
714.130 .0291329
714.862 .0291178
715.594 .0291025
716.326 .0290872
717.058 .0290722
717.789 .0290581
718.520 .0290439
719.251 .0290295
719.982 .0290147
720.713 .0289993
721.443 .0289828
722.173 .0289661
722.903 .0289485
723.633 .0289309
724.362 .0289139
725.091 .0288978
725.820 .0288823
726.549 .0288683
727.278 .0288544
728.006 .0288408
728.734 .0288272
729.462 .0288133
730.190 .0287986
730.917 .0287840
731.644 .0287696
732.371 .0287554
733.098 .0287424
733.825 .0287309
734.551 .0287208
735.277 .0287125
736.003 .0287051
736.728 .0286980
737.454 .0286913
738.179 .0286846
738.904 .0286773
739.629 .0286701
740.353 .0286628
741.077 .0286555
741.801 .0286483
742.525 .0286407
743.249 .0286328
743.972 .0286245
744.695 .0286158
745.418 .0286058
746.141 .0285951
746.863 .0285835
747.585 .0285712
748.307 .0285587
749.029 .0285458
749.750 .0285326
750.472 .0285198
751.193 .0285068
751.913 .0284935
752.634 .0284804
753.354 .0284676
754.074 .0284554
754.794 .0284444
755.514 .0284343
756.233 .0284250
756.952 .0284167
757.671 .0284096
758.390 .0284025
759.108 .0283956
759.826 .0283888
760.544 .0283817
761.262 .0283749
761.979 .0283680
762.697 .0283611
763.414 .0283544
764.130 .0283481
764.847 .0283419
765.563 .0283355
766.279 .0283289
766.995 .0283221
767.710 .0283152
768.426 .0283086
769.141 .0283025
769.855 .0282966
770.570 .0282914
771.284 .0282867
771.998 .0282819
772.712 .0282770
773.426 .0282723
774.139 .0282680
774.852 .0282634
775.565 .0282588
776.277 .0282539
776.990 .0282488
777.702 .0282435
778.414 .0282374
779.125 .0282307
779.836 .0282233
780.547 .0282147
781.258 .0282049
781.969 .0281943
782.679 .0281833
783.389 .0281717
784.099 .0281595
784.808 .0281471
785.517 .0281343
786.226 .0281212
786.935 .0281076
787.643 .0280942
788.352 .0280815
789.060 .0280690
789.767 .0280569
790.475 .0280453
791.182 .0280335
791.889 .0280219
792.595 .0280099
793.301 .0279975
794.008 .0279848
794.713 .0279716
795.419 .0279582
796.124 .0279452
796.829 .0279327
797.534 .0279203
798.238 .0279084
798.942 .0278971
799.646 .0278856
800.350 .0278738
801.053 .0278619
801.756 .0278498
802.459 .0278377
803.162 .0278260
803.864 .0278145
804.566 .0278035
805.267 .0277928
805.969 .0277819
806.670 .0277709
807.371 .0277599
808.071 .0277490
808.772 .0277382
809.472 .0277276
810.171 .0277174
810.871 .0277076
811.570 .0276983
812.269 .0276896
812.967 .0276811
813.666 .0276728
814.364 .0276645
815.061 .0276566
815.759 .0276493
816.456 .0276431
817.153 .0276378
817.849 .0276334
818.545 .0276294
819.241 .0276256
819.937 .0276212
820.632 .0276161
821.327 .0276102
822.022 .0276033
822.717 .0275954
823.411 .0275871
824.105 .0275787
824.798 .0275709
825.491 .0275634
826.184 .0275562
826.877 .0275492
827.569 .0275420
828.261 .0275341
828.953 .0275259
829.645 .0275176
830.336 .0275095
831.027 .0275019
831.717 .0274952
832.407 .0274895
833.097 .0274848
833.787 .0274808
834.476 .0274770
835.165 .0274730
835.854 .0274684
836.542 .0274628
837.230 .0274565
837.918 .0274496
838.605 .0274418
839.292 .0274339
839.979 .0274261
840.665 .0274180
841.352 .0274095
842.037 .0274004
842.723 .0273906
843.408 .0273801
844.093 .0273686
844.777 .0273562
845.462 .0273434
846.145 .0273309
846.829 .0273184
847.512 .0273066
848.195 .0272960
848.878 .0272862
849.560 .0272771
850.242 .0272683
850.923 .0272593
851.605 .0272500
852.286 .0272402
852.966 .0272296
853.646 .0272182
854.326 .0272063
855.006 .0271938
855.685 .0271807
856.364 .0271667
857.043 .0271520
857.721 .0271363
858.399 .0271195
859.077 .0271012
859.754 .0270817
860.431 .0270614
861.107 .0270406
861.784 .0270198
862.459 .0269998
863.135 .0269804
863.810 .0269625
864.485 .0269455
865.160 .0269298
865.834 .0269152
866.508 .0269017
867.181 .0268894
867.854 .0268785
868.527 .0268686
869.199 .0268591
869.872 .0268502
870.543 .0268421
871.215 .0268338
871.886 .0268252
872.557 .0268156
873.227 .0268055
873.897 .0267942
874.567 .0267822
875.236 .0267689
875.905 .0267557
876.573 .0267424
877.242 .0267288
877.909 .0267149
878.577 .0267012
879.244 .0266873
879.911 .0266734
880.577 .0266599
881.243 .0266463
881.909 .0266327
882.575 .0266197
883.240 .0266066
883.904 .0265944
884.569 .0265824
885.232 .0265706
885.896 .0265587
886.559 .0265470
887.222 .0265350
887.885 .0265229
888.547 .0265109
889.208 .0264995
889.870 .0264880
890.531 .0264770
891.192 .0264663
891.852 .0264559
892.512 .0264462
893.171 .0264371
893.830 .0264288
894.489 .0264221
895.148 .0264164
895.806 .0264121
896.464 .0264087
897.121 .0264066
897.778 .0264046
898.434 .0264028
899.091 .0264014
899.747 .0264002
900.402 .0263993
901.057 .0263993
901.712 .0263997
902.366 .0264008
903.020 .0264027
903.674 .0264046
904.327 .0264064
904.980 .0264078
905.633 .0264084
906.285 .0264083
906.936 .0264078
907.588 .0264072
908.239 .0264059
908.889 .0264055
909.540 .0264052
910.190 .0264042
910.839 .0264029
911.488 .0264006
912.137 .0263973
912.785 .0263929
913.433 .0263876
914.081 .0263814
914.728 .0263752
915.375 .0263687
916.021 .0263614
916.668 .0263537
917.313 .0263455
917.959 .0263361
918.604 .0263256
919.248 .0263143
919.892 .0263022
920.536 .0262897
921.180 .0262773
921.823 .0262652
922.465 .0262533
923.108 .0262413
923.750 .0262293
924.391 .0262164
925.032 .0262027
925.673 .0261880
926.313 .0261725
926.953 .0261565
927.593 .0261396
928.232 .0261224
928.871 .0261053
929.510 .0260887
930.148 .0260728
930.786 .0260573
931.423 .0260419
932.060 .0260272
932.697 .0260122
933.333 .0259969
933.969 .0259811
934.604 .0259650
935.239 .0259489
935.874 .0259327
936.508 .0259167
937.142 .0259011
937.776 .0258859
938.409 .0258717
939.042 .0258573
939.674 .0258429
940.306 .0258277
940.938 .0258119
941.569 .0257950
942.200 .0257770
942.830 .0257578
943.460 .0257376
944.090 .0257165
944.720 .0256949
945.349 .0256727
945.977 .0256501
946.606 .0256273
947.233 .0256042
947.861 .0255807
948.488 .0255571
949.115 .0255329
949.741 .0255093
950.367 .0254863
950.993 .0254644
951.618 .0254435
952.243 .0254239
952.868 .0254058
953.492 .0253889
954.115 .0253729
954.739 .0253578
955.362 .0253432
955.984 .0253290
956.607 .0253149
957.229 .0253013
957.850 .0252884
958.471 .0252764
959.092 .0252646
959.713 .0252531
960.333 .0252414
960.952 .0252294
961.572 .0252163
962.191 .0252023
962.809 .0251874
963.428 .0251711
964.045 .0251536
964.663 .0251356
965.280 .0251170
965.897 .0250985
966.513 .0250803
967.129 .0250627
967.745 .0250455
968.361 .0250290
968.976 .0250130
969.590 .0249980
970.205 .0249842
970.818 .0249711
971.432 .0249587
972.045 .0249478
972.658 .0249375
973.271 .0249277
973.883 .0249185
974.495 .0249095
975.106 .0249004
975.717 .0248914
976.328 .0248821
976.938 .0248732
977.548 .0248653
978.158 .0248580
978.768 .0248514
979.377 .0248455
979.985 .0248396
980.594 .0248334
981.202 .0248271
981.809 .0248204
982.417 .0248134
983.024 .0248068
983.631 .0248010
984.237 .0247962
984.843 .0247925
985.449 .0247899
986.054 .0247879
986.659 .0247867
987.264 .0247858
987.868 .0247844
988.472 .0247833
989.076 .0247825
989.679 .0247823
990.282 .0247832
990.885 .0247849
991.487 .0247877
992.090 .0247913
992.691 .0247954
993.293 .0247998
993.894 .0248041
994.495 .0248088
995.095 .0248135
995.696 .0248185
996.296 .0248235
996.895 .0248287
997.494 .0248343
998.093 .0248401
998.692 .0248461
999.291 .0248522
999.889 .0248581
1000.487 .0248634
1001.084 .0248684
1001.681 .0248722
1002.278 .0248747
1002.875 .0248764
1003.471 .0248776
1004.067 .0248787
1004.663 .0248799
1005.258 .0248820
1005.854 .0248848
1006.449 .0248888
1007.043 .0248935
1007.638 .0248980
1008.232 .0249023
1008.826 .0249060
1009.419 .0249090
1010.012 .0249112
1010.605 .0249133
1011.198 .0249156
1011.791 .0249184
1012.383 .0249217
1012.975 .0249246
1013.566 .0249271
1014.158 .0249290
1014.749 .0249301
1015.340 .0249305
1015.931 .0249302
1016.521 .0249294
1017.111 .0249288
1017.701 .0249288
1018.291 .0249295
1018.880 .0249306
1019.470 .0249323
1020.059 .0249337
1020.647 .0249344
1021.236 .0249347
1021.824 .0249344
1022.412 .0249344
1023.000 .0249348
1023.588 .0249358
1024.175 .0249374
1024.762 .0249393
1025.349 .0249413
1025.936 .0249428
1026.523 .0249439
1027.109 .0249439
1027.695 .0249427
1028.281 .0249405
1028.867 .0249380
1029.452 .0249352
1030.038 .0249325
1030.623 .0249304
1031.208 .0249286
1031.792 .0249276
1032.377 .0249270
1032.961 .0249273
1033.546 .0249283
1034.130 .0249303
1034.714 .0249334
1035.297 .0249372
1035.881 .0249421
1036.464 .0249479
1037.047 .0249546
1037.630 .0249621
1038.213 .0249705
1038.796 .0249793
1039.378 .0249876
1039.961 .0249958
1040.543 .0250025
1041.125 .0250075
1041.707 .0250101
1042.289 .0250101
1042.871 .0250075
1043.452 .0250030
1044.034 .0249965
1044.615 .0249883
1045.196 .0249793
1045.777 .0249699
1046.358 .0249594
1046.939 .0249488
1047.520 .0249371
1048.101 .0249235
1048.681 .0249080
1049.262 .0248910
1049.842 .0248715
1050.422 .0248517
1051.002 .0248315
1051.582 .0248117
1052.162 .0247941
1052.742 .0247786
1053.322 .0247649
1053.902 .0247540
1054.482 .0247454
1055.061 .0247374
1055.641 .0247290
1056.220 .0247213
1056.800 .0247123
1057.379 .0247028
1057.958 .0246932
1058.538 .0246841
1059.117 .0246765
1059.696 .0246715
1060.275 .0246681
1060.854 .0246667
1061.433 .0246676
1062.012 .0246691
1062.592 .0246700
1063.171 .0246709
1063.750 .0246705
1064.329 .0246685
1064.908 .0246656
1065.487 .0246625
1066.066 .0246580
1066.645 .0246535
1067.224 .0246489
1067.803 .0246437
1068.382 .0246379
1068.961 .0246312
1069.540 .0246229
1070.119 .0246140
1070.698 .0246047
1071.278 .0245940
1071.857 .0245822
1072.436 .0245711
1073.016 .0245589
1073.595 .0245459
1074.175 .0245334
1074.754 .0245208
1075.334 .0245081
1075.913 .0244957
1076.493 .0244822
1077.073 .0244673
1077.653 .0244510
1078.233 .0244329
1078.813 .0244129
1079.393 .0243917
1079.974 .0243693
1080.554 .0243459
1081.135 .0243225
1081.716 .0243004
1082.296 .0242781
1082.877 .0242561
1083.458 .0242346
1084.040 .0242134
1084.621 .0241926
1085.202 .0241740
1085.784 .0241587
1086.366 .0241480
1086.948 .0241419
1087.530 .0241410
1088.112 .0241447
1088.695 .0241518
1089.277 .0241606
1089.860 .0241692
1090.443 .0241773
1091.026 .0241838
1091.610 .0241879
1092.193 .0241917
1092.777 .0241967
1093.361 .0242021
1093.946 .0242084
1094.530 .0242151
1095.115 .0242214
1095.700 .0242260
1096.285 .0242268
1096.871 .0242239
1097.456 .0242186
1098.042 .0242110
1098.628 .0242023
1099.215 .0241951
1099.802 .0241918
1100.389 .0241907
1100.976 .0241926
1101.564 .0241965
1102.152 .0242008
1102.740 .0242034
1103.329 .0242047
1103.917 .0242036
1104.507 .0242018
1105.096 .0241993
1105.686 .0241966
1106.276 .0241966
1106.867 .0242009
1107.457 .0242079
1108.049 .0242176
1108.640 .0242314
1109.232 .0242482
1109.825 .0242652
1110.417 .0242846
1111.010 .0243042
1111.604 .0243245
1112.198 .0243466
1112.792 .0243697
1113.387 .0243935
1113.982 .0244205
1114.577 .0244507
1115.173 .0244802
1115.769 .0245106
1116.366 .0245416
1116.963 .0245719
1117.561 .0246004
1118.159 .0246283
1118.758 .0246547
1119.357 .0246797
1119.957 .0247042
1120.557 .0247247
1121.157 .0247421
1121.758 .0247572
1122.360 .0247665
1122.962 .0247716
1123.564 .0247734
1124.167 .0247734
1124.771 .0247702
1125.375 .0247678
1125.980 .0247662
1126.585 .0247630
1127.191 .0247617
1127.797 .0247623
1128.404 .0247627
1129.012 .0247636
1129.620 .0247650
1130.229 .0247694
1130.838 .0247786
1131.448 .0247929
1132.058 .0248151
1132.669 .0248456
1133.281 .0248876
1133.894 .0249378
1134.507 .0249941
1135.120 .0250561
1135.735 .0251223
1136.350 .0251886
1136.965 .0252575
1137.582 .0253245
1138.199 .0253943
1138.816 .0254652
1139.435 .0255402
1140.054 .0256141
1140.674 .0256857
1141.294 .0257505
1141.916 .0258239
1142.538 .0259456
1143.160 .0259377
1143.784 .0259615
1144.408 .0258966
1145.033 .0263669
