BestFit value for E:\RC_data\Compressed_For_Future_Analysis_Lite\test_shlomo\aqueous_test\GoodSpectraLarge_Full\0012_2025-06-24_09-45-30\Interpretation_History\2025-07-21_16-23-34\ResultsGraphs\BestFit\(Run)spectra_09-46-16-530_BestFit.txt
600.203 0.0448116
600.975 0.0447536
601.747 0.0446959
602.518 0.0446384
603.289 0.0445812
604.059 0.0445242
604.829 0.0444674
605.599 0.0444107
606.369 0.0443541
607.138 0.0442977
607.906 0.0442414
608.675 0.0441851
609.443 0.0441288
610.210 0.0440727
610.977 0.0440166
611.744 0.0439605
612.511 0.0439044
613.277 0.0438484
614.043 0.0437923
614.809 0.0437363
615.574 0.0436803
616.339 0.0436243
617.104 0.0435684
617.868 0.0435125
618.632 0.0434568
619.395 0.0434012
620.159 0.0433456
620.922 0.0432902
621.684 0.0432350
622.447 0.0431799
623.209 0.0431251
623.970 0.0430705
624.732 0.0430162
625.493 0.0429622
626.254 0.0429085
627.014 0.0428552
627.774 0.0428022
628.534 0.0427496
629.294 0.0426973
630.053 0.0426455
630.812 0.0425941
631.571 0.0425431
632.329 0.0424926
633.087 0.0424424
633.845 0.0423927
634.602 0.0423435
635.359 0.0422946
636.116 0.0422461
636.873 0.0421979
637.629 0.0421502
638.385 0.0421028
639.141 0.0420557
639.897 0.0420088
640.652 0.0419623
641.407 0.0419159
642.161 0.0418698
642.916 0.0418238
643.670 0.0417780
644.424 0.0417323
645.177 0.0416867
645.931 0.0416410
646.684 0.0415954
647.436 0.0415499
648.189 0.0415042
648.941 0.0414585
649.693 0.0414127
650.445 0.0413668
651.196 0.0413208
651.947 0.0412747
652.698 0.0412284
653.449 0.0411819
654.199 0.0411354
654.949 0.0410887
655.699 0.0410418
656.449 0.0409948
657.198 0.0409478
657.947 0.0409006
658.696 0.0408533
659.445 0.0408060
660.193 0.0407587
660.941 0.0407113
661.689 0.0406640
662.436 0.0406167
663.184 0.0405695
663.931 0.0405224
664.678 0.0404754
665.424 0.0404287
666.171 0.0403822
666.917 0.0403359
667.663 0.0402899
668.408 0.0402443
669.154 0.0401989
669.899 0.0401540
670.644 0.0401095
671.388 0.0400654
672.133 0.0400217
672.877 0.0399785
673.621 0.0399358
674.365 0.0398936
675.108 0.0398519
675.851 0.0398107
676.594 0.0397700
677.337 0.0397297
678.080 0.0396900
678.822 0.0396507
679.564 0.0396120
680.306 0.0395736
681.047 0.0395357
681.789 0.0394982
682.530 0.0394611
683.271 0.0394243
684.012 0.0393879
684.752 0.0393517
685.492 0.0393158
686.232 0.0392800
686.972 0.0392445
687.712 0.0392090
688.451 0.0391737
689.190 0.0391384
689.929 0.0391031
690.667 0.0390679
691.406 0.0390325
692.144 0.0389970
692.882 0.0389614
693.620 0.0389257
694.357 0.0388897
695.095 0.0388535
695.832 0.0388171
696.569 0.0387804
697.305 0.0387434
698.042 0.0387061
698.778 0.0386685
699.514 0.0386306
700.249 0.0385924
700.985 0.0385539
701.720 0.0385150
702.455 0.0384759
703.190 0.0384364
703.925 0.0383966
704.659 0.0383566
705.393 0.0383164
706.127 0.0382759
706.861 0.0382353
707.595 0.0381945
708.328 0.0381536
709.061 0.0381126
709.794 0.0380715
710.527 0.0380304
711.259 0.0379894
711.991 0.0379485
712.723 0.0379076
713.455 0.0378669
714.186 0.0378265
714.918 0.0377862
715.649 0.0377462
716.380 0.0377066
717.110 0.0376673
717.841 0.0376284
718.571 0.0375900
719.301 0.0375520
720.031 0.0375145
720.760 0.0374775
721.490 0.0374410
722.219 0.0374052
722.948 0.0373699
723.676 0.0373352
724.405 0.0373011
725.133 0.0372676
725.861 0.0372347
726.589 0.0372025
727.317 0.0371708
728.044 0.0371398
728.771 0.0371094
729.498 0.0370795
730.225 0.0370502
730.951 0.0370214
731.677 0.0369931
732.403 0.0369653
733.129 0.0369380
733.855 0.0369110
734.580 0.0368845
735.305 0.0368583
736.030 0.0368323
736.755 0.0368067
737.479 0.0367812
738.203 0.0367559
738.927 0.0367308
739.651 0.0367057
740.375 0.0366806
741.098 0.0366555
741.821 0.0366304
742.544 0.0366052
743.267 0.0365798
743.989 0.0365542
744.711 0.0365284
745.433 0.0365023
746.155 0.0364759
746.877 0.0364492
747.598 0.0364221
748.319 0.0363947
749.040 0.0363668
749.760 0.0363385
750.481 0.0363096
751.201 0.0362804
751.921 0.0362506
752.640 0.0362204
753.360 0.0361896
754.079 0.0361583
754.798 0.0361266
755.517 0.0360943
756.235 0.0360616
756.953 0.0360284
757.671 0.0359947
758.389 0.0359606
759.107 0.0359261
759.824 0.0358912
760.541 0.0358560
761.258 0.0358204
761.974 0.0357846
762.691 0.0357484
763.407 0.0357121
764.123 0.0356756
764.838 0.0356390
765.554 0.0356023
766.269 0.0355655
766.984 0.0355288
767.699 0.0354921
768.413 0.0354555
769.127 0.0354191
769.841 0.0353828
770.555 0.0353468
771.268 0.0353111
771.982 0.0352756
772.694 0.0352406
773.407 0.0352060
774.120 0.0351718
774.832 0.0351381
775.544 0.0351049
776.256 0.0350723
776.967 0.0350403
777.678 0.0350089
778.389 0.0349782
779.100 0.0349481
779.810 0.0349187
780.521 0.0348900
781.231 0.0348621
781.940 0.0348348
782.650 0.0348083
783.359 0.0347826
784.068 0.0347575
784.776 0.0347333
785.485 0.0347097
786.193 0.0346868
786.901 0.0346647
787.609 0.0346432
788.316 0.0346224
789.023 0.0346023
789.730 0.0345827
790.436 0.0345638
791.143 0.0345454
791.849 0.0345275
792.555 0.0345102
793.260 0.0344933
793.965 0.0344768
794.670 0.0344606
795.375 0.0344448
796.080 0.0344293
796.784 0.0344140
797.488 0.0343989
798.191 0.0343839
798.895 0.0343691
799.598 0.0343543
800.301 0.0343395
801.003 0.0343246
801.705 0.0343097
802.408 0.0342946
803.109 0.0342793
803.811 0.0342638
804.512 0.0342481
805.213 0.0342320
805.913 0.0342156
806.614 0.0341987
807.314 0.0341815
808.014 0.0341638
808.713 0.0341456
809.412 0.0341269
810.111 0.0341076
810.810 0.0340877
811.508 0.0340673
812.206 0.0340463
812.904 0.0340246
813.602 0.0340023
814.299 0.0339793
814.996 0.0339557
815.692 0.0339315
816.389 0.0339065
817.085 0.0338809
817.781 0.0338547
818.476 0.0338278
819.171 0.0338003
819.866 0.0337722
820.561 0.0337435
821.255 0.0337142
821.949 0.0336843
822.643 0.0336539
823.336 0.0336231
824.029 0.0335917
824.722 0.0335599
825.415 0.0335277
826.107 0.0334951
826.799 0.0334622
827.490 0.0334290
828.182 0.0333955
828.873 0.0333619
829.563 0.0333281
830.254 0.0332941
830.944 0.0332600
831.634 0.0332259
832.323 0.0331919
833.012 0.0331579
833.701 0.0331240
834.390 0.0330902
835.078 0.0330566
835.766 0.0330233
836.453 0.0329903
837.141 0.0329575
837.828 0.0329252
838.514 0.0328933
839.201 0.0328618
839.887 0.0328308
840.572 0.0328003
841.258 0.0327704
841.943 0.0327411
842.628 0.0327124
843.312 0.0326843
843.996 0.0326570
844.680 0.0326303
845.363 0.0326044
846.046 0.0325793
846.729 0.0325548
847.412 0.0325312
848.094 0.0325084
848.776 0.0324864
849.457 0.0324652
850.139 0.0324448
850.819 0.0324252
851.500 0.0324065
852.180 0.0323886
852.860 0.0323715
853.540 0.0323552
854.219 0.0323397
854.898 0.0323250
855.576 0.0323110
856.254 0.0322978
856.932 0.0322854
857.610 0.0322736
858.287 0.0322625
858.964 0.0322521
859.640 0.0322423
860.317 0.0322331
860.993 0.0322245
861.668 0.0322165
862.343 0.0322089
863.018 0.0322018
863.693 0.0321951
864.367 0.0321888
865.041 0.0321828
865.714 0.0321772
866.387 0.0321718
867.060 0.0321666
867.732 0.0321616
868.404 0.0321568
869.076 0.0321520
869.748 0.0321473
870.419 0.0321427
871.089 0.0321379
871.760 0.0321332
872.430 0.0321282
873.099 0.0321232
873.769 0.0321179
874.438 0.0321124
875.106 0.0321066
875.774 0.0321005
876.442 0.0320940
877.110 0.0320872
877.777 0.0320799
878.444 0.0320721
879.110 0.0320639
879.776 0.0320552
880.442 0.0320459
881.108 0.0320360
881.773 0.0320255
882.437 0.0320144
883.102 0.0320027
883.766 0.0319903
884.429 0.0319772
885.093 0.0319634
885.755 0.0319489
886.418 0.0319337
887.080 0.0319178
887.742 0.0319011
888.403 0.0318837
889.064 0.0318656
889.725 0.0318467
890.385 0.0318271
891.045 0.0318067
891.705 0.0317856
892.364 0.0317638
893.023 0.0317413
893.682 0.0317180
894.340 0.0316941
894.998 0.0316695
895.655 0.0316443
896.312 0.0316185
896.969 0.0315920
897.625 0.0315649
898.281 0.0315373
898.937 0.0315091
899.592 0.0314804
900.247 0.0314513
900.901 0.0314217
901.555 0.0313917
902.209 0.0313612
902.862 0.0313304
903.515 0.0312993
904.168 0.0312679
904.820 0.0312363
905.472 0.0312044
906.123 0.0311724
906.774 0.0311402
907.425 0.0311079
908.076 0.0310755
908.726 0.0310431
909.375 0.0310108
910.024 0.0309784
910.673 0.0309462
911.322 0.0309140
911.970 0.0308821
912.618 0.0308503
913.265 0.0308188
913.912 0.0307875
914.558 0.0307566
915.205 0.0307259
915.850 0.0306957
916.496 0.0306659
917.141 0.0306365
917.786 0.0306075
918.430 0.0305791
919.074 0.0305512
919.718 0.0305239
920.361 0.0304972
921.004 0.0304710
921.646 0.0304456
922.288 0.0304207
922.930 0.0303966
923.571 0.0303731
924.212 0.0303504
924.853 0.0303284
925.493 0.0303071
926.133 0.0302866
926.772 0.0302670
927.411 0.0302480
928.050 0.0302299
928.688 0.0302126
929.326 0.0301961
929.963 0.0301804
930.600 0.0301655
931.237 0.0301515
931.874 0.0301382
932.510 0.0301258
933.145 0.0301142
933.780 0.0301034
934.415 0.0300933
935.050 0.0300841
935.684 0.0300756
936.318 0.0300680
936.951 0.0300610
937.584 0.0300548
938.217 0.0300494
938.849 0.0300446
939.481 0.0300405
940.112 0.0300371
940.743 0.0300344
941.374 0.0300322
942.004 0.0300307
942.634 0.0300298
943.264 0.0300294
943.893 0.0300295
944.522 0.0300301
945.150 0.0300312
945.778 0.0300327
946.406 0.0300347
947.033 0.0300371
947.660 0.0300398
948.287 0.0300428
948.913 0.0300461
949.539 0.0300497
950.165 0.0300535
950.790 0.0300575
951.414 0.0300617
952.039 0.0300660
952.663 0.0300704
953.286 0.0300748
953.910 0.0300794
954.533 0.0300839
955.155 0.0300883
955.777 0.0300928
956.399 0.0300971
957.020 0.0301013
957.641 0.0301053
958.262 0.0301092
958.882 0.0301128
959.502 0.0301162
960.122 0.0301201
960.741 0.0301272
961.360 0.0301339
961.979 0.0301402
962.597 0.0301461
963.214 0.0301516
963.832 0.0301567
964.449 0.0301613
965.066 0.0301654
965.682 0.0301690
966.298 0.0301721
966.914 0.0301746
967.529 0.0301765
968.144 0.0301779
968.758 0.0301786
969.373 0.0301787
969.986 0.0301782
970.600 0.0301770
971.213 0.0301752
971.826 0.0301727
972.438 0.0301695
973.050 0.0301656
973.662 0.0301610
974.274 0.0301557
974.885 0.0301496
975.495 0.0301429
976.106 0.0301355
976.716 0.0301273
977.325 0.0301184
977.935 0.0301087
978.544 0.0300984
979.152 0.0300873
979.761 0.0300755
980.369 0.0300630
980.976 0.0300498
981.584 0.0300359
982.191 0.0300212
982.797 0.0300060
983.404 0.0299900
984.010 0.0299734
984.615 0.0299561
985.221 0.0299382
985.826 0.0299196
986.430 0.0299005
987.035 0.0298807
987.639 0.0298604
988.243 0.0298395
988.846 0.0298181
989.449 0.0297962
990.052 0.0297737
990.654 0.0297508
991.256 0.0297274
991.858 0.0297036
992.460 0.0296793
993.061 0.0296546
993.662 0.0296296
994.262 0.0296043
994.863 0.0295785
995.463 0.0295525
996.062 0.0295262
996.662 0.0294997
997.261 0.0294729
997.860 0.0294459
998.458 0.0294188
999.056 0.0293915
999.654 0.0293641
1000.252 0.0293350
1000.849 0.0293036
1001.446 0.0292722
1002.043 0.0292408
1002.639 0.0292094
1003.235 0.0291780
1003.831 0.0291468
1004.427 0.0291156
1005.022 0.0290845
1005.617 0.0290536
1006.212 0.0290229
1006.806 0.0289924
1007.401 0.0289620
1007.995 0.0289320
1008.588 0.0289022
1009.182 0.0288727
1009.775 0.0288436
1010.368 0.0288148
1010.96 0.0287864
1011.553 0.0287583
1012.145 0.0287307
1012.737 0.0287035
1013.328 0.0286767
1013.92 0.0286504
1014.511 0.0286247
1015.102 0.0285994
1015.692 0.0285747
1016.283 0.0285504
1016.873 0.0285268
1017.463 0.0285038
1018.052 0.0284813
1018.642 0.0284594
1019.231 0.0284382
1019.82 0.0284176
1020.409 0.0283976
1020.997 0.0283784
1021.585 0.0283597
1022.173 0.0283418
1022.761 0.0283245
1023.349 0.0283079
1023.936 0.0282920
1024.524 0.0282768
1025.111 0.0282624
1025.697 0.0282486
1026.284 0.0282356
1026.87 0.0282233
1027.457 0.0282117
1028.043 0.0282009
1028.628 0.0281907
1029.214 0.0281813
1029.80 0.0281726
1030.385 0.0281647
1030.97 0.0281575
1031.555 0.0281509
1032.139 0.0281451
1032.724 0.0281400
1033.308 0.0281356
1033.893 0.0281319
1034.477 0.0281289
1035.06 0.0281265
1035.644 0.0281248
1036.228 0.0281238
1036.811 0.0281235
1037.394 0.0281237
1037.977 0.0281246
1038.56 0.0281261
1039.143 0.0281282
1039.726 0.0281309
1040.308 0.0281342
1040.891 0.0281380
1041.473 0.0281424
1042.055 0.0281472
1042.637 0.0281526
1043.219 0.0281585
1043.801 0.0281649
1044.382 0.0281717
1044.964 0.0281790
1045.545 0.0281867
1046.127 0.0281948
1046.708 0.0282032
1047.289 0.0282121
1047.87 0.0282212
1048.451 0.0282307
1049.032 0.0282405
1049.612 0.0282506
1050.193 0.0282609
1050.774 0.0282715
1051.354 0.0282823
1051.935 0.0282933
1052.515 0.0283045
1053.095 0.0283158
1053.675 0.0283272
1054.256 0.0283388
1054.836 0.0283504
1055.416 0.0283621
1055.996 0.0283738
1056.576 0.0283855
1057.156 0.0283973
1057.735 0.0284090
1058.315 0.0284206
1058.895 0.0284322
1059.475 0.0284437
1060.055 0.0284551
1060.634 0.0284664
1061.214 0.0284775
1061.794 0.0284884
1062.373 0.0284991
1062.953 0.0285096
1063.533 0.0285198
1064.113 0.0285298
1064.692 0.0285395
1065.272 0.0285489
1065.852 0.0285580
1066.431 0.0285667
1067.011 0.0285751
1067.591 0.0285831
1068.171 0.0285908
1068.751 0.0285980
1069.331 0.0286047
1069.91 0.0286111
1070.49 0.0286169
1071.071 0.0286223
1071.651 0.0286272
1072.231 0.0286316
1072.811 0.0286355
1073.391 0.0286389
1073.972 0.0286417
1074.552 0.0286439
1075.133 0.0286456
1075.713 0.0286466
1076.294 0.0286471
1076.875 0.0286470
1077.456 0.0286463
1078.037 0.0286449
1078.618 0.0286430
1079.199 0.0286403
1079.78 0.0286371
1080.362 0.0286331
1080.943 0.0286286
1081.525 0.0286233
1082.107 0.0286174
1082.689 0.0286108
1083.271 0.0286035
1083.853 0.0285956
1084.436 0.0285869
1085.018 0.0285776
1085.601 0.0285676
1086.184 0.0285569
1086.767 0.0285455
1087.351 0.0285334
1087.934 0.0285207
1088.518 0.0285072
1089.102 0.0284931
1089.686 0.0284783
1090.27 0.0284628
1090.855 0.0284467
1091.439 0.0284299
1092.024 0.0284124
1092.609 0.0283943
1093.195 0.0283755
1093.78 0.0283561
1094.366 0.0283361
1094.952 0.0283154
1095.539 0.0282941
1096.125 0.0282723
1096.712 0.0282498
1097.299 0.0282267
1097.887 0.0282031
1098.475 0.0281789
1099.063 0.0281542
1099.651 0.0281289
1100.239 0.0281031
1100.828 0.0280768
1101.417 0.0280501
1102.007 0.0280228
1102.597 0.0279950
1103.187 0.0279668
1103.777 0.0279382
1104.368 0.0279092
1104.959 0.0278798
1105.551 0.0278499
1106.143 0.0278197
1106.735 0.0277892
1107.328 0.0277583
1107.921 0.0277272
1108.514 0.0276957
1109.108 0.0276640
1109.702 0.0276320
1110.296 0.0275998
1110.891 0.0275673
1111.486 0.0275347
1112.082 0.0275019
1112.678 0.0274689
1113.275 0.0274358
1113.872 0.0274026
1114.469 0.0273693
1115.067 0.0273359
1115.665 0.0273025
1116.264 0.0272690
1116.864 0.0272355
1117.463 0.0272021
1118.063 0.0271687
1118.664 0.0271353
1119.265 0.0271021
1119.867 0.0270689
1120.469 0.0270358
1121.072 0.0270029
1121.675 0.0269702
1122.279 0.0269376
1122.883 0.0269052
1123.488 0.0268731
1124.093 0.0268412
1124.699 0.0268096
1125.305 0.0267783
1125.912 0.0267473
1126.52 0.0267166
1127.128 0.0266863
1127.737 0.0266563
1128.346 0.0266268
1128.956 0.0265976
1129.567 0.0265689
1130.178 0.0265406
1130.79 0.0265128
1131.402 0.0264854
1132.015 0.0264586
1132.629 0.0264323
1133.243 0.0264065
1133.858 0.0263813
1134.474 0.0263566
1135.09 0.0263326
1135.707 0.0263091
1136.325 0.0262863
1136.943 0.0262641
1137.562 0.0262425
1138.182 0.0262216
1138.802 0.0262013
1139.423 0.0261818
1140.045 0.0261629
1140.668 0.0261447
1141.291 0.0261273
1141.916 0.0261106
1142.54 0.0260946
1143.166 0.0260794
1143.793 0.0260649
1144.42 0.0260512
1145.048 0.0260383
