Measurement Sequence started on: 15-12-46-377
Integration time: 28
Scans to Average: 2 
>>>>>Begin Spectral Data<<<<<
432.689 .0000100
433.621 .0000100
434.552 .0000100
435.482 .0000100
436.410 .0000100
437.337 .0000100
438.262 .0270809
439.187 .0572862
440.110 .0949621
441.031 .1374601
441.952 .1103956
442.871 .1153077
443.789 .1198827
444.705 .1241913
445.621 .1282822
446.535 .1321925
447.447 .1345232
448.359 .1351296
449.269 .1336352
450.178 .1297997
451.086 .1236990
451.993 .1158033
452.898 .1068933
453.803 .0978553
454.706 .0894444
455.608 .0821317
456.508 .0760756
457.408 .0719742
458.306 .0688184
459.204 .0662514
460.100 .0640886
460.995 .0622259
461.888 .0605956
462.781 .0591517
463.673 .0578607
464.563 .0567000
465.452 .0556529
466.340 .0547055
467.228 .0538468
468.114 .0530679
468.999 .0523606
469.882 .0517161
470.765 .0511278
471.647 .0505896
472.528 .0500967
473.407 .0496456
474.286 .0492340
475.163 .0488603
476.040 .0485235
476.915 .0482224
477.790 .0479554
478.663 .0477210
479.535 .0475174
480.407 .0473416
481.277 .0471910
482.147 .0470622
483.015 .0469528
483.883 .0468606
484.749 .0467842
485.615 .0467228
486.479 .0466768
487.343 .0466466
488.206 .0466336
489.067 .0466386
489.928 .0466628
490.788 .0467073
491.647 .0467725
492.505 .0468582
493.362 .0469644
494.218 .0470905
495.073 .0472365
495.928 .0475323
496.781 .0477314
497.634 .0479528
498.486 .0481978
499.337 .0484682
500.187 .0487659
501.036 .0490929
501.884 .0494515
502.731 .0498445
503.578 .0502745
504.424 .0505650
505.268 .0510631
506.113 .0516078
506.956 .0522025
507.798 .0528532
508.640 .0535657
509.480 .0543495
510.320 .0552155
511.160 .0561766
511.998 .0572474
512.836 .0584463
513.672 .0597918
514.508 .0613047
515.344 .0630067
516.178 .0649184
517.012 .0670580
517.845 .0694436
518.677 .0720894
519.508 .0750043
520.339 .0781915
521.169 .0816511
521.998 .0853582
522.826 .0892834
523.654 .0933795
524.481 .0975901
525.307 .1018472
526.133 .1060726
526.958 .1101773
527.782 .1140714
528.605 .1176711
529.428 .1208985
530.250 .1236839
531.072 .1259835
531.892 .1277592
532.712 .1289911
533.532 .1296709
534.350 .1298023
535.168 .1293942
535.986 .1284599
536.802 .1270126
537.618 .1250645
538.434 .1226284
539.249 .1197409
540.063 .1164427
540.876 .1127907
541.689 .1088510
542.501 .1046971
543.313 .1004109
544.124 .0960814
544.934 .0917948
545.744 .0876282
546.553 .0836497
547.361 .0799148
548.169 .0764513
548.976 .0732795
549.783 .0703994
550.589 .0678002
551.395 .0654604
552.200 .0633534
553.004 .0614497
553.808 .0597244
554.611 .0581588
555.414 .0567351
556.216 .0554378
557.018 .0542507
557.819 .0531590
558.619 .0521494
559.419 .0512104
560.218 .0503323
561.017 .0495061
561.815 .0487249
562.613 .0479836
563.410 .0472761
564.207 .0465979
565.003 .0459453
565.799 .0453142
566.594 .0447019
567.388 .0441060
568.182 .0435245
568.976 .0429563
569.769 .0424013
570.562 .0418606
571.354 .0413351
572.145 .0408261
572.936 .0403343
573.727 .0398598
574.517 .0394032
575.307 .0389640
576.096 .0385417
576.885 .0381361
577.673 .0377475
578.461 .0373754
579.248 .0370197
580.035 .0366808
580.821 .0363592
581.607 .0360551
582.392 .0357689
583.177 .0355006
583.962 .0352500
584.746 .0350169
585.529 .0348006
586.313 .0346003
587.095 .0344153
587.878 .0342447
588.660 .0340877
589.441 .0339434
590.222 .0338113
591.003 .0336905
591.783 .0335804
592.563 .0334801
593.342 .0333883
594.121 .0333040
594.899 .0332262
595.678 .0331539
596.455 .0330864
597.233 .0330228
598.009 .0329627
598.786 .0329054
599.562 .0328504
600.338 .0327973
601.113 .0327458
601.888 .0326720
602.663 .0326232
603.437 .0325754
604.211 .0325285
604.984 .0324825
605.757 .0324375
606.530 .0323934
607.302 .0323503
608.074 .0323081
608.845 .0322669
609.616 .0322268
610.387 .0322095
611.158 .0321712
611.928 .0321343
612.697 .0320988
613.467 .0320647
614.236 .0320321
615.004 .0320011
615.773 .0319716
616.541 .0319437
617.308 .0319174
618.076 .0318926
618.843 .0318693
619.609 .0318473
620.375 .0318265
621.141 .0318068
621.907 .0317877
622.672 .0317692
623.437 .0317510
624.202 .0317330
624.966 .0317150
625.730 .0316970
626.493 .0316788
627.257 .0316604
628.020 .0316418
628.782 .0316228
629.545 .0316033
630.307 .0315832
631.068 .0315623
631.830 .0315408
632.591 .0315185
633.352 .0314956
634.112 .0314722
634.872 .0314483
635.632 .0314242
636.392 .0313997
637.151 .0313750
637.910 .0313501
638.668 .0313251
639.427 .0313001
640.185 .0312751
640.943 .0312502
641.700 .0312257
642.457 .0312014
643.214 .0311777
643.971 .0311543
644.727 .0311313
645.483 .0311085
646.239 .0310859
646.994 .0310634
647.750 .0310408
648.505 .0310183
649.259 .0309958
650.014 .0309732
650.768 .0309505
651.521 .0309276
652.275 .0309045
653.028 .0308811
653.781 .0308572
654.534 .0308329
655.286 .0308080
656.039 .0307827
656.791 .0307570
657.542 .0307308
658.294 .0307044
659.045 .0306777
659.796 .0306508
660.546 .0306239
661.297 .0305970
662.047 .0305701
662.796 .0305435
663.546 .0305171
664.295 .0304911
665.044 .0304654
665.793 .0304400
666.542 .0304150
667.290 .0303903
668.038 .0303659
668.786 .0303418
669.533 .0303179
670.281 .0302943
671.028 .0302711
671.774 .0302481
672.521 .0302255
673.267 .0302032
674.013 .0301811
674.759 .0301592
675.505 .0301372
676.250 .0301153
676.995 .0300931
677.740 .0300708
678.484 .0300483
679.229 .0300257
679.973 .0300028
680.717 .0299799
681.460 .0299569
682.204 .0299338
682.947 .0299107
683.690 .0298875
684.433 .0298644
685.175 .0298412
685.917 .0298178
686.659 .0297944
687.401 .0297708
688.142 .0297472
688.884 .0297235
689.625 .0296998
690.365 .0296763
691.106 .0296529
691.846 .0296298
692.586 .0296069
693.326 .0295845
694.066 .0295625
694.805 .0295409
695.545 .0295199
696.284 .0294993
697.022 .0294792
697.761 .0294595
698.499 .0294404
699.237 .0294217
699.975 .0294035
700.713 .0293859
701.450 .0293687
702.187 .0293521
702.924 .0293361
703.661 .0293205
704.397 .0293055
705.133 .0292908
705.869 .0292764
706.605 .0292622
707.341 .0292480
708.076 .0292339
708.811 .0292197
709.546 .0292055
710.281 .0291912
711.015 .0291769
711.749 .0291625
712.483 .0291481
713.217 .0291337
713.950 .0291192
714.684 .0291046
715.417 .0290900
716.150 .0290753
716.882 .0290604
717.615 .0290454
718.347 .0290302
719.079 .0290147
719.811 .0289991
720.542 .0289834
721.273 .0289675
722.005 .0289516
722.735 .0289357
723.466 .0289200
724.196 .0289045
724.927 .0288893
725.656 .0288743
726.386 .0288596
727.116 .0288451
727.845 .0288307
728.574 .0288165
729.303 .0288026
730.031 .0287888
730.760 .0287753
731.488 .0287622
732.216 .0287494
732.944 .0287369
733.671 .0287249
734.398 .0287131
735.125 .0287015
735.852 .0286902
736.579 .0286791
737.305 .0286682
738.031 .0286574
738.757 .0286467
739.483 .0286363
740.208 .0286259
740.933 .0286157
741.658 .0286055
742.383 .0285954
743.108 .0285852
743.832 .0285750
744.556 .0285648
745.280 .0285544
746.004 .0285439
746.727 .0285331
747.450 .0285221
748.173 .0285106
748.896 .0284988
749.618 .0284864
750.340 .0284737
751.062 .0284605
751.784 .0284469
752.506 .0284329
753.227 .0284184
753.948 .0284036
754.669 .0283884
755.389 .0283727
756.110 .0283566
756.830 .0283401
757.550 .0283233
758.269 .0283061
758.989 .0282887
759.708 .0282710
760.427 .0282532
761.146 .0282353
761.864 .0282171
762.582 .0281988
763.300 .0281804
764.018 .0281617
764.736 .0281429
765.453 .0281240
766.170 .0281050
766.887 .0280860
767.603 .0280669
768.320 .0280478
769.036 .0280289
769.751 .0280100
770.467 .0279912
771.182 .0279727
771.897 .0279545
772.612 .0279366
773.327 .0279191
774.041 .0279021
774.755 .0278855
775.469 .0278694
776.183 .0278537
776.896 .0278384
777.609 .0278236
778.322 .0278093
779.035 .0277954
779.747 .0277820
780.459 .0277691
781.171 .0277567
781.882 .0277448
782.594 .0277333
783.305 .0277223
784.016 .0277115
784.726 .0277010
785.436 .0276906
786.147 .0276755
786.856 .0276652
787.566 .0276549
788.275 .0276446
788.984 .0276343
789.693 .0276239
790.401 .0276134
791.110 .0276027
791.818 .0275918
792.525 .0275805
793.233 .0275691
793.940 .0275574
794.647 .0275507
795.353 .0275388
796.060 .0275267
796.766 .0275144
797.472 .0275019
798.177 .0274892
798.883 .0274762
799.588 .0274629
800.292 .0274495
800.997 .0274359
801.701 .0274223
802.405 .0274087
803.109 .0273953
803.812 .0273819
804.515 .0273687
805.218 .0273555
805.921 .0273424
806.623 .0273293
807.325 .0273162
808.027 .0273032
808.728 .0272903
809.429 .0272777
810.130 .0272653
810.831 .0272534
811.531 .0272418
812.231 .0272307
812.931 .0272200
813.630 .0272097
814.330 .0271997
815.029 .0271901
815.727 .0271808
816.426 .0271720
817.124 .0271637
817.821 .0271559
818.519 .0271488
819.216 .0271422
819.913 .0271363
820.609 .0271310
821.306 .0271264
822.002 .0271223
822.697 .0271189
823.393 .0271162
824.088 .0271141
824.783 .0271126
825.477 .0271118
826.171 .0271117
826.865 .0271120
827.559 .0271129
828.252 .0271142
828.945 .0271159
829.638 .0271179
830.330 .0271202
831.023 .0271228
831.714 .0271256
832.406 .0271285
833.097 .0271316
833.788 .0271348
834.479 .0271379
835.169 .0271409
835.859 .0271437
836.548 .0271464
837.238 .0271489
837.927 .0271511
838.615 .0271531
839.304 .0271548
839.992 .0271561
840.680 .0271571
841.367 .0271576
842.054 .0271577
842.741 .0271572
843.428 .0271561
844.114 .0271544
844.800 .0271521
845.485 .0271491
846.170 .0271454
846.855 .0271410
847.540 .0271359
848.224 .0271300
848.908 .0271234
849.592 .0271161
850.275 .0271082
850.958 .0270997
851.641 .0270906
852.323 .0270811
853.005 .0270710
853.687 .0270605
854.368 .0270496
855.049 .0270382
855.730 .0270265
856.410 .0270143
857.090 .0270017
857.769 .0269888
858.449 .0269756
859.128 .0269622
859.806 .0269485
860.485 .0269346
861.163 .0269205
861.840 .0269063
862.518 .0268919
863.195 .0268775
863.871 .0268629
864.548 .0268481
865.224 .0268333
865.899 .0268184
866.574 .0268033
867.249 .0267882
867.924 .0267731
868.598 .0267579
869.272 .0267426
869.946 .0267274
870.619 .0267120
871.292 .0266966
871.964 .0266812
872.636 .0266657
873.308 .0266502
873.979 .0266347
874.651 .0266192
875.321 .0266037
875.992 .0265883
876.662 .0265730
877.331 .0265577
878.001 .0265424
878.670 .0265272
879.338 .0265121
880.007 .0264972
880.675 .0264824
881.342 .0264679
882.009 .0264537
882.676 .0264398
883.343 .0264263
884.009 .0264130
884.675 .0264000
885.340 .0263872
886.005 .0263746
886.670 .0263622
887.334 .0263499
887.998 .0263378
888.662 .0263260
889.325 .0263143
889.988 .0263028
890.650 .0262915
891.312 .0262803
891.974 .0262692
892.636 .0262582
893.297 .0262473
893.957 .0262363
894.618 .0262254
895.278 .0262143
895.937 .0262032
896.596 .0261918
897.255 .0261802
897.914 .0261682
898.572 .0261558
899.230 .0261430
899.887 .0261297
900.544 .0261160
901.201 .0261019
901.857 .0260782
902.513 .0260627
903.168 .0260465
903.823 .0260296
904.478 .0260120
905.132 .0259936
905.786 .0259744
906.440 .0259545
907.093 .0259340
907.746 .0259130
908.399 .0258915
909.051 .0258696
909.703 .0258475
910.354 .0258354
911.005 .0258130
911.656 .0257904
912.306 .0257676
912.956 .0257447
913.605 .0257218
914.254 .0256989
914.903 .0256762
915.551 .0256538
916.199 .0256315
916.847 .0256095
917.494 .0255877
918.141 .0255660
918.788 .0255446
919.434 .0255234
920.079 .0255024
920.725 .0254818
921.370 .0254615
922.014 .0254416
922.658 .0254222
923.302 .0254032
923.946 .0253847
924.589 .0253664
925.231 .0253485
925.873 .0253308
926.515 .0253134
927.157 .0252962
927.798 .0252795
928.439 .0252630
929.079 .0252470
929.719 .0252315
930.359 .0252163
930.998 .0252014
931.637 .0251869
932.275 .0251728
932.913 .0251589
933.551 .0251453
934.188 .0251322
934.825 .0251196
935.462 .0251077
936.098 .0250964
936.733 .0250859
937.369 .0250761
938.004 .0250672
938.638 .0250590
939.273 .0250515
939.907 .0250449
940.540 .0250391
941.173 .0250340
941.806 .0250298
942.438 .0250265
943.070 .0250240
943.702 .0250222
944.333 .0250212
944.964 .0250209
945.594 .0250210
946.224 .0250216
946.854 .0250226
947.483 .0250240
948.112 .0250256
948.741 .0250275
949.369 .0250297
949.996 .0250321
950.624 .0250347
951.251 .0250373
951.878 .0250400
952.504 .0250425
953.130 .0250450
953.755 .0250472
954.380 .0250493
955.005 .0250512
955.629 .0250529
956.253 .0250545
956.877 .0250559
957.500 .0250571
958.123 .0250582
958.746 .0250591
959.368 .0250598
959.990 .0250603
960.611 .0250607
961.232 .0250611
961.853 .0250615
962.473 .0250620
963.093 .0250627
963.712 .0250637
964.331 .0250648
964.950 .0250663
965.569 .0250679
966.187 .0250697
966.804 .0250717
967.422 .0250737
968.039 .0250758
968.655 .0250780
969.272 .0250804
969.887 .0250828
970.503 .0250853
971.118 .0250879
971.733 .0250906
972.347 .0250932
972.961 .0250958
973.575 .0250983
974.188 .0251006
974.801 .0251027
975.414 .0251046
976.026 .0251062
976.638 .0251077
977.250 .0251089
977.861 .0251099
978.472 .0251107
979.083 .0251111
979.693 .0251112
980.303 .0251110
980.912 .0251094
981.521 .0251082
982.130 .0251068
982.738 .0251050
983.346 .0251031
983.954 .0251010
984.562 .0250990
985.169 .0250971
985.775 .0250954
986.382 .0250940
986.988 .0250928
987.594 .0250918
988.199 .0250911
988.804 .0250906
989.409 .0250914
990.013 .0250912
990.617 .0250912
991.221 .0250915
991.824 .0250920
992.427 .0250926
993.030 .0250934
993.632 .0250943
994.234 .0250952
994.836 .0250961
995.438 .0250969
996.039 .0250975
996.640 .0250981
997.240 .0250986
997.840 .0250992
998.440 .0250999
999.040 .0251007
999.639 .0251017
1000.238 .0251029
1000.836 .0251043
1001.435 .0251058
1002.033 .0251074
1002.630 .0251090
1003.228 .0251107
1003.825 .0251122
1004.422 .0251136
1005.018 .0251149
1005.614 .0251159
1006.210 .0251166
1006.806 .0251169
1007.401 .0251168
1007.996 .0251163
1008.591 .0251155
1009.186 .0251144
1009.780 .0251130
1010.374 .0251114
1010.967 .0251097
1011.561 .0251080
1012.154 .0251063
1012.746 .0251046
1013.339 .0251031
1013.931 .0251016
1014.523 .0251001
1015.115 .0250988
1015.706 .0250976
1016.298 .0250965
1016.888 .0250957
1017.479 .0250950
1018.069 .0250944
1018.660 .0250940
1019.250 .0250935
1019.839 .0250931
1020.429 .0250926
1021.018 .0250920
1021.607 .0250913
1022.195 .0250905
1022.784 .0250896
1023.372 .0250888
1023.960 .0250882
1024.547 .0250878
1025.135 .0250877
1025.722 .0250879
1026.309 .0250883
1026.896 .0250889
1027.483 .0250897
1028.069 .0250906
1028.655 .0250916
1029.241 .0250926
1029.827 .0250937
1030.412 .0250949
1030.997 .0250960
1031.582 .0250972
1032.167 .0250983
1032.752 .0250991
1033.336 .0250996
1033.921 .0250996
1034.505 .0250990
1035.089 .0250978
1035.672 .0250959
1036.256 .0250934
1036.839 .0250903
1037.422 .0250867
1038.005 .0250826
1038.588 .0250779
1039.171 .0250729
1039.753 .0250673
1040.335 .0250612
1040.918 .0250547
1041.500 .0250476
1042.081 .0250400
1042.663 .0250321
1043.244 .0250237
1043.826 .0250150
1044.407 .0250060
1044.988 .0249967
1045.569 .0249872
1046.150 .0249773
1046.730 .0249672
1047.311 .0249567
1047.891 .0249459
1048.471 .0249349
1049.052 .0249236
1049.632 .0249122
1050.211 .0249008
1050.791 .0248894
1051.371 .0248782
1051.950 .0248670
1052.530 .0248560
1053.109 .0248449
1053.688 .0248338
1054.268 .0248226
1054.847 .0248112
1055.426 .0247998
1056.005 .0247882
1056.583 .0247766
1057.162 .0247649
1057.741 .0247532
1058.319 .0247415
1058.898 .0247297
1059.476 .0247179
1060.055 .0247059
1060.633 .0246937
1061.211 .0246814
1061.790 .0246690
1062.368 .0246566
1062.946 .0246443
1063.524 .0246322
1064.102 .0246204
1064.680 .0246090
1065.258 .0245980
1065.836 .0245874
1066.414 .0245771
1066.992 .0245672
1067.570 .0245575
1068.148 .0245481
1068.726 .0245388
1069.304 .0245298
1069.882 .0245212
1070.460 .0245130
1071.038 .0245053
1071.616 .0244981
1072.194 .0244914
1072.772 .0244852
1073.350 .0244793
1073.928 .0244736
1074.506 .0244681
1075.084 .0244626
1075.662 .0244571
1076.240 .0244515
1076.819 .0244459
1077.397 .0244403
1077.976 .0244347
1078.554 .0244291
1079.133 .0244236
1079.711 .0244181
1080.290 .0244127
1080.869 .0244074
1081.448 .0244022
1082.027 .0243970
1082.606 .0243919
1083.185 .0243870
1083.764 .0243823
1084.343 .0243782
1084.923 .0243747
1085.502 .0243722
1086.082 .0243707
1086.662 .0243703
1087.242 .0243710
1087.822 .0243728
1088.402 .0243755
1088.983 .0243789
1089.563 .0243828
1090.144 .0243873
1090.725 .0243923
1091.306 .0243982
1091.887 .0244051
1092.469 .0244134
1093.050 .0244232
1093.632 .0244348
1094.214 .0244479
1094.796 .0244626
1095.379 .0244785
1095.961 .0244953
1096.544 .0245128
1097.127 .0245311
1097.710 .0245500
1098.294 .0245697
1098.877 .0245905
1099.461 .0246124
1100.046 .0246355
1100.630 .0246597
1101.215 .0246848
1101.800 .0247104
1102.385 .0247361
1102.970 .0247619
1103.556 .0247874
1104.142 .0248128
1104.728 .0248382
1105.315 .0248641
1105.902 .0248909
1106.489 .0249189
1107.077 .0249482
1107.664 .0249789
1108.253 .0250108
1108.841 .0250436
1109.430 .0250770
1110.019 .0251106
1110.609 .0251445
1111.198 .0251785
1111.789 .0252127
1112.379 .0252473
1112.970 .0252825
1113.561 .0253180
1114.153 .0253537
1114.745 .0253895
1115.338 .0254252
1115.931 .0254605
1116.524 .0254956
1117.117 .0255304
1117.712 .0255654
1118.306 .0256008
1118.901 .0256369
1119.496 .0256740
1120.092 .0257124
1120.689 .0257519
1121.285 .0257926
1121.882 .0258346
1122.480 .0258777
1123.078 .0259221
1123.677 .0259683
1124.276 .0260164
1124.875 .0260668
1125.476 .0261195
1126.076 .0261747
1126.677 .0262324
1127.279 .0262926
1127.881 .0263549
1128.484 .0264193
1129.087 .0264436
1129.691 .0265113
1130.295 .0265814
1130.900 .0266542
1131.505 .0267300
1132.111 .0268088
1132.718 .0268908
1133.325 .0269762
1133.933 .0270652
1134.541 .0271580
1135.150 .0272450
1135.760 .0273416
1136.370 .0274504
1136.981 .0275712
1137.592 .0276701
1138.204 .0277694
1138.817 .0278717
1139.431 .0279815
1140.045 .0280880
1140.660 .0282015
1141.275 .0283245
1141.891 .0284547
1142.508 .0286012
1143.126 .0284824
1143.744 .0288010
1144.363 .0292035
1144.983 .0293870
