Measurement Sequence started on: 15-12-46-377
Integration time: 28
Scans to Average: 2 
>>>>>Begin Spectral Data<<<<<
432.689 .0000100
433.621 .0000100
434.552 .0000100
435.482 .0000100
436.410 .0000100
437.337 .0000100
438.262 .0244818
439.187 .0520527
440.110 .0863375
441.031 .1250704
441.952 .1010771
442.871 .1056510
443.789 .1099128
444.705 .1139262
445.621 .1177340
446.535 .1213683
447.447 .1235648
448.359 .1241800
449.269 .1228771
450.178 .1194348
451.086 .1139183
451.993 .1067540
452.898 .0986490
453.803 .0904091
454.706 .0827212
455.608 .0760142
456.508 .0704359
457.408 .0666187
458.306 .0636598
459.204 .0612282
460.100 .0591599
460.995 .0573651
461.888 .0557825
462.781 .0543727
463.673 .0531064
464.563 .0519634
465.452 .0509270
466.340 .0499833
467.228 .0491219
468.114 .0483332
468.999 .0476093
469.882 .0469427
470.765 .0463264
471.647 .0457560
472.528 .0452291
473.407 .0447438
474.286 .0442999
475.163 .0438985
476.040 .0435396
476.915 .0432230
477.790 .0429476
478.663 .0427111
479.535 .0425110
480.407 .0423442
481.277 .0422074
482.147 .0420979
483.015 .0420132
483.883 .0419516
484.749 .0419120
485.615 .0418939
486.479 .0418966
487.343 .0419189
488.206 .0419601
489.067 .0420181
489.928 .0420916
490.788 .0421796
491.647 .0422803
492.505 .0423935
493.362 .0425192
494.218 .0426574
495.073 .0428088
495.928 .0430864
496.781 .0432735
497.634 .0434753
498.486 .0436929
499.337 .0439280
500.187 .0441833
501.036 .0444615
501.884 .0447653
502.731 .0450984
503.578 .0454647
504.424 .0457187
505.268 .0461471
506.113 .0466174
506.956 .0471334
507.798 .0477002
508.640 .0483246
509.480 .0490165
510.320 .0497869
511.160 .0506497
511.998 .0516200
512.836 .0527151
513.672 .0539509
514.508 .0553445
515.344 .0569124
516.178 .0586705
517.012 .0606380
517.845 .0628305
518.677 .0652638
519.508 .0679527
520.339 .0709075
521.169 .0741303
521.998 .0776037
522.826 .0812993
523.654 .0851663
524.481 .0891418
525.307 .0931498
526.133 .0971043
526.958 .1009180
527.782 .1045092
528.605 .1078027
529.428 .1107369
530.250 .1132610
531.072 .1153433
531.892 .1169580
532.712 .1180927
533.532 .1187381
534.350 .1188875
535.168 .1185406
535.986 .1177001
536.802 .1163661
537.618 .1145441
538.434 .1122452
539.249 .1095026
540.063 .1063579
540.876 .1028723
541.689 .0991173
542.501 .0951758
543.313 .0911355
544.124 .0870816
544.934 .0830909
545.744 .0792309
546.553 .0755536
547.361 .0720983
548.169 .0688851
548.976 .0659275
549.783 .0632251
550.589 .0607742
551.395 .0585634
552.200 .0565773
553.004 .0547961
553.808 .0532024
554.611 .0517773
555.414 .0505036
556.216 .0493617
557.018 .0483340
557.819 .0474050
558.619 .0465604
559.419 .0457862
560.218 .0450720
561.017 .0444086
561.815 .0437880
562.613 .0432034
563.410 .0426480
564.207 .0421162
565.003 .0416034
565.799 .0411050
566.594 .0406173
567.388 .0401376
568.182 .0396636
568.976 .0391936
569.769 .0387270
570.562 .0382636
571.354 .0378038
572.145 .0373489
572.936 .0369006
573.727 .0364606
574.517 .0360312
575.307 .0356146
576.096 .0352131
576.885 .0348290
577.673 .0344634
578.461 .0341175
579.248 .0337919
580.035 .0334872
580.821 .0332031
581.607 .0329395
582.392 .0326959
583.177 .0324721
583.962 .0322670
584.746 .0320799
585.529 .0319099
586.313 .0317561
587.095 .0316174
587.878 .0314926
588.660 .0313806
589.441 .0312800
590.222 .0311898
591.003 .0311086
591.783 .0310355
592.563 .0309692
593.342 .0309084
594.121 .0308525
594.899 .0308005
595.678 .0307519
596.455 .0307062
597.233 .0306628
598.009 .0306215
598.786 .0305819
599.562 .0305437
600.338 .0305066
601.113 .0304705
601.888 .0304187
602.663 .0303842
603.437 .0303502
604.211 .0303169
604.984 .0302842
605.757 .0302522
606.530 .0302209
607.302 .0301903
608.074 .0301604
608.845 .0301312
609.616 .0301026
610.387 .0300899
611.158 .0300626
611.928 .0300361
612.697 .0300103
613.467 .0299854
614.236 .0299614
615.004 .0299381
615.773 .0299155
616.541 .0298935
617.308 .0298721
618.076 .0298510
618.843 .0298304
619.609 .0298102
620.375 .0297903
621.141 .0297709
621.907 .0297518
622.672 .0297330
623.437 .0297144
624.202 .0296960
624.966 .0296776
625.730 .0296592
626.493 .0296408
627.257 .0296222
628.020 .0296035
628.782 .0295847
629.545 .0295657
630.307 .0295466
631.068 .0295275
631.830 .0295083
632.591 .0294892
633.352 .0294702
634.112 .0294513
634.872 .0294326
635.632 .0294141
636.392 .0293957
637.151 .0293774
637.910 .0293591
638.668 .0293409
639.427 .0293226
640.185 .0293045
640.943 .0292867
641.700 .0292692
642.457 .0292523
643.214 .0292358
643.971 .0292199
644.727 .0292045
645.483 .0291895
646.239 .0291748
646.994 .0291604
647.750 .0291462
648.505 .0291323
649.259 .0291186
650.014 .0291052
650.768 .0290920
651.521 .0290792
652.275 .0290667
653.028 .0290544
653.781 .0290424
654.534 .0290305
655.286 .0290186
656.039 .0290069
656.791 .0289953
657.542 .0289837
658.294 .0289721
659.045 .0289605
659.796 .0289488
660.546 .0289371
661.297 .0289253
662.047 .0289134
662.796 .0289013
663.546 .0288892
664.295 .0288768
665.044 .0288643
665.793 .0288515
666.542 .0288385
667.290 .0288252
668.038 .0288117
668.786 .0287979
669.533 .0287840
670.281 .0287698
671.028 .0287555
671.774 .0287412
672.521 .0287267
673.267 .0287121
674.013 .0286975
674.759 .0286826
675.505 .0286676
676.250 .0286524
676.995 .0286370
677.740 .0286213
678.484 .0286053
679.229 .0285892
679.973 .0285729
680.717 .0285566
681.460 .0285402
682.204 .0285238
682.947 .0285075
683.690 .0284910
684.433 .0284746
685.175 .0284582
685.917 .0284417
686.659 .0284252
687.401 .0284089
688.142 .0283926
688.884 .0283765
689.625 .0283608
690.365 .0283454
691.106 .0283305
691.846 .0283160
692.586 .0283019
693.326 .0282883
694.066 .0282752
694.805 .0282625
695.545 .0282503
696.284 .0282385
697.022 .0282271
697.761 .0282161
698.499 .0282055
699.237 .0281953
699.975 .0281855
700.713 .0281762
701.450 .0281672
702.187 .0281586
702.924 .0281503
703.661 .0281423
704.397 .0281344
705.133 .0281266
705.869 .0281187
706.605 .0281107
707.341 .0281024
708.076 .0280937
708.811 .0280846
709.546 .0280750
710.281 .0280649
711.015 .0280543
711.749 .0280431
712.483 .0280314
713.217 .0280191
713.950 .0280063
714.684 .0279930
715.417 .0279792
716.150 .0279648
716.882 .0279500
717.615 .0279348
718.347 .0279191
719.079 .0279030
719.811 .0278867
720.542 .0278701
721.273 .0278533
722.005 .0278364
722.735 .0278196
723.466 .0278027
724.196 .0277859
724.927 .0277691
725.656 .0277524
726.386 .0277357
727.116 .0277190
727.845 .0277022
728.574 .0276855
729.303 .0276686
730.031 .0276516
730.760 .0276346
731.488 .0276174
732.216 .0276001
732.944 .0275826
733.671 .0275650
734.398 .0275473
735.125 .0275294
735.852 .0275114
736.579 .0274933
737.305 .0274751
738.031 .0274568
738.757 .0274384
739.483 .0274200
740.208 .0274015
740.933 .0273830
741.658 .0273645
742.383 .0273460
743.108 .0273276
743.832 .0273093
744.556 .0272913
745.280 .0272734
746.004 .0272558
746.727 .0272385
747.450 .0272214
748.173 .0272046
748.896 .0271881
749.618 .0271719
750.340 .0271560
751.062 .0271405
751.784 .0271253
752.506 .0271105
753.227 .0270959
753.948 .0270817
754.669 .0270678
755.389 .0270540
756.110 .0270403
756.830 .0270267
757.550 .0270131
758.269 .0269996
758.989 .0269860
759.708 .0269724
760.427 .0269587
761.146 .0269449
761.864 .0269311
762.582 .0269172
763.300 .0269033
764.018 .0268895
764.736 .0268757
765.453 .0268621
766.170 .0268486
766.887 .0268353
767.603 .0268221
768.320 .0268091
769.036 .0267963
769.751 .0267836
770.467 .0267712
771.182 .0267591
771.897 .0267474
772.612 .0267359
773.327 .0267248
774.041 .0267140
774.755 .0267035
775.469 .0266931
776.183 .0266830
776.896 .0266730
777.609 .0266633
778.322 .0266537
779.035 .0266444
779.747 .0266353
780.459 .0266263
781.171 .0266175
781.882 .0266088
782.594 .0266003
783.305 .0265917
784.016 .0265833
784.726 .0265748
785.436 .0265664
786.147 .0265541
786.856 .0265460
787.566 .0265379
788.275 .0265296
788.984 .0265213
789.693 .0265129
790.401 .0265044
791.110 .0264958
791.818 .0264872
792.525 .0264786
793.233 .0264698
793.940 .0264611
794.647 .0264561
795.353 .0264469
796.060 .0264375
796.766 .0264280
797.472 .0264183
798.177 .0264083
798.883 .0263981
799.588 .0263878
800.292 .0263772
800.997 .0263663
801.701 .0263552
802.405 .0263438
803.109 .0263320
803.812 .0263199
804.515 .0263074
805.218 .0262946
805.921 .0262815
806.623 .0262681
807.325 .0262544
808.027 .0262404
808.728 .0262260
809.429 .0262114
810.130 .0261964
810.831 .0261810
811.531 .0261652
812.231 .0261491
812.931 .0261326
813.630 .0261157
814.330 .0260984
815.029 .0260808
815.727 .0260627
816.426 .0260443
817.124 .0260256
817.821 .0260065
818.519 .0259871
819.216 .0259674
819.913 .0259475
820.609 .0259274
821.306 .0259071
822.002 .0258868
822.697 .0258665
823.393 .0258462
824.088 .0258261
824.783 .0258061
825.477 .0257862
826.171 .0257666
826.865 .0257472
827.559 .0257280
828.252 .0257090
828.945 .0256903
829.638 .0256719
830.330 .0256536
831.023 .0256356
831.714 .0256176
832.406 .0255997
833.097 .0255819
833.788 .0255640
834.479 .0255460
835.169 .0255279
835.859 .0255097
836.548 .0254915
837.238 .0254732
837.927 .0254549
838.615 .0254366
839.304 .0254183
839.992 .0254001
840.680 .0253819
841.367 .0253638
842.054 .0253458
842.741 .0253281
843.428 .0253108
844.114 .0252940
844.800 .0252777
845.485 .0252621
846.170 .0252471
846.855 .0252329
847.540 .0252193
848.224 .0252064
848.908 .0251941
849.592 .0251826
850.275 .0251716
850.958 .0251613
851.641 .0251517
852.323 .0251427
853.005 .0251342
853.687 .0251263
854.368 .0251188
855.049 .0251118
855.730 .0251051
856.410 .0250988
857.090 .0250928
857.769 .0250871
858.449 .0250816
859.128 .0250763
859.806 .0250713
860.485 .0250664
861.163 .0250617
861.840 .0250572
862.518 .0250529
863.195 .0250487
863.871 .0250447
864.548 .0250409
865.224 .0250374
865.899 .0250340
866.574 .0250310
867.249 .0250281
867.924 .0250255
868.598 .0250231
869.272 .0250209
869.946 .0250190
870.619 .0250173
871.292 .0250157
871.964 .0250144
872.636 .0250133
873.308 .0250123
873.979 .0250115
874.651 .0250107
875.321 .0250101
875.992 .0250094
876.662 .0250087
877.331 .0250079
878.001 .0250069
878.670 .0250057
879.338 .0250042
880.007 .0250024
880.675 .0250002
881.342 .0249977
882.009 .0249948
882.676 .0249916
883.343 .0249882
884.009 .0249845
884.675 .0249807
885.340 .0249767
886.005 .0249725
886.670 .0249682
887.334 .0249637
887.998 .0249590
888.662 .0249542
889.325 .0249492
889.988 .0249441
890.650 .0249390
891.312 .0249339
891.974 .0249289
892.636 .0249238
893.297 .0249189
893.957 .0249140
894.618 .0249092
895.278 .0249044
895.937 .0248996
896.596 .0248947
897.255 .0248899
897.914 .0248850
898.572 .0248800
899.230 .0248749
899.887 .0248695
900.544 .0248639
901.201 .0248578
901.857 .0248466
902.513 .0248389
903.168 .0248305
903.823 .0248215
904.478 .0248118
905.132 .0248014
905.786 .0247903
906.440 .0247783
907.093 .0247655
907.746 .0247518
908.399 .0247371
909.051 .0247215
909.703 .0247050
910.354 .0246941
911.005 .0246764
911.656 .0246578
912.306 .0246386
912.956 .0246188
913.605 .0245983
914.254 .0245774
914.903 .0245559
915.551 .0245340
916.199 .0245116
916.847 .0244889
917.494 .0244658
918.141 .0244425
918.788 .0244192
919.434 .0243958
920.079 .0243726
920.725 .0243495
921.370 .0243265
922.014 .0243037
922.658 .0242811
923.302 .0242587
923.946 .0242363
924.589 .0242141
925.231 .0241920
925.873 .0241700
926.515 .0241482
927.157 .0241266
927.798 .0241051
928.439 .0240838
929.079 .0240625
929.719 .0240413
930.359 .0240201
930.998 .0239989
931.637 .0239776
932.275 .0239563
932.913 .0239349
933.551 .0239135
934.188 .0238922
934.825 .0238708
935.462 .0238495
936.098 .0238282
936.733 .0238069
937.369 .0237855
938.004 .0237640
938.638 .0237425
939.273 .0237210
939.907 .0236994
940.540 .0236778
941.173 .0236561
941.806 .0236346
942.438 .0236130
943.070 .0235915
943.702 .0235701
944.333 .0235488
944.964 .0235275
945.594 .0235064
946.224 .0234855
946.854 .0234647
947.483 .0234442
948.112 .0234240
948.741 .0234040
949.369 .0233842
949.996 .0233647
950.624 .0233455
951.251 .0233265
951.878 .0233079
952.504 .0232896
953.130 .0232718
953.755 .0232544
954.380 .0232375
955.005 .0232210
955.629 .0232050
956.253 .0231894
956.877 .0231741
957.500 .0231592
958.123 .0231448
958.746 .0231308
959.368 .0231173
959.990 .0231045
960.611 .0230922
961.232 .0230807
961.853 .0230699
962.473 .0230597
963.093 .0230501
963.712 .0230410
964.331 .0230325
964.950 .0230245
965.569 .0230169
966.187 .0230099
966.804 .0230034
967.422 .0229974
968.039 .0229919
968.655 .0229869
969.272 .0229822
969.887 .0229779
970.503 .0229737
971.118 .0229699
971.733 .0229663
972.347 .0229631
972.961 .0229602
973.575 .0229579
974.188 .0229562
974.801 .0229552
975.414 .0229547
976.026 .0229549
976.638 .0229556
977.250 .0229569
977.861 .0229586
978.472 .0229609
979.083 .0229636
979.693 .0229668
980.303 .0229704
980.912 .0229781
981.521 .0229825
982.130 .0229872
982.738 .0229921
983.346 .0229972
983.954 .0230025
984.562 .0230080
985.169 .0230139
985.775 .0230201
986.382 .0230267
986.988 .0230338
987.594 .0230413
988.199 .0230492
988.804 .0230575
989.409 .0230618
990.013 .0230704
990.617 .0230794
991.221 .0230885
991.824 .0230978
992.427 .0231071
993.030 .0231163
993.632 .0231253
994.234 .0231341
994.836 .0231425
995.438 .0231506
996.039 .0231582
996.640 .0231656
997.240 .0231726
997.840 .0231795
998.440 .0231862
999.040 .0231930
999.639 .0231997
1000.238 .0232064
1000.836 .0232132
1001.435 .0232200
1002.033 .0232268
1002.630 .0232335
1003.228 .0232402
1003.825 .0232469
1004.422 .0232536
1005.018 .0232602
1005.614 .0232669
1006.210 .0232735
1006.806 .0232801
1007.401 .0232865
1007.996 .0232928
1008.591 .0232989
1009.186 .0233048
1009.780 .0233106
1010.374 .0233163
1010.967 .0233219
1011.561 .0233275
1012.154 .0233332
1012.746 .0233391
1013.339 .0233450
1013.931 .0233509
1014.523 .0233568
1015.115 .0233626
1015.706 .0233684
1016.298 .0233740
1016.888 .0233796
1017.479 .0233852
1018.069 .0233908
1018.660 .0233965
1019.250 .0234022
1019.839 .0234080
1020.429 .0234138
1021.018 .0234195
1021.607 .0234250
1022.195 .0234304
1022.784 .0234357
1023.372 .0234408
1023.960 .0234457
1024.547 .0234506
1025.135 .0234553
1025.722 .0234600
1026.309 .0234645
1026.896 .0234688
1027.483 .0234728
1028.069 .0234764
1028.655 .0234795
1029.241 .0234822
1029.827 .0234843
1030.412 .0234860
1030.997 .0234872
1031.582 .0234881
1032.167 .0234886
1032.752 .0234888
1033.336 .0234887
1033.921 .0234883
1034.505 .0234876
1035.089 .0234865
1035.672 .0234850
1036.256 .0234831
1036.839 .0234809
1037.422 .0234783
1038.005 .0234755
1038.588 .0234723
1039.171 .0234690
1039.753 .0234655
1040.335 .0234619
1040.918 .0234581
1041.500 .0234542
1042.081 .0234501
1042.663 .0234458
1043.244 .0234414
1043.826 .0234368
1044.407 .0234321
1044.988 .0234275
1045.569 .0234230
1046.150 .0234187
1046.730 .0234147
1047.311 .0234110
1047.891 .0234076
1048.471 .0234045
1049.052 .0234018
1049.632 .0233992
1050.211 .0233967
1050.791 .0233944
1051.371 .0233921
1051.950 .0233899
1052.530 .0233878
1053.109 .0233858
1053.688 .0233841
1054.268 .0233825
1054.847 .0233809
1055.426 .0233794
1056.005 .0233777
1056.583 .0233758
1057.162 .0233737
1057.741 .0233712
1058.319 .0233685
1058.898 .0233656
1059.476 .0233627
1060.055 .0233598
1060.633 .0233570
1061.211 .0233543
1061.790 .0233518
1062.368 .0233492
1062.946 .0233465
1063.524 .0233436
1064.102 .0233403
1064.680 .0233367
1065.258 .0233328
1065.836 .0233286
1066.414 .0233240
1066.992 .0233192
1067.570 .0233140
1068.148 .0233085
1068.726 .0233026
1069.304 .0232962
1069.882 .0232894
1070.460 .0232821
1071.038 .0232746
1071.616 .0232668
1072.194 .0232591
1072.772 .0232514
1073.350 .0232440
1073.928 .0232367
1074.506 .0232297
1075.084 .0232229
1075.662 .0232161
1076.240 .0232095
1076.819 .0232030
1077.397 .0231965
1077.976 .0231899
1078.554 .0231833
1079.133 .0231767
1079.711 .0231701
1080.290 .0231635
1080.869 .0231569
1081.448 .0231502
1082.027 .0231435
1082.606 .0231366
1083.185 .0231297
1083.764 .0231229
1084.343 .0231161
1084.923 .0231095
1085.502 .0231031
1086.082 .0230970
1086.662 .0230912
1087.242 .0230857
1087.822 .0230805
1088.402 .0230754
1088.983 .0230704
1089.563 .0230652
1090.144 .0230599
1090.725 .0230544
1091.306 .0230488
1091.887 .0230431
1092.469 .0230375
1093.050 .0230320
1093.632 .0230266
1094.214 .0230216
1094.796 .0230169
1095.379 .0230127
1095.961 .0230089
1096.544 .0230056
1097.127 .0230029
1097.710 .0230007
1098.294 .0229993
1098.877 .0229987
1099.461 .0229991
1100.046 .0230006
1100.630 .0230033
1101.215 .0230072
1101.800 .0230123
1102.385 .0230184
1102.970 .0230254
1103.556 .0230331
1104.142 .0230414
1104.728 .0230500
1105.315 .0230591
1105.902 .0230688
1106.489 .0230793
1107.077 .0230908
1107.664 .0231033
1108.253 .0231171
1108.841 .0231322
1109.430 .0231483
1110.019 .0231657
1110.609 .0231841
1111.198 .0232036
1111.789 .0232241
1112.379 .0232455
1112.970 .0232680
1113.561 .0232914
1114.153 .0233157
1114.745 .0233410
1115.338 .0233674
1115.931 .0233946
1116.524 .0234226
1117.117 .0234514
1117.712 .0234811
1118.306 .0235119
1118.901 .0235439
1119.496 .0235773
1120.092 .0236121
1120.689 .0236487
1121.285 .0236869
1121.882 .0237271
1122.480 .0237694
1123.078 .0238138
1123.677 .0238607
1124.276 .0239103
1124.875 .0239628
1125.476 .0240182
1126.076 .0240768
1126.677 .0241385
1127.279 .0242033
1127.881 .0242710
1128.484 .0243413
1129.087 .0243685
1129.691 .0244428
1130.295 .0245199
1130.900 .0245999
1131.505 .0246826
1132.111 .0247684
1132.718 .0248570
1133.325 .0249484
1133.933 .0250421
1134.541 .0251413
1135.150 .0252419
1135.760 .0253414
1136.370 .0254450
1136.981 .0255844
1137.592 .0256987
1138.204 .0258127
1138.817 .0259264
1139.431 .0260402
1140.045 .0261598
1140.660 .0262777
1141.275 .0263951
1141.891 .0264986
1142.508 .0266958
1143.126 .0267878
1143.744 .0268123
1144.363 .0269825
1144.983 .0267070
