Measurement Sequence started on: 15-12-46-377
Integration time: 28
Scans to Average: 2 
>>>>>Begin Spectral Data<<<<<
432.689 .0000100
433.621 .0000100
434.552 .0000100
435.482 .0000100
436.410 .0000100
437.337 .0000100
438.262 .0280315
439.187 .0595133
440.110 .0986160
441.031 .1427867
441.952 .1152078
442.871 .1204017
443.789 .1252371
444.705 .1297869
445.621 .1341004
446.535 .1382179
447.447 .1406939
448.359 .1413695
449.269 .1398640
450.178 .1359268
451.086 .1296349
451.993 .1214756
452.898 .1122550
453.803 .1028918
454.706 .0941679
455.608 .0865705
456.508 .0802651
457.408 .0759755
458.306 .0726677
459.204 .0699662
460.100 .0676878
460.995 .0657301
461.888 .0640226
462.781 .0625194
463.673 .0611826
464.563 .0599854
465.452 .0589067
466.340 .0579280
467.228 .0570345
468.114 .0562151
468.999 .0554607
469.882 .0547638
470.765 .0541185
471.647 .0535206
472.528 .0529673
473.407 .0524564
474.286 .0519876
475.163 .0515597
476.040 .0511711
476.915 .0508203
477.790 .0505044
478.663 .0502221
479.535 .0499718
480.407 .0497521
481.277 .0495622
482.147 .0494008
483.015 .0492671
483.883 .0491601
484.749 .0490788
485.615 .0490225
486.479 .0489897
487.343 .0489797
488.206 .0489915
489.067 .0490238
489.928 .0490764
490.788 .0491490
491.647 .0492418
492.505 .0493550
493.362 .0494883
494.218 .0496414
495.073 .0498142
495.928 .0501397
496.781 .0503602
497.634 .0506004
498.486 .0508609
499.337 .0511428
500.187 .0514487
501.036 .0517803
501.884 .0521405
502.731 .0525327
503.578 .0529604
504.424 .0532506
505.268 .0537464
506.113 .0542892
506.956 .0548831
507.798 .0555344
508.640 .0562507
509.480 .0570423
510.320 .0579207
511.160 .0589004
511.998 .0599969
512.836 .0612293
513.672 .0626170
514.508 .0641822
515.344 .0659485
516.178 .0679408
517.012 .0701842
517.845 .0727025
518.677 .0755175
519.508 .0786499
520.339 .0821116
521.169 .0859086
521.998 .0900175
522.826 .0944001
523.654 .0989931
524.481 .1037170
525.307 .1084763
526.133 .1131677
526.958 .1176840
527.782 .1219261
528.605 .1258061
529.428 .1292558
530.250 .1322178
531.072 .1346608
531.892 .1365571
532.712 .1378900
533.532 .1386446
534.350 .1388154
535.168 .1383984
535.986 .1373959
536.802 .1358080
537.618 .1336416
538.434 .1309073
539.249 .1276463
540.063 .1239127
540.876 .1197826
541.689 .1153444
542.501 .1107003
543.313 .1059523
544.124 .1012055
544.934 .0965527
545.744 .0920725
546.553 .0878225
547.361 .0838468
548.169 .0801611
548.976 .0767764
549.783 .0736890
550.589 .0708915
551.395 .0683647
552.200 .0660890
553.004 .0640390
553.808 .0621918
554.611 .0605255
555.414 .0590206
556.216 .0576552
557.018 .0564095
557.819 .0552651
558.619 .0542071
559.419 .0532224
560.218 .0523032
561.017 .0514403
561.815 .0506274
562.613 .0498590
563.410 .0491299
564.207 .0484344
565.003 .0477682
565.799 .0471267
566.594 .0465057
567.388 .0459027
568.182 .0453162
568.976 .0447449
569.769 .0441887
570.562 .0436476
571.354 .0431215
572.145 .0426102
572.936 .0421140
573.727 .0416326
574.517 .0411671
575.307 .0407181
576.096 .0402859
576.885 .0398713
577.673 .0394755
578.461 .0390992
579.248 .0387428
580.035 .0384066
580.821 .0380901
581.607 .0377927
582.392 .0375136
583.177 .0372517
583.962 .0370062
584.746 .0367761
585.529 .0365605
586.313 .0363582
587.095 .0361685
587.878 .0359906
588.660 .0358239
589.441 .0356679
590.222 .0355221
591.003 .0353860
591.783 .0352590
592.563 .0351406
593.342 .0350299
594.121 .0349263
594.899 .0348289
595.678 .0347369
596.455 .0346498
597.233 .0345670
598.009 .0344880
598.786 .0344127
599.562 .0343407
600.338 .0342717
601.113 .0342054
601.888 .0341130
602.663 .0340521
603.437 .0339931
604.211 .0339357
604.984 .0338798
605.757 .0338251
606.530 .0337716
607.302 .0337193
608.074 .0336684
608.845 .0336188
609.616 .0335707
610.387 .0335507
611.158 .0335054
611.928 .0334619
612.697 .0334203
613.467 .0333807
614.236 .0333430
615.004 .0333072
615.773 .0332734
616.541 .0332413
617.308 .0332110
618.076 .0331825
618.843 .0331556
619.609 .0331302
620.375 .0331063
621.141 .0330838
621.907 .0330624
622.672 .0330421
623.437 .0330228
624.202 .0330041
624.966 .0329858
625.730 .0329678
626.493 .0329498
627.257 .0329316
628.020 .0329132
628.782 .0328943
629.545 .0328748
630.307 .0328547
631.068 .0328338
631.830 .0328121
632.591 .0327895
633.352 .0327662
634.112 .0327420
634.872 .0327171
635.632 .0326914
636.392 .0326649
637.151 .0326379
637.910 .0326103
638.668 .0325822
639.427 .0325538
640.185 .0325251
640.943 .0324961
641.700 .0324670
642.457 .0324379
643.214 .0324087
643.971 .0323796
644.727 .0323504
645.483 .0323212
646.239 .0322921
646.994 .0322629
647.750 .0322337
648.505 .0322044
649.259 .0321751
650.014 .0321455
650.768 .0321156
651.521 .0320854
652.275 .0320547
653.028 .0320237
653.781 .0319923
654.534 .0319604
655.286 .0319281
656.039 .0318955
656.791 .0318625
657.542 .0318291
658.294 .0317954
659.045 .0317613
659.796 .0317270
660.546 .0316924
661.297 .0316577
662.047 .0316229
662.796 .0315883
663.546 .0315538
664.295 .0315196
665.044 .0314858
665.793 .0314524
666.542 .0314195
667.290 .0313873
668.038 .0313557
668.786 .0313247
669.533 .0312946
670.281 .0312652
671.028 .0312366
671.774 .0312089
672.521 .0311820
673.267 .0311560
674.013 .0311309
674.759 .0311066
675.505 .0310831
676.250 .0310605
676.995 .0310387
677.740 .0310175
678.484 .0309971
679.229 .0309774
679.973 .0309583
680.717 .0309400
681.460 .0309222
682.204 .0309052
682.947 .0308887
683.690 .0308729
684.433 .0308577
685.175 .0308431
685.917 .0308290
686.659 .0308153
687.401 .0308020
688.142 .0307890
688.884 .0307762
689.625 .0307635
690.365 .0307510
691.106 .0307385
691.846 .0307260
692.586 .0307135
693.326 .0307010
694.066 .0306884
694.805 .0306758
695.545 .0306632
696.284 .0306504
697.022 .0306376
697.761 .0306246
698.499 .0306114
699.237 .0305981
699.975 .0305847
700.713 .0305712
701.450 .0305577
702.187 .0305440
702.924 .0305304
703.661 .0305167
704.397 .0305028
705.133 .0304888
705.869 .0304745
706.605 .0304599
707.341 .0304449
708.076 .0304296
708.811 .0304139
709.546 .0303978
710.281 .0303813
711.015 .0303645
711.749 .0303473
712.483 .0303296
713.217 .0303116
713.950 .0302930
714.684 .0302739
715.417 .0302542
716.150 .0302339
716.882 .0302129
717.615 .0301914
718.347 .0301694
719.079 .0301468
719.811 .0301237
720.542 .0301003
721.273 .0300765
722.005 .0300525
722.735 .0300283
723.466 .0300039
724.196 .0299794
724.927 .0299548
725.656 .0299303
726.386 .0299058
727.116 .0298815
727.845 .0298574
728.574 .0298335
729.303 .0298100
730.031 .0297869
730.760 .0297642
731.488 .0297419
732.216 .0297202
732.944 .0296989
733.671 .0296780
734.398 .0296576
735.125 .0296376
735.852 .0296179
736.579 .0295986
737.305 .0295795
738.031 .0295607
738.757 .0295421
739.483 .0295238
740.208 .0295056
740.933 .0294875
741.658 .0294696
742.383 .0294517
743.108 .0294340
743.832 .0294162
744.556 .0293984
745.280 .0293806
746.004 .0293627
746.727 .0293446
747.450 .0293262
748.173 .0293076
748.896 .0292887
749.618 .0292695
750.340 .0292501
751.062 .0292305
751.784 .0292108
752.506 .0291908
753.227 .0291708
753.948 .0291507
754.669 .0291305
755.389 .0291104
756.110 .0290904
756.830 .0290705
757.550 .0290509
758.269 .0290315
758.989 .0290124
759.708 .0289937
760.427 .0289753
761.146 .0289573
761.864 .0289397
762.582 .0289226
763.300 .0289059
764.018 .0288898
764.736 .0288743
765.453 .0288595
766.170 .0288454
766.887 .0288320
767.603 .0288194
768.320 .0288075
769.036 .0287963
769.751 .0287859
770.467 .0287762
771.182 .0287673
771.897 .0287591
772.612 .0287518
773.327 .0287452
774.041 .0287395
774.755 .0287344
775.469 .0287302
776.183 .0287266
776.896 .0287236
777.609 .0287214
778.322 .0287197
779.035 .0287187
779.747 .0287182
780.459 .0287181
781.171 .0287186
781.882 .0287194
782.594 .0287205
783.305 .0287218
784.016 .0287234
784.726 .0287252
785.436 .0287272
786.147 .0287304
786.856 .0287325
787.566 .0287346
788.275 .0287367
788.984 .0287386
789.693 .0287404
790.401 .0287419
791.110 .0287432
791.818 .0287441
792.525 .0287448
793.233 .0287450
793.940 .0287450
794.647 .0287440
795.353 .0287433
796.060 .0287422
796.766 .0287406
797.472 .0287386
798.177 .0287361
798.883 .0287331
799.588 .0287295
800.292 .0287253
800.997 .0287206
801.701 .0287152
802.405 .0287092
803.109 .0287025
803.812 .0286952
804.515 .0286873
805.218 .0286786
805.921 .0286692
806.623 .0286591
807.325 .0286483
808.027 .0286367
808.728 .0286242
809.429 .0286110
810.130 .0285970
810.831 .0285823
811.531 .0285670
812.231 .0285510
812.931 .0285345
813.630 .0285175
814.330 .0285001
815.029 .0284823
815.727 .0284643
816.426 .0284461
817.124 .0284278
817.821 .0284093
818.519 .0283908
819.216 .0283724
819.913 .0283541
820.609 .0283359
821.306 .0283180
822.002 .0283003
822.697 .0282830
823.393 .0282660
824.088 .0282494
824.783 .0282333
825.477 .0282175
826.171 .0282020
826.865 .0281868
827.559 .0281719
828.252 .0281571
828.945 .0281426
829.638 .0281281
830.330 .0281137
831.023 .0280994
831.714 .0280851
832.406 .0280708
833.097 .0280564
833.788 .0280419
834.479 .0280273
835.169 .0280125
835.859 .0279974
836.548 .0279822
837.238 .0279666
837.927 .0279507
838.615 .0279345
839.304 .0279179
839.992 .0279009
840.680 .0278836
841.367 .0278658
842.054 .0278478
842.741 .0278294
843.428 .0278107
844.114 .0277917
844.800 .0277725
845.485 .0277530
846.170 .0277334
846.855 .0277135
847.540 .0276934
848.224 .0276732
848.908 .0276527
849.592 .0276321
850.275 .0276114
850.958 .0275905
851.641 .0275695
852.323 .0275484
853.005 .0275272
853.687 .0275058
854.368 .0274844
855.049 .0274628
855.730 .0274412
856.410 .0274195
857.090 .0273978
857.769 .0273762
858.449 .0273546
859.128 .0273332
859.806 .0273119
860.485 .0272910
861.163 .0272704
861.840 .0272502
862.518 .0272304
863.195 .0272111
863.871 .0271922
864.548 .0271739
865.224 .0271561
865.899 .0271387
866.574 .0271219
867.249 .0271057
867.924 .0270900
868.598 .0270751
869.272 .0270608
869.946 .0270472
870.619 .0270344
871.292 .0270224
871.964 .0270112
872.636 .0270008
873.308 .0269913
873.979 .0269826
874.651 .0269748
875.321 .0269679
875.992 .0269618
876.662 .0269566
877.331 .0269523
878.001 .0269488
878.670 .0269461
879.338 .0269441
880.007 .0269429
880.675 .0269425
881.342 .0269428
882.009 .0269439
882.676 .0269457
883.343 .0269483
884.009 .0269517
884.675 .0269558
885.340 .0269607
886.005 .0269663
886.670 .0269726
887.334 .0269796
887.998 .0269873
888.662 .0269956
889.325 .0270044
889.988 .0270139
890.650 .0270240
891.312 .0270345
891.974 .0270455
892.636 .0270568
893.297 .0270684
893.957 .0270802
894.618 .0270920
895.278 .0271037
895.937 .0271153
896.596 .0271266
897.255 .0271376
897.914 .0271481
898.572 .0271582
899.230 .0271677
899.887 .0271765
900.544 .0271846
901.201 .0271917
901.857 .0271979
902.513 .0272024
903.168 .0272058
903.823 .0272081
904.478 .0272093
905.132 .0272095
905.786 .0272086
906.440 .0272066
907.093 .0272034
907.746 .0271993
908.399 .0271942
909.051 .0271882
909.703 .0271815
910.354 .0271766
911.005 .0271694
911.656 .0271617
912.306 .0271536
912.956 .0271452
913.605 .0271366
914.254 .0271278
914.903 .0271188
915.551 .0271096
916.199 .0271002
916.847 .0270908
917.494 .0270813
918.141 .0270717
918.788 .0270620
919.434 .0270521
920.079 .0270419
920.725 .0270316
921.370 .0270209
922.014 .0270099
922.658 .0269985
923.302 .0269868
923.946 .0269746
924.589 .0269621
925.231 .0269490
925.873 .0269355
926.515 .0269214
927.157 .0269066
927.798 .0268912
928.439 .0268751
929.079 .0268584
929.719 .0268411
930.359 .0268232
930.998 .0268048
931.637 .0267860
932.275 .0267668
932.913 .0267474
933.551 .0267277
934.188 .0267079
934.825 .0266881
935.462 .0266682
936.098 .0266485
936.733 .0266289
937.369 .0266096
938.004 .0265906
938.638 .0265721
939.273 .0265540
939.907 .0265364
940.540 .0265194
941.173 .0265029
941.806 .0264869
942.438 .0264714
943.070 .0264563
943.702 .0264417
944.333 .0264274
944.964 .0264134
945.594 .0263997
946.224 .0263862
946.854 .0263729
947.483 .0263595
948.112 .0263461
948.741 .0263326
949.369 .0263187
949.996 .0263046
950.624 .0262900
951.251 .0262749
951.878 .0262594
952.504 .0262434
953.130 .0262268
953.755 .0262098
954.380 .0261922
955.005 .0261741
955.629 .0261553
956.253 .0261360
956.877 .0261161
957.500 .0260955
958.123 .0260743
958.746 .0260526
959.368 .0260306
959.990 .0260082
960.611 .0259856
961.232 .0259629
961.853 .0259400
962.473 .0259170
963.093 .0258939
963.712 .0258708
964.331 .0258476
964.950 .0258244
965.569 .0258013
966.187 .0257782
966.804 .0257552
967.422 .0257323
968.039 .0257095
968.655 .0256867
969.272 .0256639
969.887 .0256411
970.503 .0256182
971.118 .0255952
971.733 .0255721
972.347 .0255489
972.961 .0255257
973.575 .0255025
974.188 .0254792
974.801 .0254559
975.414 .0254325
976.026 .0254090
976.638 .0253853
977.250 .0253613
977.861 .0253372
978.472 .0253129
979.083 .0252885
979.693 .0252640
980.303 .0252395
980.912 .0252029
981.521 .0251786
982.130 .0251542
982.738 .0251299
983.346 .0251057
983.954 .0250817
984.562 .0250579
985.169 .0250345
985.775 .0250117
986.382 .0249895
986.988 .0249681
987.594 .0249475
988.199 .0249276
988.804 .0249086
989.409 .0249013
990.013 .0248835
990.617 .0248664
991.221 .0248501
991.824 .0248346
992.427 .0248200
993.030 .0248062
993.632 .0247933
994.234 .0247812
994.836 .0247699
995.438 .0247593
996.039 .0247494
996.640 .0247402
997.240 .0247317
997.840 .0247239
998.440 .0247171
999.040 .0247111
999.639 .0247062
1000.238 .0247023
1000.836 .0246994
1001.435 .0246976
1002.033 .0246967
1002.630 .0246967
1003.228 .0246975
1003.825 .0246990
1004.422 .0247011
1005.018 .0247039
1005.614 .0247072
1006.210 .0247112
1006.806 .0247157
1007.401 .0247208
1007.996 .0247264
1008.591 .0247324
1009.186 .0247389
1009.780 .0247457
1010.374 .0247527
1010.967 .0247601
1011.561 .0247679
1012.154 .0247759
1012.746 .0247844
1013.339 .0247932
1013.931 .0248025
1014.523 .0248123
1015.115 .0248224
1015.706 .0248329
1016.298 .0248438
1016.888 .0248550
1017.479 .0248665
1018.069 .0248783
1018.660 .0248903
1019.250 .0249025
1019.839 .0249149
1020.429 .0249276
1021.018 .0249405
1021.607 .0249536
1022.195 .0249669
1022.784 .0249804
1023.372 .0249941
1023.960 .0250081
1024.547 .0250224
1025.135 .0250371
1025.722 .0250522
1026.309 .0250677
1026.896 .0250837
1027.483 .0251001
1028.069 .0251169
1028.655 .0251341
1029.241 .0251518
1029.827 .0251697
1030.412 .0251881
1030.997 .0252068
1031.582 .0252260
1032.167 .0252456
1032.752 .0252657
1033.336 .0252862
1033.921 .0253071
1034.505 .0253282
1035.089 .0253494
1035.672 .0253707
1036.256 .0253920
1036.839 .0254131
1037.422 .0254340
1038.005 .0254546
1038.588 .0254751
1039.171 .0254953
1039.753 .0255153
1040.335 .0255351
1040.918 .0255546
1041.500 .0255740
1042.081 .0255931
1042.663 .0256118
1043.244 .0256304
1043.826 .0256487
1044.407 .0256669
1044.988 .0256848
1045.569 .0257027
1046.150 .0257204
1046.730 .0257380
1047.311 .0257555
1047.891 .0257728
1048.471 .0257900
1049.052 .0258070
1049.632 .0258237
1050.211 .0258402
1050.791 .0258565
1051.371 .0258726
1051.950 .0258883
1052.530 .0259038
1053.109 .0259190
1053.688 .0259338
1054.268 .0259484
1054.847 .0259627
1055.426 .0259769
1056.005 .0259910
1056.583 .0260053
1057.162 .0260196
1057.741 .0260341
1058.319 .0260487
1058.898 .0260633
1059.476 .0260779
1060.055 .0260924
1060.633 .0261065
1061.211 .0261203
1061.790 .0261337
1062.368 .0261467
1062.946 .0261592
1063.524 .0261713
1064.102 .0261830
1064.680 .0261942
1065.258 .0262049
1065.836 .0262149
1066.414 .0262244
1066.992 .0262333
1067.570 .0262417
1068.148 .0262497
1068.726 .0262574
1069.304 .0262650
1069.882 .0262726
1070.460 .0262804
1071.038 .0262884
1071.616 .0262966
1072.194 .0263048
1072.772 .0263131
1073.350 .0263212
1073.928 .0263289
1074.506 .0263363
1075.084 .0263433
1075.662 .0263498
1076.240 .0263559
1076.819 .0263616
1077.397 .0263671
1077.976 .0263724
1078.554 .0263775
1079.133 .0263825
1079.711 .0263873
1080.290 .0263920
1080.869 .0263964
1081.448 .0264006
1082.027 .0264048
1082.606 .0264088
1083.185 .0264129
1083.764 .0264170
1084.343 .0264212
1084.923 .0264255
1085.502 .0264299
1086.082 .0264344
1086.662 .0264388
1087.242 .0264431
1087.822 .0264473
1088.402 .0264514
1088.983 .0264555
1089.563 .0264597
1090.144 .0264641
1090.725 .0264690
1091.306 .0264743
1091.887 .0264802
1092.469 .0264868
1093.050 .0264942
1093.632 .0265023
1094.214 .0265114
1094.796 .0265213
1095.379 .0265320
1095.961 .0265435
1096.544 .0265556
1097.127 .0265684
1097.710 .0265816
1098.294 .0265952
1098.877 .0266092
1099.461 .0266234
1100.046 .0266380
1100.630 .0266531
1101.215 .0266685
1101.800 .0266845
1102.385 .0267008
1102.970 .0267174
1103.556 .0267343
1104.142 .0267512
1104.728 .0267682
1105.315 .0267854
1105.902 .0268030
1106.489 .0268211
1107.077 .0268400
1107.664 .0268597
1108.253 .0268802
1108.841 .0269013
1109.430 .0269228
1110.019 .0269442
1110.609 .0269652
1111.198 .0269857
1111.789 .0270054
1112.379 .0270245
1112.970 .0270433
1113.561 .0270624
1114.153 .0270821
1114.745 .0271029
1115.338 .0271249
1115.931 .0271483
1116.524 .0271728
1117.117 .0271985
1117.712 .0272251
1118.306 .0272527
1118.901 .0272815
1119.496 .0273115
1120.092 .0273434
1120.689 .0273776
1121.285 .0274145
1121.882 .0274545
1122.480 .0274975
1123.078 .0275434
1123.677 .0275917
1124.276 .0276419
1124.875 .0276937
1125.476 .0277470
1126.076 .0278019
1126.677 .0278583
1127.279 .0279169
1127.881 .0279782
1128.484 .0280425
1129.087 .0280691
1129.691 .0281391
1130.295 .0282126
1130.900 .0282892
1131.505 .0283686
1132.111 .0284507
1132.718 .0285360
1133.325 .0286242
1133.933 .0287148
1134.541 .0288054
1135.150 .0289089
1135.760 .0290180
1136.370 .0291196
1136.981 .0291584
1137.592 .0292650
1138.204 .0293764
1138.817 .0294893
1139.431 .0296015
1140.045 .0297239
1140.660 .0298548
1141.275 .0299846
1141.891 .0301007
1142.508 .0301474
1143.126 .0305549
1143.744 .0307654
1144.363 .0306108
1144.983 .0301524
