Measurement Sequence started on: 15-12-46-377
Integration time: 28
Scans to Average: 2 
>>>>>Begin Spectral Data<<<<<
432.689 .0000100
433.621 .0000100
434.552 .0000100
435.482 .0000100
436.410 .0000100
437.337 .0000100
438.262 .0245448
439.187 .0521201
440.110 .0865229
441.031 .1253995
441.952 .1021924
442.871 .1069492
443.789 .1114030
444.705 .1156186
445.621 .1196392
446.535 .1234979
447.447 .1259254
448.359 .1267800
449.269 .1257159
450.178 .1225074
451.086 .1172121
451.993 .1102508
452.898 .1023257
453.803 .0942407
454.706 .0866820
455.608 .0800816
456.508 .0745910
457.408 .0708498
458.306 .0679553
459.204 .0655845
460.100 .0635724
460.995 .0618299
461.888 .0602947
462.781 .0589264
463.673 .0576946
464.563 .0565802
465.452 .0555680
466.340 .0546472
467.228 .0538102
468.114 .0530510
468.999 .0523633
469.882 .0517408
470.765 .0511767
471.647 .0506653
472.528 .0502018
473.407 .0497815
474.286 .0494006
475.163 .0490565
476.040 .0487467
476.915 .0484693
477.790 .0482222
478.663 .0480038
479.535 .0478119
480.407 .0476446
481.277 .0474993
482.147 .0473739
483.015 .0472666
483.883 .0471763
484.749 .0471027
485.615 .0470456
486.479 .0470056
487.343 .0469830
488.206 .0469777
489.067 .0469899
489.928 .0470200
490.788 .0470681
491.647 .0471347
492.505 .0472204
493.362 .0473257
494.218 .0474514
495.073 .0475980
495.928 .0478948
496.781 .0480953
497.634 .0483172
498.486 .0485599
499.337 .0488239
500.187 .0491096
501.036 .0494176
501.884 .0497502
502.731 .0501098
503.578 .0504995
504.424 .0507578
505.268 .0512083
506.113 .0517029
506.956 .0522474
507.798 .0528493
508.640 .0535171
509.480 .0542611
510.320 .0550936
511.160 .0560279
511.998 .0570803
512.836 .0582699
513.672 .0596169
514.508 .0611444
515.344 .0628764
516.178 .0648380
517.012 .0670556
517.845 .0695538
518.677 .0723548
519.508 .0754746
520.339 .0789191
521.169 .0826866
521.998 .0867482
522.826 .0910624
523.654 .0955658
524.481 .1001813
525.307 .1048234
526.133 .1093949
526.958 .1137973
527.782 .1179381
528.605 .1217347
529.428 .1251163
530.250 .1280185
531.072 .1304001
531.892 .1322248
532.712 .1334722
533.532 .1341284
534.350 .1341857
535.168 .1336458
535.986 .1325139
536.802 .1307976
537.618 .1285130
538.434 .1256812
539.249 .1223482
540.063 .1185701
540.876 .1144214
541.689 .1099867
542.501 .1053582
543.313 .1006335
544.124 .0959107
544.934 .0912780
545.744 .0868116
546.553 .0825716
547.361 .0786087
548.169 .0749482
548.976 .0716076
549.783 .0685866
550.589 .0658760
551.395 .0634576
552.200 .0613061
553.004 .0593932
553.808 .0576928
554.611 .0561801
555.414 .0548322
556.216 .0536266
557.018 .0525433
557.819 .0515641
558.619 .0506733
559.419 .0498562
560.218 .0491022
561.017 .0484001
561.815 .0477408
562.613 .0471167
563.410 .0465217
564.207 .0459502
565.003 .0453975
565.799 .0448594
566.594 .0443327
567.388 .0438157
568.182 .0433072
568.976 .0428058
569.769 .0423114
570.562 .0418246
571.354 .0413460
572.145 .0408764
572.936 .0404173
573.727 .0399697
574.517 .0395352
575.307 .0391149
576.096 .0387096
576.885 .0383199
577.673 .0379465
578.461 .0375900
579.248 .0372507
580.035 .0369287
580.821 .0366240
581.607 .0363364
582.392 .0360662
583.177 .0358130
583.962 .0355764
584.746 .0353560
585.529 .0351512
586.313 .0349608
587.095 .0347836
587.878 .0346184
588.660 .0344641
589.441 .0343198
590.222 .0341843
591.003 .0340570
591.783 .0339378
592.563 .0338260
593.342 .0337215
594.121 .0336236
594.899 .0335318
595.678 .0334455
596.455 .0333641
597.233 .0332867
598.009 .0332128
598.786 .0331419
599.562 .0330737
600.338 .0330079
601.113 .0329443
601.888 .0328574
602.663 .0327994
603.437 .0327437
604.211 .0326904
604.984 .0326391
605.757 .0325899
606.530 .0325426
607.302 .0324970
608.074 .0324530
608.845 .0324104
609.616 .0323693
610.387 .0323516
611.158 .0323124
611.928 .0322747
612.697 .0322384
613.467 .0322035
614.236 .0321700
615.004 .0321378
615.773 .0321069
616.541 .0320772
617.308 .0320486
618.076 .0320208
618.843 .0319939
619.609 .0319676
620.375 .0319419
621.141 .0319166
621.907 .0318917
622.672 .0318672
623.437 .0318428
624.202 .0318186
624.966 .0317946
625.730 .0317706
626.493 .0317466
627.257 .0317224
628.020 .0316980
628.782 .0316733
629.545 .0316482
630.307 .0316228
631.068 .0315970
631.830 .0315709
632.591 .0315443
633.352 .0315173
634.112 .0314901
634.872 .0314625
635.632 .0314348
636.392 .0314068
637.151 .0313788
637.910 .0313505
638.668 .0313222
639.427 .0312939
640.185 .0312655
640.943 .0312373
641.700 .0312094
642.457 .0311818
643.214 .0311548
643.971 .0311284
644.727 .0311027
645.483 .0310776
646.239 .0310532
646.994 .0310292
647.750 .0310056
648.505 .0309822
649.259 .0309590
650.014 .0309360
650.768 .0309132
651.521 .0308904
652.275 .0308679
653.028 .0308455
653.781 .0308233
654.534 .0308011
655.286 .0307791
656.039 .0307571
656.791 .0307351
657.542 .0307130
658.294 .0306910
659.045 .0306689
659.796 .0306468
660.546 .0306246
661.297 .0306023
662.047 .0305798
662.796 .0305573
663.546 .0305347
664.295 .0305120
665.044 .0304893
665.793 .0304667
666.542 .0304443
667.290 .0304220
668.038 .0303999
668.786 .0303779
669.533 .0303562
670.281 .0303344
671.028 .0303128
671.774 .0302912
672.521 .0302697
673.267 .0302483
674.013 .0302270
674.759 .0302060
675.505 .0301851
676.250 .0301645
676.995 .0301441
677.740 .0301240
678.484 .0301042
679.229 .0300845
679.973 .0300650
680.717 .0300458
681.460 .0300267
682.204 .0300078
682.947 .0299891
683.690 .0299705
684.433 .0299520
685.175 .0299336
685.917 .0299152
686.659 .0298969
687.401 .0298786
688.142 .0298604
688.884 .0298422
689.625 .0298239
690.365 .0298056
691.106 .0297872
691.846 .0297687
692.586 .0297499
693.326 .0297310
694.066 .0297117
694.805 .0296922
695.545 .0296725
696.284 .0296525
697.022 .0296324
697.761 .0296121
698.499 .0295917
699.237 .0295712
699.975 .0295507
700.713 .0295302
701.450 .0295096
702.187 .0294891
702.924 .0294686
703.661 .0294482
704.397 .0294280
705.133 .0294079
705.869 .0293879
706.605 .0293681
707.341 .0293483
708.076 .0293285
708.811 .0293088
709.546 .0292892
710.281 .0292696
711.015 .0292502
711.749 .0292309
712.483 .0292118
713.217 .0291930
713.950 .0291744
714.684 .0291561
715.417 .0291378
716.150 .0291198
716.882 .0291018
717.615 .0290840
718.347 .0290662
719.079 .0290486
719.811 .0290312
720.542 .0290139
721.273 .0289968
722.005 .0289800
722.735 .0289634
723.466 .0289471
724.196 .0289311
724.927 .0289154
725.656 .0289000
726.386 .0288850
727.116 .0288702
727.845 .0288558
728.574 .0288417
729.303 .0288278
730.031 .0288142
730.760 .0288010
731.488 .0287880
732.216 .0287753
732.944 .0287629
733.671 .0287510
734.398 .0287394
735.125 .0287282
735.852 .0287174
736.579 .0287068
737.305 .0286966
738.031 .0286866
738.757 .0286768
739.483 .0286673
740.208 .0286579
740.933 .0286487
741.658 .0286396
742.383 .0286308
743.108 .0286220
743.832 .0286135
744.556 .0286051
745.280 .0285967
746.004 .0285884
746.727 .0285800
747.450 .0285715
748.173 .0285629
748.896 .0285541
749.618 .0285450
750.340 .0285355
751.062 .0285257
751.784 .0285155
752.506 .0285048
753.227 .0284938
753.948 .0284822
754.669 .0284703
755.389 .0284579
756.110 .0284452
756.830 .0284322
757.550 .0284190
758.269 .0284056
758.989 .0283919
759.708 .0283781
760.427 .0283641
761.146 .0283498
761.864 .0283353
762.582 .0283207
763.300 .0283058
764.018 .0282908
764.736 .0282758
765.453 .0282608
766.170 .0282458
766.887 .0282309
767.603 .0282160
768.320 .0282012
769.036 .0281864
769.751 .0281717
770.467 .0281571
771.182 .0281426
771.897 .0281282
772.612 .0281141
773.327 .0281003
774.041 .0280868
774.755 .0280736
775.469 .0280607
776.183 .0280482
776.896 .0280360
777.609 .0280241
778.322 .0280127
779.035 .0280016
779.747 .0279908
780.459 .0279803
781.171 .0279701
781.882 .0279600
782.594 .0279502
783.305 .0279405
784.016 .0279310
784.726 .0279216
785.436 .0279122
786.147 .0278983
786.856 .0278889
787.566 .0278794
788.275 .0278698
788.984 .0278600
789.693 .0278500
790.401 .0278398
791.110 .0278293
791.818 .0278185
792.525 .0278074
793.233 .0277958
793.940 .0277839
794.647 .0277768
795.353 .0277644
796.060 .0277517
796.766 .0277386
797.472 .0277252
798.177 .0277115
798.883 .0276975
799.588 .0276831
800.292 .0276684
800.997 .0276534
801.701 .0276380
802.405 .0276222
803.109 .0276061
803.812 .0275898
804.515 .0275733
805.218 .0275565
805.921 .0275395
806.623 .0275224
807.325 .0275050
808.027 .0274874
808.728 .0274695
809.429 .0274515
810.130 .0274333
810.831 .0274150
811.531 .0273967
812.231 .0273783
812.931 .0273600
813.630 .0273419
814.330 .0273238
815.029 .0273060
815.727 .0272884
816.426 .0272712
817.124 .0272544
817.821 .0272382
818.519 .0272225
819.216 .0272075
819.913 .0271933
820.609 .0271798
821.306 .0271670
822.002 .0271549
822.697 .0271435
823.393 .0271329
824.088 .0271230
824.783 .0271140
825.477 .0271058
826.171 .0270985
826.865 .0270919
827.559 .0270861
828.252 .0270809
828.945 .0270763
829.638 .0270722
830.330 .0270684
831.023 .0270650
831.714 .0270619
832.406 .0270590
833.097 .0270564
833.788 .0270541
834.479 .0270519
835.169 .0270499
835.859 .0270480
836.548 .0270463
837.238 .0270446
837.927 .0270430
838.615 .0270414
839.304 .0270399
839.992 .0270384
840.680 .0270369
841.367 .0270354
842.054 .0270338
842.741 .0270321
843.428 .0270303
844.114 .0270283
844.800 .0270263
845.485 .0270240
846.170 .0270217
846.855 .0270192
847.540 .0270165
848.224 .0270136
848.908 .0270104
849.592 .0270069
850.275 .0270030
850.958 .0269987
851.641 .0269939
852.323 .0269888
853.005 .0269833
853.687 .0269775
854.368 .0269714
855.049 .0269650
855.730 .0269584
856.410 .0269516
857.090 .0269446
857.769 .0269374
858.449 .0269300
859.128 .0269224
859.806 .0269147
860.485 .0269068
861.163 .0268989
861.840 .0268909
862.518 .0268829
863.195 .0268749
863.871 .0268670
864.548 .0268592
865.224 .0268514
865.899 .0268438
866.574 .0268363
867.249 .0268288
867.924 .0268216
868.598 .0268144
869.272 .0268074
869.946 .0268005
870.619 .0267936
871.292 .0267869
871.964 .0267801
872.636 .0267735
873.308 .0267670
873.979 .0267605
874.651 .0267542
875.321 .0267479
875.992 .0267419
876.662 .0267359
877.331 .0267300
878.001 .0267241
878.670 .0267183
879.338 .0267125
880.007 .0267067
880.675 .0267010
881.342 .0266953
882.009 .0266897
882.676 .0266842
883.343 .0266789
884.009 .0266737
884.675 .0266687
885.340 .0266637
886.005 .0266589
886.670 .0266540
887.334 .0266491
887.998 .0266443
888.662 .0266394
889.325 .0266345
889.988 .0266295
890.650 .0266244
891.312 .0266193
891.974 .0266139
892.636 .0266084
893.297 .0266026
893.957 .0265964
894.618 .0265900
895.278 .0265832
895.937 .0265759
896.596 .0265682
897.255 .0265599
897.914 .0265510
898.572 .0265413
899.230 .0265307
899.887 .0265194
900.544 .0265071
901.201 .0264939
901.857 .0264699
902.513 .0264541
903.168 .0264374
903.823 .0264196
904.478 .0264009
905.132 .0263812
905.786 .0263607
906.440 .0263392
907.093 .0263170
907.746 .0262942
908.399 .0262707
909.051 .0262468
909.703 .0262225
910.354 .0262096
911.005 .0261852
911.656 .0261606
912.306 .0261359
912.956 .0261111
913.605 .0260864
914.254 .0260618
914.903 .0260374
915.551 .0260131
916.199 .0259889
916.847 .0259649
917.494 .0259409
918.141 .0259170
918.788 .0258932
919.434 .0258695
920.079 .0258458
920.725 .0258222
921.370 .0257988
922.014 .0257755
922.658 .0257523
923.302 .0257291
923.946 .0257059
924.589 .0256825
925.231 .0256590
925.873 .0256353
926.515 .0256114
927.157 .0255874
927.798 .0255632
928.439 .0255390
929.079 .0255148
929.719 .0254906
930.359 .0254664
930.998 .0254423
931.637 .0254184
932.275 .0253945
932.913 .0253708
933.551 .0253475
934.188 .0253245
934.825 .0253021
935.462 .0252803
936.098 .0252593
936.733 .0252391
937.369 .0252197
938.004 .0252011
938.638 .0251834
939.273 .0251664
939.907 .0251502
940.540 .0251348
941.173 .0251202
941.806 .0251063
942.438 .0250932
943.070 .0250809
943.702 .0250692
944.333 .0250582
944.964 .0250477
945.594 .0250377
946.224 .0250280
946.854 .0250187
947.483 .0250095
948.112 .0250006
948.741 .0249919
949.369 .0249834
949.996 .0249751
950.624 .0249668
951.251 .0249587
951.878 .0249505
952.504 .0249423
953.130 .0249340
953.755 .0249257
954.380 .0249172
955.005 .0249088
955.629 .0249004
956.253 .0248921
956.877 .0248838
957.500 .0248757
958.123 .0248678
958.746 .0248600
959.368 .0248524
959.990 .0248452
960.611 .0248382
961.232 .0248317
961.853 .0248257
962.473 .0248201
963.093 .0248151
963.712 .0248105
964.331 .0248065
964.950 .0248028
965.569 .0247996
966.187 .0247969
966.804 .0247945
967.422 .0247925
968.039 .0247909
968.655 .0247896
969.272 .0247887
969.887 .0247880
970.503 .0247875
971.118 .0247872
971.733 .0247870
972.347 .0247869
972.961 .0247868
973.575 .0247868
974.188 .0247869
974.801 .0247871
975.414 .0247873
976.026 .0247875
976.638 .0247876
977.250 .0247875
977.861 .0247872
978.472 .0247867
979.083 .0247859
979.693 .0247849
980.303 .0247838
980.912 .0247819
981.521 .0247809
982.130 .0247800
982.738 .0247793
983.346 .0247788
983.954 .0247785
984.562 .0247784
985.169 .0247787
985.775 .0247792
986.382 .0247802
986.988 .0247817
987.594 .0247837
988.199 .0247861
988.804 .0247890
989.409 .0247920
990.013 .0247955
990.617 .0247994
991.221 .0248035
991.824 .0248080
992.427 .0248126
993.030 .0248176
993.632 .0248229
994.234 .0248286
994.836 .0248346
995.438 .0248411
996.039 .0248478
996.640 .0248550
997.240 .0248624
997.840 .0248701
998.440 .0248781
999.040 .0248863
999.639 .0248948
1000.238 .0249034
1000.836 .0249123
1001.435 .0249213
1002.033 .0249305
1002.630 .0249397
1003.228 .0249489
1003.825 .0249581
1004.422 .0249672
1005.018 .0249761
1005.614 .0249850
1006.210 .0249937
1006.806 .0250024
1007.401 .0250111
1007.996 .0250198
1008.591 .0250286
1009.186 .0250374
1009.780 .0250464
1010.374 .0250555
1010.967 .0250647
1011.561 .0250739
1012.154 .0250831
1012.746 .0250923
1013.339 .0251014
1013.931 .0251103
1014.523 .0251192
1015.115 .0251280
1015.706 .0251366
1016.298 .0251451
1016.888 .0251535
1017.479 .0251618
1018.069 .0251701
1018.660 .0251783
1019.250 .0251864
1019.839 .0251945
1020.429 .0252027
1021.018 .0252109
1021.607 .0252192
1022.195 .0252275
1022.784 .0252361
1023.372 .0252448
1023.960 .0252537
1024.547 .0252629
1025.135 .0252721
1025.722 .0252815
1026.309 .0252909
1026.896 .0253002
1027.483 .0253094
1028.069 .0253185
1028.655 .0253274
1029.241 .0253362
1029.827 .0253450
1030.412 .0253537
1030.997 .0253623
1031.582 .0253710
1032.167 .0253796
1032.752 .0253880
1033.336 .0253962
1033.921 .0254041
1034.505 .0254115
1035.089 .0254183
1035.672 .0254245
1036.256 .0254301
1036.839 .0254349
1037.422 .0254390
1038.005 .0254424
1038.588 .0254451
1039.171 .0254472
1039.753 .0254485
1040.335 .0254492
1040.918 .0254492
1041.500 .0254486
1042.081 .0254473
1042.663 .0254455
1043.244 .0254432
1043.826 .0254405
1044.407 .0254375
1044.988 .0254343
1045.569 .0254309
1046.150 .0254275
1046.730 .0254239
1047.311 .0254202
1047.891 .0254163
1048.471 .0254120
1049.052 .0254074
1049.632 .0254023
1050.211 .0253967
1050.791 .0253907
1051.371 .0253843
1051.950 .0253776
1052.530 .0253706
1053.109 .0253633
1053.688 .0253559
1054.268 .0253483
1054.847 .0253405
1055.426 .0253325
1056.005 .0253243
1056.583 .0253158
1057.162 .0253070
1057.741 .0252981
1058.319 .0252891
1058.898 .0252801
1059.476 .0252710
1060.055 .0252621
1060.633 .0252531
1061.211 .0252441
1061.790 .0252350
1062.368 .0252259
1062.946 .0252166
1063.524 .0252071
1064.102 .0251977
1064.680 .0251885
1065.258 .0251796
1065.836 .0251713
1066.414 .0251635
1066.992 .0251564
1067.570 .0251497
1068.148 .0251435
1068.726 .0251376
1069.304 .0251319
1069.882 .0251264
1070.460 .0251211
1071.038 .0251161
1071.616 .0251113
1072.194 .0251067
1072.772 .0251023
1073.350 .0250980
1073.928 .0250936
1074.506 .0250889
1075.084 .0250836
1075.662 .0250779
1076.240 .0250715
1076.819 .0250645
1077.397 .0250571
1077.976 .0250494
1078.554 .0250414
1079.133 .0250331
1079.711 .0250246
1080.290 .0250158
1080.869 .0250066
1081.448 .0249970
1082.027 .0249869
1082.606 .0249763
1083.185 .0249652
1083.764 .0249539
1084.343 .0249425
1084.923 .0249311
1085.502 .0249199
1086.082 .0249088
1086.662 .0248980
1087.242 .0248875
1087.822 .0248774
1088.402 .0248677
1088.983 .0248586
1089.563 .0248501
1090.144 .0248424
1090.725 .0248357
1091.306 .0248300
1091.887 .0248253
1092.469 .0248216
1093.050 .0248188
1093.632 .0248168
1094.214 .0248157
1094.796 .0248154
1095.379 .0248160
1095.961 .0248177
1096.544 .0248204
1097.127 .0248241
1097.710 .0248289
1098.294 .0248347
1098.877 .0248414
1099.461 .0248488
1100.046 .0248568
1100.630 .0248652
1101.215 .0248741
1101.800 .0248835
1102.385 .0248935
1102.970 .0249045
1103.556 .0249165
1104.142 .0249297
1104.728 .0249441
1105.315 .0249599
1105.902 .0249769
1106.489 .0249952
1107.077 .0250149
1107.664 .0250360
1108.253 .0250585
1108.841 .0250826
1109.430 .0251086
1110.019 .0251366
1110.609 .0251667
1111.198 .0251988
1111.789 .0252325
1112.379 .0252680
1112.970 .0253049
1113.561 .0253429
1114.153 .0253820
1114.745 .0254221
1115.338 .0254631
1115.931 .0255050
1116.524 .0255479
1117.117 .0255919
1117.712 .0256369
1118.306 .0256829
1118.901 .0257294
1119.496 .0257764
1120.092 .0258235
1120.689 .0258706
1121.285 .0259179
1121.882 .0259652
1122.480 .0260127
1123.078 .0260604
1123.677 .0261087
1124.276 .0261576
1124.875 .0262071
1125.476 .0262574
1126.076 .0263085
1126.677 .0263608
1127.279 .0264143
1127.881 .0264693
1128.484 .0265267
1129.087 .0265511
1129.691 .0266110
1130.295 .0266744
1130.900 .0267418
1131.505 .0268138
1132.111 .0268910
1132.718 .0269737
1133.325 .0270628
1133.933 .0271589
1134.541 .0272589
1135.150 .0273727
1135.760 .0274885
1136.370 .0276192
1136.981 .0274490
1137.592 .0275889
1138.204 .0277442
1138.817 .0279138
1139.431 .0280915
1140.045 .0282863
1140.660 .0284892
1141.275 .0287119
1141.891 .0289540
1142.508 .0291057
1143.126 .0295344
1143.744 .0296239
1144.363 .0300729
1144.983 .0304841
