Measurement Sequence started on: 15-12-46-377
Integration time: 28
Scans to Average: 2 
>>>>>Begin Spectral Data<<<<<
432.689 .0000100
433.621 .0000100
434.552 .0000100
435.482 .0000100
436.410 .0000100
437.337 .0000100
438.262 .0280118
439.187 .0594302
440.110 .0984768
441.031 .1425876
441.952 .1151142
442.871 .1203312
443.789 .1251985
444.705 .1297893
445.621 .1341549
446.535 .1383306
447.447 .1408700
448.359 .1416147
449.269 .1401811
450.178 .1363170
451.086 .1300960
451.993 .1220038
452.898 .1128482
453.803 .1035444
454.706 .0948732
455.608 .0873212
456.508 .0810546
457.408 .0767968
458.306 .0735111
459.204 .0708236
460.100 .0685500
460.995 .0665886
461.888 .0648693
462.781 .0633450
463.673 .0619837
464.563 .0607606
465.452 .0596567
466.340 .0586566
467.228 .0577479
468.114 .0569218
468.999 .0561691
469.882 .0554830
470.765 .0548569
471.647 .0542863
472.528 .0537670
473.407 .0532948
474.286 .0528676
475.163 .0524828
476.040 .0521369
476.915 .0518271
477.790 .0515497
478.663 .0513015
479.535 .0510796
480.407 .0508814
481.277 .0507047
482.147 .0505479
483.015 .0504089
483.883 .0502867
484.749 .0501799
485.615 .0500883
486.479 .0500107
487.343 .0499480
488.206 .0499009
489.067 .0498702
489.928 .0498579
490.788 .0498659
491.647 .0498962
492.505 .0499507
493.362 .0500308
494.218 .0501378
495.073 .0502725
495.928 .0505832
496.781 .0507931
497.634 .0510345
498.486 .0513094
499.337 .0516200
500.187 .0519682
501.036 .0523562
501.884 .0527853
502.731 .0532576
503.578 .0537734
504.424 .0541205
505.268 .0547054
506.113 .0553388
506.956 .0560248
507.798 .0567688
508.640 .0575795
509.480 .0584672
510.320 .0594447
511.160 .0605242
511.998 .0617201
512.836 .0630483
513.672 .0645245
514.508 .0661662
515.344 .0679923
516.178 .0700235
517.012 .0722818
517.845 .0747916
518.677 .0775745
519.508 .0806502
520.339 .0840306
521.169 .0877204
521.998 .0916996
522.826 .0959338
523.654 .1003698
524.481 .1049412
525.307 .1095703
526.133 .1141659
526.958 .1186289
527.782 .1228652
528.605 .1267856
529.428 .1303119
530.250 .1333736
531.072 .1359235
531.892 .1379246
532.712 .1393538
533.532 .1401968
534.350 .1404506
535.168 .1401169
535.986 .1392025
536.802 .1377111
537.618 .1356515
538.434 .1330377
539.249 .1299081
540.063 .1263140
540.876 .1223206
541.689 .1180040
542.501 .1134487
543.313 .1087464
544.124 .1039958
544.934 .0992857
545.744 .0946989
546.553 .0903050
547.361 .0861641
548.169 .0823118
548.976 .0787717
549.783 .0755506
550.589 .0726428
551.395 .0700297
552.200 .0676846
553.004 .0655779
553.808 .0636837
554.611 .0619784
555.414 .0604405
556.216 .0590481
557.018 .0577818
557.819 .0566237
558.619 .0555579
559.419 .0545702
560.218 .0536500
561.017 .0527857
561.815 .0519691
562.613 .0511934
563.410 .0504528
564.207 .0497414
565.003 .0490539
565.799 .0483853
566.594 .0477314
567.388 .0470898
568.182 .0464584
568.976 .0458363
569.769 .0452237
570.562 .0446222
571.354 .0440334
572.145 .0434595
572.936 .0429024
573.727 .0423632
574.517 .0418436
575.307 .0413444
576.096 .0408661
576.885 .0404091
577.673 .0399739
578.461 .0395612
579.248 .0391711
580.035 .0388036
580.821 .0384582
581.607 .0381350
582.392 .0378339
583.177 .0375545
583.962 .0372965
584.746 .0370591
585.529 .0368415
586.313 .0366423
587.095 .0364602
587.878 .0362935
588.660 .0361406
589.441 .0360004
590.222 .0358714
591.003 .0357526
591.783 .0356429
592.563 .0355413
593.342 .0354470
594.121 .0353590
594.899 .0352764
595.678 .0351984
596.455 .0351243
597.233 .0350534
598.009 .0349853
598.786 .0349196
599.562 .0348560
600.338 .0347944
601.113 .0347347
601.888 .0346506
602.663 .0345948
603.437 .0345405
604.211 .0344876
604.984 .0344361
605.757 .0343859
606.530 .0343371
607.302 .0342896
608.074 .0342436
608.845 .0341989
609.616 .0341556
610.387 .0341371
611.158 .0340956
611.928 .0340554
612.697 .0340164
613.467 .0339785
614.236 .0339416
615.004 .0339057
615.773 .0338706
616.541 .0338363
617.308 .0338027
618.076 .0337696
618.843 .0337370
619.609 .0337048
620.375 .0336729
621.141 .0336412
621.907 .0336096
622.672 .0335780
623.437 .0335465
624.202 .0335148
624.966 .0334830
625.730 .0334510
626.493 .0334189
627.257 .0333866
628.020 .0333542
628.782 .0333217
629.545 .0332889
630.307 .0332560
631.068 .0332228
631.830 .0331895
632.591 .0331560
633.352 .0331225
634.112 .0330888
634.872 .0330550
635.632 .0330211
636.392 .0329870
637.151 .0329528
637.910 .0329186
638.668 .0328844
639.427 .0328502
640.185 .0328161
640.943 .0327822
641.700 .0327488
642.457 .0327158
643.214 .0326833
643.971 .0326512
644.727 .0326196
645.483 .0325883
646.239 .0325575
646.994 .0325273
647.750 .0324975
648.505 .0324685
649.259 .0324401
650.014 .0324124
650.768 .0323854
651.521 .0323592
652.275 .0323337
653.028 .0323088
653.781 .0322844
654.534 .0322606
655.286 .0322372
656.039 .0322142
656.791 .0321918
657.542 .0321697
658.294 .0321481
659.045 .0321267
659.796 .0321056
660.546 .0320847
661.297 .0320640
662.047 .0320435
662.796 .0320232
663.546 .0320031
664.295 .0319832
665.044 .0319633
665.793 .0319435
666.542 .0319237
667.290 .0319038
668.038 .0318838
668.786 .0318636
669.533 .0318432
670.281 .0318225
671.028 .0318017
671.774 .0317807
672.521 .0317597
673.267 .0317385
674.013 .0317173
674.759 .0316960
675.505 .0316745
676.250 .0316528
676.995 .0316308
677.740 .0316086
678.484 .0315860
679.229 .0315630
679.973 .0315396
680.717 .0315159
681.460 .0314919
682.204 .0314676
682.947 .0314428
683.690 .0314177
684.433 .0313922
685.175 .0313663
685.917 .0313401
686.659 .0313136
687.401 .0312867
688.142 .0312595
688.884 .0312320
689.625 .0312041
690.365 .0311760
691.106 .0311475
691.846 .0311187
692.586 .0310897
693.326 .0310605
694.066 .0310311
694.805 .0310017
695.545 .0309723
696.284 .0309431
697.022 .0309141
697.761 .0308853
698.499 .0308568
699.237 .0308286
699.975 .0308007
700.713 .0307731
701.450 .0307459
702.187 .0307192
702.924 .0306931
703.661 .0306675
704.397 .0306425
705.133 .0306182
705.869 .0305947
706.605 .0305719
707.341 .0305498
708.076 .0305285
708.811 .0305078
709.546 .0304877
710.281 .0304683
711.015 .0304495
711.749 .0304311
712.483 .0304132
713.217 .0303956
713.950 .0303784
714.684 .0303614
715.417 .0303447
716.150 .0303282
716.882 .0303118
717.615 .0302956
718.347 .0302795
719.079 .0302636
719.811 .0302478
720.542 .0302323
721.273 .0302170
722.005 .0302019
722.735 .0301873
723.466 .0301730
724.196 .0301592
724.927 .0301460
725.656 .0301332
726.386 .0301211
727.116 .0301096
727.845 .0300987
728.574 .0300886
729.303 .0300792
730.031 .0300706
730.760 .0300627
731.488 .0300554
732.216 .0300488
732.944 .0300427
733.671 .0300370
734.398 .0300318
735.125 .0300270
735.852 .0300224
736.579 .0300181
737.305 .0300139
738.031 .0300099
738.757 .0300059
739.483 .0300018
740.208 .0299975
740.933 .0299931
741.658 .0299883
742.383 .0299832
743.108 .0299776
743.832 .0299717
744.556 .0299653
745.280 .0299583
746.004 .0299509
746.727 .0299429
747.450 .0299343
748.173 .0299251
748.896 .0299154
749.618 .0299050
750.340 .0298941
751.062 .0298826
751.784 .0298706
752.506 .0298580
753.227 .0298449
753.948 .0298312
754.669 .0298169
755.389 .0298021
756.110 .0297867
756.830 .0297707
757.550 .0297542
758.269 .0297371
758.989 .0297195
759.708 .0297013
760.427 .0296826
761.146 .0296633
761.864 .0296434
762.582 .0296230
763.300 .0296021
764.018 .0295807
764.736 .0295588
765.453 .0295365
766.170 .0295138
766.887 .0294909
767.603 .0294677
768.320 .0294445
769.036 .0294212
769.751 .0293979
770.467 .0293746
771.182 .0293515
771.897 .0293286
772.612 .0293058
773.327 .0292834
774.041 .0292613
774.755 .0292396
775.469 .0292184
776.183 .0291977
776.896 .0291776
777.609 .0291580
778.322 .0291389
779.035 .0291203
779.747 .0291023
780.459 .0290846
781.171 .0290675
781.882 .0290508
782.594 .0290345
783.305 .0290187
784.016 .0290032
784.726 .0289881
785.436 .0289733
786.147 .0289514
786.856 .0289366
787.566 .0289219
788.275 .0289072
788.984 .0288925
789.693 .0288778
790.401 .0288631
791.110 .0288485
791.818 .0288338
792.525 .0288191
793.233 .0288043
793.940 .0287894
794.647 .0287818
795.353 .0287670
796.060 .0287522
796.766 .0287375
797.472 .0287230
798.177 .0287087
798.883 .0286947
799.588 .0286810
800.292 .0286676
800.997 .0286545
801.701 .0286416
802.405 .0286292
803.109 .0286171
803.812 .0286054
804.515 .0285942
805.218 .0285836
805.921 .0285734
806.623 .0285638
807.325 .0285546
808.027 .0285459
808.728 .0285377
809.429 .0285300
810.130 .0285229
810.831 .0285163
811.531 .0285103
812.231 .0285050
812.931 .0285004
813.630 .0284965
814.330 .0284932
815.029 .0284906
815.727 .0284887
816.426 .0284875
817.124 .0284870
817.821 .0284872
818.519 .0284881
819.216 .0284896
819.913 .0284918
820.609 .0284946
821.306 .0284979
822.002 .0285016
822.697 .0285058
823.393 .0285103
824.088 .0285152
824.783 .0285205
825.477 .0285260
826.171 .0285317
826.865 .0285376
827.559 .0285435
828.252 .0285494
828.945 .0285553
829.638 .0285610
830.330 .0285667
831.023 .0285723
831.714 .0285776
832.406 .0285828
833.097 .0285876
833.788 .0285922
834.479 .0285964
835.169 .0286001
835.859 .0286035
836.548 .0286063
837.238 .0286087
837.927 .0286107
838.615 .0286121
839.304 .0286130
839.992 .0286133
840.680 .0286131
841.367 .0286122
842.054 .0286106
842.741 .0286082
843.428 .0286052
844.114 .0286014
844.800 .0285969
845.485 .0285915
846.170 .0285853
846.855 .0285782
847.540 .0285700
848.224 .0285608
848.908 .0285506
849.592 .0285394
850.275 .0285272
850.958 .0285140
851.641 .0284999
852.323 .0284850
853.005 .0284694
853.687 .0284531
854.368 .0284361
855.049 .0284186
855.730 .0284005
856.410 .0283820
857.090 .0283632
857.769 .0283440
858.449 .0283245
859.128 .0283047
859.806 .0282846
860.485 .0282643
861.163 .0282437
861.840 .0282230
862.518 .0282021
863.195 .0281810
863.871 .0281599
864.548 .0281386
865.224 .0281172
865.899 .0280956
866.574 .0280738
867.249 .0280518
867.924 .0280294
868.598 .0280067
869.272 .0279836
869.946 .0279602
870.619 .0279366
871.292 .0279127
871.964 .0278886
872.636 .0278643
873.308 .0278400
873.979 .0278155
874.651 .0277910
875.321 .0277664
875.992 .0277417
876.662 .0277169
877.331 .0276920
878.001 .0276671
878.670 .0276421
879.338 .0276171
880.007 .0275923
880.675 .0275675
881.342 .0275430
882.009 .0275188
882.676 .0274949
883.343 .0274716
884.009 .0274487
884.675 .0274264
885.340 .0274047
886.005 .0273835
886.670 .0273628
887.334 .0273426
887.998 .0273228
888.662 .0273035
889.325 .0272846
889.988 .0272661
890.650 .0272480
891.312 .0272305
891.974 .0272134
892.636 .0271969
893.297 .0271809
893.957 .0271654
894.618 .0271504
895.278 .0271359
895.937 .0271217
896.596 .0271079
897.255 .0270944
897.914 .0270810
898.572 .0270678
899.230 .0270547
899.887 .0270417
900.544 .0270288
901.201 .0270160
901.857 .0269966
902.513 .0269838
903.168 .0269710
903.823 .0269582
904.478 .0269454
905.132 .0269324
905.786 .0269194
906.440 .0269063
907.093 .0268932
907.746 .0268802
908.399 .0268672
909.051 .0268543
909.703 .0268417
910.354 .0268362
911.005 .0268242
911.656 .0268126
912.306 .0268013
912.956 .0267904
913.605 .0267800
914.254 .0267702
914.903 .0267609
915.551 .0267522
916.199 .0267440
916.847 .0267365
917.494 .0267294
918.141 .0267229
918.788 .0267166
919.434 .0267107
920.079 .0267051
920.725 .0266997
921.370 .0266946
922.014 .0266897
922.658 .0266851
923.302 .0266807
923.946 .0266764
924.589 .0266723
925.231 .0266682
925.873 .0266641
926.515 .0266600
927.157 .0266558
927.798 .0266516
928.439 .0266474
929.079 .0266432
929.719 .0266390
930.359 .0266350
930.998 .0266311
931.637 .0266274
932.275 .0266239
932.913 .0266205
933.551 .0266174
934.188 .0266146
934.825 .0266121
935.462 .0266101
936.098 .0266086
936.733 .0266077
937.369 .0266074
938.004 .0266077
938.638 .0266086
939.273 .0266101
939.907 .0266122
940.540 .0266148
941.173 .0266179
941.806 .0266215
942.438 .0266257
943.070 .0266303
943.702 .0266354
944.333 .0266410
944.964 .0266471
945.594 .0266535
946.224 .0266601
946.854 .0266669
947.483 .0266738
948.112 .0266805
948.741 .0266871
949.369 .0266935
949.996 .0266996
950.624 .0267055
951.251 .0267110
951.878 .0267162
952.504 .0267211
953.130 .0267256
953.755 .0267297
954.380 .0267334
955.005 .0267367
955.629 .0267396
956.253 .0267420
956.877 .0267441
957.500 .0267459
958.123 .0267474
958.746 .0267486
959.368 .0267497
959.990 .0267506
960.611 .0267513
961.232 .0267519
961.853 .0267523
962.473 .0267525
963.093 .0267524
963.712 .0267520
964.331 .0267513
964.950 .0267505
965.569 .0267493
966.187 .0267479
966.804 .0267462
967.422 .0267442
968.039 .0267419
968.655 .0267391
969.272 .0267359
969.887 .0267321
970.503 .0267278
971.118 .0267229
971.733 .0267174
972.347 .0267114
972.961 .0267048
973.575 .0266977
974.188 .0266901
974.801 .0266818
975.414 .0266729
976.026 .0266631
976.638 .0266526
977.250 .0266411
977.861 .0266287
978.472 .0266155
979.083 .0266015
979.693 .0265868
980.303 .0265714
980.912 .0265459
981.521 .0265292
982.130 .0265120
982.738 .0264942
983.346 .0264759
983.954 .0264571
984.562 .0264378
985.169 .0264182
985.775 .0263983
986.382 .0263783
986.988 .0263582
987.594 .0263381
988.199 .0263181
988.804 .0262981
989.409 .0262884
990.013 .0262687
990.617 .0262492
991.221 .0262298
991.824 .0262106
992.427 .0261916
993.030 .0261728
993.632 .0261543
994.234 .0261361
994.836 .0261181
995.438 .0261003
996.039 .0260827
996.640 .0260654
997.240 .0260482
997.840 .0260312
998.440 .0260144
999.040 .0259978
999.639 .0259814
1000.238 .0259652
1000.836 .0259491
1001.435 .0259333
1002.033 .0259176
1002.630 .0259019
1003.228 .0258865
1003.825 .0258711
1004.422 .0258558
1005.018 .0258406
1005.614 .0258255
1006.210 .0258103
1006.806 .0257952
1007.401 .0257799
1007.996 .0257644
1008.591 .0257486
1009.186 .0257326
1009.780 .0257162
1010.374 .0256994
1010.967 .0256824
1011.561 .0256650
1012.154 .0256475
1012.746 .0256297
1013.339 .0256119
1013.931 .0255940
1014.523 .0255759
1015.115 .0255579
1015.706 .0255398
1016.298 .0255218
1016.888 .0255039
1017.479 .0254863
1018.069 .0254690
1018.660 .0254521
1019.250 .0254356
1019.839 .0254197
1020.429 .0254043
1021.018 .0253893
1021.607 .0253747
1022.195 .0253605
1022.784 .0253466
1023.372 .0253331
1023.960 .0253201
1024.547 .0253077
1025.135 .0252960
1025.722 .0252852
1026.309 .0252754
1026.896 .0252664
1027.483 .0252585
1028.069 .0252515
1028.655 .0252453
1029.241 .0252399
1029.827 .0252352
1030.412 .0252311
1030.997 .0252276
1031.582 .0252248
1032.167 .0252226
1032.752 .0252209
1033.336 .0252195
1033.921 .0252185
1034.505 .0252175
1035.089 .0252165
1035.672 .0252154
1036.256 .0252140
1036.839 .0252123
1037.422 .0252104
1038.005 .0252082
1038.588 .0252057
1039.171 .0252031
1039.753 .0252004
1040.335 .0251976
1040.918 .0251945
1041.500 .0251913
1042.081 .0251879
1042.663 .0251843
1043.244 .0251804
1043.826 .0251765
1044.407 .0251726
1044.988 .0251687
1045.569 .0251650
1046.150 .0251615
1046.730 .0251583
1047.311 .0251554
1047.891 .0251528
1048.471 .0251505
1049.052 .0251485
1049.632 .0251470
1050.211 .0251459
1050.791 .0251454
1051.371 .0251457
1051.950 .0251468
1052.530 .0251490
1053.109 .0251522
1053.688 .0251565
1054.268 .0251619
1054.847 .0251684
1055.426 .0251759
1056.005 .0251842
1056.583 .0251933
1057.162 .0252030
1057.741 .0252131
1058.319 .0252237
1058.898 .0252347
1059.476 .0252460
1060.055 .0252576
1060.633 .0252694
1061.211 .0252812
1061.790 .0252932
1062.368 .0253052
1062.946 .0253171
1063.524 .0253288
1064.102 .0253402
1064.680 .0253514
1065.258 .0253624
1065.836 .0253733
1066.414 .0253841
1066.992 .0253949
1067.570 .0254058
1068.148 .0254167
1068.726 .0254277
1069.304 .0254388
1069.882 .0254499
1070.460 .0254610
1071.038 .0254720
1071.616 .0254830
1072.194 .0254940
1072.772 .0255051
1073.350 .0255165
1073.928 .0255282
1074.506 .0255402
1075.084 .0255527
1075.662 .0255658
1076.240 .0255794
1076.819 .0255937
1077.397 .0256087
1077.976 .0256244
1078.554 .0256407
1079.133 .0256576
1079.711 .0256751
1080.290 .0256932
1080.869 .0257118
1081.448 .0257309
1082.027 .0257505
1082.606 .0257706
1083.185 .0257912
1083.764 .0258124
1084.343 .0258341
1084.923 .0258564
1085.502 .0258791
1086.082 .0259022
1086.662 .0259257
1087.242 .0259495
1087.822 .0259736
1088.402 .0259983
1088.983 .0260236
1089.563 .0260497
1090.144 .0260766
1090.725 .0261045
1091.306 .0261334
1091.887 .0261631
1092.469 .0261937
1093.050 .0262250
1093.632 .0262568
1094.214 .0262890
1094.796 .0263213
1095.379 .0263540
1095.961 .0263870
1096.544 .0264204
1097.127 .0264543
1097.710 .0264888
1098.294 .0265238
1098.877 .0265596
1099.461 .0265960
1100.046 .0266332
1100.630 .0266709
1101.215 .0267091
1101.800 .0267476
1102.385 .0267862
1102.970 .0268249
1103.556 .0268636
1104.142 .0269022
1104.728 .0269409
1105.315 .0269795
1105.902 .0270183
1106.489 .0270575
1107.077 .0270972
1107.664 .0271376
1108.253 .0271790
1108.841 .0272212
1109.430 .0272644
1110.019 .0273083
1110.609 .0273528
1111.198 .0273981
1111.789 .0274440
1112.379 .0274908
1112.970 .0275385
1113.561 .0275871
1114.153 .0276367
1114.745 .0276873
1115.338 .0277387
1115.931 .0277908
1116.524 .0278431
1117.117 .0278955
1117.712 .0279478
1118.306 .0280000
1118.901 .0280523
1119.496 .0281051
1120.092 .0281589
1120.689 .0282139
1121.285 .0282704
1121.882 .0283286
1122.480 .0283883
1123.078 .0284493
1123.677 .0285114
1124.276 .0285744
1124.875 .0286381
1125.476 .0287025
1126.076 .0287676
1126.677 .0288338
1127.279 .0289014
1127.881 .0289705
1128.484 .0290415
1129.087 .0290724
1129.691 .0291457
1130.295 .0292208
1130.900 .0292977
1131.505 .0293766
1132.111 .0294580
1132.718 .0295426
1133.325 .0296314
1133.933 .0297244
1134.541 .0298237
1135.150 .0299268
1135.760 .0300394
1136.370 .0301656
1136.981 .0301790
1137.592 .0302878
1138.204 .0303974
1138.817 .0305087
1139.431 .0306304
1140.045 .0307595
1140.660 .0309087
1141.275 .0310806
1141.891 .0312499
1142.508 .0314712
1143.126 .0316169
1143.744 .0319253
1144.363 .0323515
1144.983 .0318463
