Measurement Sequence started on: 15-12-46-377
Integration time: 28
Scans to Average: 2 
>>>>>Begin Spectral Data<<<<<
432.689 .0000100
433.621 .0000100
434.552 .0000100
435.482 .0000100
436.410 .0000100
437.337 .0000100
438.262 .0240868
439.187 .0510645
440.110 .0845563
441.031 .1223756
441.952 .0982060
442.871 .1025720
443.789 .1066377
444.705 .1104686
445.621 .1141068
446.535 .1175838
447.447 .1196546
448.359 .1201844
449.269 .1188450
450.178 .1154202
451.086 .1099756
451.993 .1029326
452.898 .0949859
453.803 .0869247
454.706 .0794210
455.608 .0728925
456.508 .0674813
457.408 .0638068
458.306 .0609748
459.204 .0586608
460.100 .0567049
460.995 .0550167
461.888 .0535333
462.781 .0522147
463.673 .0510320
464.563 .0499648
465.452 .0489980
466.340 .0481186
467.228 .0473174
468.114 .0465864
468.999 .0459184
469.882 .0453076
470.765 .0447488
471.647 .0442375
472.528 .0437703
473.407 .0433430
474.286 .0429530
475.163 .0425980
476.040 .0422750
476.915 .0419823
477.790 .0417178
478.663 .0414797
479.535 .0412658
480.407 .0410746
481.277 .0409043
482.147 .0407530
483.015 .0406188
483.883 .0405003
484.749 .0403962
485.615 .0403056
486.479 .0402274
487.343 .0401614
488.206 .0401083
489.067 .0400685
489.928 .0400429
490.788 .0400327
491.647 .0400388
492.505 .0400625
493.362 .0401044
494.218 .0401653
495.073 .0402459
495.928 .0404451
496.781 .0405811
497.634 .0407407
498.486 .0409248
499.337 .0411354
500.187 .0413740
501.036 .0416418
501.884 .0419396
502.731 .0422691
503.578 .0426314
504.424 .0428811
505.268 .0432968
506.113 .0437495
506.956 .0442418
507.798 .0447775
508.640 .0453618
509.480 .0460010
510.320 .0467036
511.160 .0474789
511.998 .0483371
512.836 .0492910
513.672 .0503546
514.508 .0515430
515.344 .0528720
516.178 .0543602
517.012 .0560278
517.845 .0578941
518.677 .0599789
519.508 .0623029
520.339 .0648771
521.169 .0677099
521.998 .0707859
522.826 .0740807
523.654 .0775523
524.481 .0811457
525.307 .0847950
526.133 .0884237
526.958 .0919520
527.782 .0953034
528.605 .0984080
529.428 .1012094
530.250 .1036535
531.072 .1057077
531.892 .1073432
532.712 .1085438
533.532 .1092974
534.350 .1095963
535.168 .1094419
535.986 .1088370
536.802 .1077802
537.618 .1062774
538.434 .1043373
539.249 .1019903
540.063 .0992736
540.876 .0962385
541.689 .0929464
542.501 .0894671
543.313 .0858771
544.124 .0822539
544.934 .0786689
545.744 .0751859
546.553 .0718542
547.361 .0687170
548.169 .0657961
548.976 .0631069
549.783 .0606516
550.589 .0584265
551.395 .0564201
552.200 .0546130
553.004 .0529828
553.808 .0515106
554.611 .0501784
555.414 .0489678
556.216 .0478615
557.018 .0468436
557.819 .0459019
558.619 .0450262
559.419 .0442072
560.218 .0434385
561.017 .0427147
561.815 .0420324
562.613 .0413884
563.410 .0407796
564.207 .0402033
565.003 .0396564
565.799 .0391364
566.594 .0386403
567.388 .0381648
568.182 .0377074
568.976 .0372656
569.769 .0368378
570.562 .0364227
571.354 .0360199
572.145 .0356293
572.936 .0352517
573.727 .0348878
574.517 .0345380
575.307 .0342031
576.096 .0338836
576.885 .0335795
577.673 .0332911
578.461 .0330179
579.248 .0327592
580.035 .0325146
580.821 .0322839
581.607 .0320663
582.392 .0318615
583.177 .0316690
583.962 .0314886
584.746 .0313197
585.529 .0311619
586.313 .0310145
587.095 .0308772
587.878 .0307495
588.660 .0306307
589.441 .0305202
590.222 .0304174
591.003 .0303215
591.783 .0302317
592.563 .0301474
593.342 .0300681
594.121 .0299933
594.899 .0299226
595.678 .0298557
596.455 .0297921
597.233 .0297315
598.009 .0296736
598.786 .0296181
599.562 .0295645
600.338 .0295128
601.113 .0294628
601.888 .0293941
602.663 .0293486
603.437 .0293051
604.211 .0292637
604.984 .0292245
605.757 .0291875
606.530 .0291526
607.302 .0291198
608.074 .0290892
608.845 .0290608
609.616 .0290345
610.387 .0290266
611.158 .0290037
611.928 .0289831
612.697 .0289645
613.467 .0289481
614.236 .0289337
615.004 .0289211
615.773 .0289101
616.541 .0289006
617.308 .0288925
618.076 .0288855
618.843 .0288796
619.609 .0288747
620.375 .0288704
621.141 .0288667
621.907 .0288632
622.672 .0288599
623.437 .0288567
624.202 .0288532
624.966 .0288496
625.730 .0288458
626.493 .0288417
627.257 .0288372
628.020 .0288324
628.782 .0288269
629.545 .0288209
630.307 .0288141
631.068 .0288065
631.830 .0287983
632.591 .0287894
633.352 .0287800
634.112 .0287700
634.872 .0287597
635.632 .0287489
636.392 .0287378
637.151 .0287262
637.910 .0287141
638.668 .0287013
639.427 .0286880
640.185 .0286740
640.943 .0286593
641.700 .0286442
642.457 .0286286
643.214 .0286124
643.971 .0285956
644.727 .0285783
645.483 .0285603
646.239 .0285415
646.994 .0285219
647.750 .0285016
648.505 .0284804
649.259 .0284585
650.014 .0284359
650.768 .0284128
651.521 .0283893
652.275 .0283656
653.028 .0283417
653.781 .0283178
654.534 .0282939
655.286 .0282701
656.039 .0282465
656.791 .0282230
657.542 .0281997
658.294 .0281765
659.045 .0281537
659.796 .0281312
660.546 .0281091
661.297 .0280876
662.047 .0280666
662.796 .0280464
663.546 .0280270
664.295 .0280083
665.044 .0279905
665.793 .0279735
666.542 .0279573
667.290 .0279419
668.038 .0279272
668.786 .0279132
669.533 .0279000
670.281 .0278874
671.028 .0278754
671.774 .0278642
672.521 .0278536
673.267 .0278438
674.013 .0278348
674.759 .0278265
675.505 .0278190
676.250 .0278122
676.995 .0278060
677.740 .0278003
678.484 .0277951
679.229 .0277903
679.973 .0277858
680.717 .0277817
681.460 .0277778
682.204 .0277743
682.947 .0277711
683.690 .0277681
684.433 .0277654
685.175 .0277627
685.917 .0277600
686.659 .0277572
687.401 .0277542
688.142 .0277510
688.884 .0277475
689.625 .0277437
690.365 .0277396
691.106 .0277352
691.846 .0277305
692.586 .0277254
693.326 .0277200
694.066 .0277142
694.805 .0277080
695.545 .0277014
696.284 .0276944
697.022 .0276870
697.761 .0276791
698.499 .0276709
699.237 .0276623
699.975 .0276533
700.713 .0276438
701.450 .0276339
702.187 .0276234
702.924 .0276124
703.661 .0276008
704.397 .0275885
705.133 .0275755
705.869 .0275617
706.605 .0275471
707.341 .0275318
708.076 .0275156
708.811 .0274986
709.546 .0274808
710.281 .0274623
711.015 .0274429
711.749 .0274229
712.483 .0274021
713.217 .0273806
713.950 .0273585
714.684 .0273357
715.417 .0273124
716.150 .0272884
716.882 .0272640
717.615 .0272391
718.347 .0272138
719.079 .0271881
719.811 .0271622
720.542 .0271361
721.273 .0271099
722.005 .0270836
722.735 .0270573
723.466 .0270312
724.196 .0270053
724.927 .0269796
725.656 .0269543
726.386 .0269292
727.116 .0269046
727.845 .0268805
728.574 .0268568
729.303 .0268337
730.031 .0268112
730.760 .0267895
731.488 .0267686
732.216 .0267485
732.944 .0267293
733.671 .0267110
734.398 .0266937
735.125 .0266774
735.852 .0266618
736.579 .0266472
737.305 .0266333
738.031 .0266203
738.757 .0266080
739.483 .0265965
740.208 .0265858
740.933 .0265759
741.658 .0265668
742.383 .0265585
743.108 .0265512
743.832 .0265448
744.556 .0265391
745.280 .0265344
746.004 .0265304
746.727 .0265270
747.450 .0265244
748.173 .0265223
748.896 .0265207
749.618 .0265197
750.340 .0265190
751.062 .0265188
751.784 .0265191
752.506 .0265197
753.227 .0265207
753.948 .0265220
754.669 .0265235
755.389 .0265251
756.110 .0265268
756.830 .0265284
757.550 .0265299
758.269 .0265312
758.989 .0265323
759.708 .0265331
760.427 .0265336
761.146 .0265339
761.864 .0265341
762.582 .0265340
763.300 .0265338
764.018 .0265334
764.736 .0265328
765.453 .0265320
766.170 .0265309
766.887 .0265294
767.603 .0265276
768.320 .0265253
769.036 .0265224
769.751 .0265191
770.467 .0265153
771.182 .0265110
771.897 .0265061
772.612 .0265008
773.327 .0264948
774.041 .0264882
774.755 .0264808
775.469 .0264727
776.183 .0264636
776.896 .0264535
777.609 .0264424
778.322 .0264302
779.035 .0264170
779.747 .0264027
780.459 .0263874
781.171 .0263710
781.882 .0263537
782.594 .0263354
783.305 .0263161
784.016 .0262960
784.726 .0262751
785.436 .0262534
786.147 .0262188
786.856 .0261955
787.566 .0261715
788.275 .0261469
788.984 .0261218
789.693 .0260962
790.401 .0260702
791.110 .0260438
791.818 .0260172
792.525 .0259904
793.233 .0259633
793.940 .0259361
794.647 .0259216
795.353 .0258941
796.060 .0258666
796.766 .0258390
797.472 .0258113
798.177 .0257836
798.883 .0257560
799.588 .0257284
800.292 .0257010
800.997 .0256736
801.701 .0256464
802.405 .0256194
803.109 .0255927
803.812 .0255661
804.515 .0255399
805.218 .0255140
805.921 .0254884
806.623 .0254633
807.325 .0254388
808.027 .0254147
808.728 .0253913
809.429 .0253685
810.130 .0253464
810.831 .0253250
811.531 .0253043
812.231 .0252844
812.931 .0252654
813.630 .0252472
814.330 .0252298
815.029 .0252133
815.727 .0251977
816.426 .0251830
817.124 .0251692
817.821 .0251563
818.519 .0251444
819.216 .0251333
819.913 .0251232
820.609 .0251140
821.306 .0251058
822.002 .0250985
822.697 .0250921
823.393 .0250866
824.088 .0250820
824.783 .0250784
825.477 .0250755
826.171 .0250733
826.865 .0250719
827.559 .0250711
828.252 .0250708
828.945 .0250710
829.638 .0250718
830.330 .0250730
831.023 .0250746
831.714 .0250765
832.406 .0250788
833.097 .0250814
833.788 .0250843
834.479 .0250874
835.169 .0250908
835.859 .0250945
836.548 .0250985
837.238 .0251030
837.927 .0251079
838.615 .0251133
839.304 .0251191
839.992 .0251252
840.680 .0251317
841.367 .0251384
842.054 .0251454
842.741 .0251526
843.428 .0251601
844.114 .0251679
844.800 .0251758
845.485 .0251838
846.170 .0251919
846.855 .0251999
847.540 .0252076
848.224 .0252149
848.908 .0252218
849.592 .0252281
850.275 .0252340
850.958 .0252393
851.641 .0252441
852.323 .0252484
853.005 .0252521
853.687 .0252552
854.368 .0252574
855.049 .0252588
855.730 .0252594
856.410 .0252590
857.090 .0252578
857.769 .0252557
858.449 .0252528
859.128 .0252491
859.806 .0252447
860.485 .0252396
861.163 .0252336
861.840 .0252269
862.518 .0252194
863.195 .0252112
863.871 .0252022
864.548 .0251927
865.224 .0251826
865.899 .0251719
866.574 .0251606
867.249 .0251486
867.924 .0251359
868.598 .0251225
869.272 .0251083
869.946 .0250933
870.619 .0250775
871.292 .0250610
871.964 .0250436
872.636 .0250255
873.308 .0250065
873.979 .0249868
874.651 .0249663
875.321 .0249450
875.992 .0249228
876.662 .0248997
877.331 .0248759
878.001 .0248514
878.670 .0248261
879.338 .0248003
880.007 .0247739
880.675 .0247469
881.342 .0247196
882.009 .0246919
882.676 .0246639
883.343 .0246358
884.009 .0246074
884.675 .0245789
885.340 .0245503
886.005 .0245216
886.670 .0244927
887.334 .0244637
887.998 .0244345
888.662 .0244053
889.325 .0243759
889.988 .0243466
890.650 .0243173
891.312 .0242881
891.974 .0242591
892.636 .0242302
893.297 .0242014
893.957 .0241727
894.618 .0241442
895.278 .0241158
895.937 .0240876
896.596 .0240596
897.255 .0240319
897.914 .0240046
898.572 .0239777
899.230 .0239512
899.887 .0239251
900.544 .0238994
901.201 .0238741
901.857 .0238381
902.513 .0238138
903.168 .0237900
903.823 .0237667
904.478 .0237440
905.132 .0237219
905.786 .0237004
906.440 .0236796
907.093 .0236595
907.746 .0236402
908.399 .0236215
909.051 .0236037
909.703 .0235866
910.354 .0235802
911.005 .0235643
911.656 .0235493
912.306 .0235353
912.956 .0235222
913.605 .0235101
914.254 .0234989
914.903 .0234886
915.551 .0234792
916.199 .0234705
916.847 .0234625
917.494 .0234552
918.141 .0234485
918.788 .0234424
919.434 .0234369
920.079 .0234320
920.725 .0234276
921.370 .0234239
922.014 .0234207
922.658 .0234181
923.302 .0234161
923.946 .0234145
924.589 .0234134
925.231 .0234127
925.873 .0234124
926.515 .0234125
927.157 .0234129
927.798 .0234137
928.439 .0234147
929.079 .0234161
929.719 .0234177
930.359 .0234197
930.998 .0234219
931.637 .0234243
932.275 .0234269
932.913 .0234298
933.551 .0234330
934.188 .0234364
934.825 .0234402
935.462 .0234443
936.098 .0234488
936.733 .0234537
937.369 .0234590
938.004 .0234647
938.638 .0234708
939.273 .0234773
939.907 .0234840
940.540 .0234911
941.173 .0234983
941.806 .0235058
942.438 .0235135
943.070 .0235215
943.702 .0235296
944.333 .0235380
944.964 .0235466
945.594 .0235553
946.224 .0235643
946.854 .0235733
947.483 .0235824
948.112 .0235916
948.741 .0236007
949.369 .0236099
949.996 .0236191
950.624 .0236284
951.251 .0236378
951.878 .0236473
952.504 .0236569
953.130 .0236665
953.755 .0236761
954.380 .0236856
955.005 .0236950
955.629 .0237042
956.253 .0237131
956.877 .0237216
957.500 .0237299
958.123 .0237377
958.746 .0237452
959.368 .0237524
959.990 .0237591
960.611 .0237655
961.232 .0237716
961.853 .0237772
962.473 .0237824
963.093 .0237873
963.712 .0237916
964.331 .0237955
964.950 .0237988
965.569 .0238016
966.187 .0238037
966.804 .0238051
967.422 .0238058
968.039 .0238056
968.655 .0238047
969.272 .0238028
969.887 .0238001
970.503 .0237965
971.118 .0237920
971.733 .0237867
972.347 .0237805
972.961 .0237736
973.575 .0237659
974.188 .0237574
974.801 .0237481
975.414 .0237382
976.026 .0237275
976.638 .0237161
977.250 .0237039
977.861 .0236910
978.472 .0236774
979.083 .0236630
979.693 .0236480
980.303 .0236323
980.912 .0236062
981.521 .0235892
982.130 .0235717
982.738 .0235536
983.346 .0235350
983.954 .0235160
984.562 .0234965
985.169 .0234768
985.775 .0234568
986.382 .0234367
986.988 .0234166
987.594 .0233964
988.199 .0233761
988.804 .0233559
989.409 .0233460
990.013 .0233258
990.617 .0233055
991.221 .0232851
991.824 .0232647
992.427 .0232442
993.030 .0232236
993.632 .0232029
994.234 .0231821
994.836 .0231611
995.438 .0231400
996.039 .0231188
996.640 .0230974
997.240 .0230759
997.840 .0230543
998.440 .0230326
999.040 .0230108
999.639 .0229889
1000.238 .0229670
1000.836 .0229450
1001.435 .0229228
1002.033 .0229005
1002.630 .0228780
1003.228 .0228552
1003.825 .0228322
1004.422 .0228089
1005.018 .0227853
1005.614 .0227615
1006.210 .0227374
1006.806 .0227130
1007.401 .0226885
1007.996 .0226639
1008.591 .0226391
1009.186 .0226144
1009.780 .0225898
1010.374 .0225654
1010.967 .0225412
1011.561 .0225174
1012.154 .0224940
1012.746 .0224711
1013.339 .0224488
1013.931 .0224269
1014.523 .0224056
1015.115 .0223848
1015.706 .0223644
1016.298 .0223445
1016.888 .0223251
1017.479 .0223062
1018.069 .0222879
1018.660 .0222702
1019.250 .0222531
1019.839 .0222367
1020.429 .0222211
1021.018 .0222063
1021.607 .0221922
1022.195 .0221789
1022.784 .0221663
1023.372 .0221546
1023.960 .0221437
1024.547 .0221337
1025.135 .0221246
1025.722 .0221165
1026.309 .0221093
1026.896 .0221030
1027.483 .0220976
1028.069 .0220931
1028.655 .0220892
1029.241 .0220860
1029.827 .0220833
1030.412 .0220812
1030.997 .0220794
1031.582 .0220781
1032.167 .0220772
1032.752 .0220767
1033.336 .0220767
1033.921 .0220771
1034.505 .0220780
1035.089 .0220793
1035.672 .0220812
1036.256 .0220836
1036.839 .0220865
1037.422 .0220899
1038.005 .0220939
1038.588 .0220984
1039.171 .0221035
1039.753 .0221091
1040.335 .0221152
1040.918 .0221216
1041.500 .0221284
1042.081 .0221356
1042.663 .0221430
1043.244 .0221507
1043.826 .0221587
1044.407 .0221670
1044.988 .0221757
1045.569 .0221847
1046.150 .0221940
1046.730 .0222037
1047.311 .0222137
1047.891 .0222241
1048.471 .0222348
1049.052 .0222460
1049.632 .0222577
1050.211 .0222700
1050.791 .0222830
1051.371 .0222968
1051.950 .0223112
1052.530 .0223263
1053.109 .0223419
1053.688 .0223579
1054.268 .0223742
1054.847 .0223909
1055.426 .0224079
1056.005 .0224252
1056.583 .0224429
1057.162 .0224610
1057.741 .0224796
1058.319 .0224987
1058.898 .0225182
1059.476 .0225381
1060.055 .0225583
1060.633 .0225789
1061.211 .0225997
1061.790 .0226208
1062.368 .0226422
1062.946 .0226640
1063.524 .0226863
1064.102 .0227090
1064.680 .0227322
1065.258 .0227558
1065.836 .0227799
1066.414 .0228043
1066.992 .0228291
1067.570 .0228542
1068.148 .0228795
1068.726 .0229051
1069.304 .0229309
1069.882 .0229570
1070.460 .0229833
1071.038 .0230098
1071.616 .0230365
1072.194 .0230635
1072.772 .0230907
1073.350 .0231181
1073.928 .0231457
1074.506 .0231736
1075.084 .0232017
1075.662 .0232299
1076.240 .0232582
1076.819 .0232866
1077.397 .0233152
1077.976 .0233436
1078.554 .0233719
1079.133 .0234001
1079.711 .0234281
1080.290 .0234560
1080.869 .0234838
1081.448 .0235113
1082.027 .0235386
1082.606 .0235656
1083.185 .0235922
1083.764 .0236184
1084.343 .0236441
1084.923 .0236692
1085.502 .0236938
1086.082 .0237181
1086.662 .0237420
1087.242 .0237659
1087.822 .0237898
1088.402 .0238140
1088.983 .0238383
1089.563 .0238627
1090.144 .0238874
1090.725 .0239122
1091.306 .0239371
1091.887 .0239621
1092.469 .0239873
1093.050 .0240127
1093.632 .0240384
1094.214 .0240643
1094.796 .0240907
1095.379 .0241175
1095.961 .0241446
1096.544 .0241720
1097.127 .0241995
1097.710 .0242268
1098.294 .0242540
1098.877 .0242809
1099.461 .0243075
1100.046 .0243339
1100.630 .0243602
1101.215 .0243867
1101.800 .0244134
1102.385 .0244405
1102.970 .0244680
1103.556 .0244957
1104.142 .0245236
1104.728 .0245512
1105.315 .0245784
1105.902 .0246052
1106.489 .0246316
1107.077 .0246576
1107.664 .0246834
1108.253 .0247092
1108.841 .0247351
1109.430 .0247611
1110.019 .0247871
1110.609 .0248129
1111.198 .0248383
1111.789 .0248632
1112.379 .0248876
1112.970 .0249117
1113.561 .0249356
1114.153 .0249597
1114.745 .0249846
1115.338 .0250103
1115.931 .0250371
1116.524 .0250649
1117.117 .0250934
1117.712 .0251223
1118.306 .0251513
1118.901 .0251802
1119.496 .0252091
1120.092 .0252381
1120.689 .0252674
1121.285 .0252974
1121.882 .0253285
1122.480 .0253608
1123.078 .0253941
1123.677 .0254284
1124.276 .0254634
1124.875 .0254990
1125.476 .0255349
1126.076 .0255713
1126.677 .0256085
1127.279 .0256472
1127.881 .0256879
1128.484 .0257313
1129.087 .0257491
1129.691 .0257966
1130.295 .0258472
1130.900 .0259010
1131.505 .0259579
1132.111 .0260178
1132.718 .0260806
1133.325 .0261469
1133.933 .0262173
1134.541 .0262913
1135.150 .0263725
1135.760 .0264541
1136.370 .0265501
1136.981 .0264685
1137.592 .0265780
1138.204 .0266891
1138.817 .0268032
1139.431 .0269204
1140.045 .0270427
1140.660 .0271678
1141.275 .0273057
1141.891 .0274596
1142.508 .0275916
1143.126 .0278213
1143.744 .0278554
1144.363 .0282815
1144.983 .0285300
