Measurement Sequence started on: 15-12-46-377
Integration time: 28
Scans to Average: 2 
>>>>>Begin Spectral Data<<<<<
432.689 .0000100
433.621 .0000100
434.552 .0000100
435.482 .0000100
436.410 .0000100
437.337 .0000100
438.262 .0267657
439.187 .0568092
440.110 .0942055
441.031 .1363982
441.952 .1099763
442.871 .1149178
443.789 .1195316
444.705 .1238934
445.621 .1280557
446.535 .1320560
447.447 .1345104
448.359 .1352635
449.269 .1339416
450.178 .1303014
451.086 .1244086
451.993 .1167245
452.898 .1080205
453.803 .0991747
454.706 .0909379
455.608 .0837802
456.508 .0778637
457.408 .0738805
458.306 .0708386
459.204 .0683772
460.100 .0663096
460.995 .0645320
461.888 .0629708
462.781 .0615757
463.673 .0603125
464.563 .0591593
465.452 .0581018
466.340 .0571296
467.228 .0562366
468.114 .0554176
468.999 .0546672
469.882 .0539805
470.765 .0533526
471.647 .0527780
472.528 .0522520
473.407 .0517702
474.286 .0513296
475.163 .0509283
476.040 .0505640
476.915 .0502359
477.790 .0499425
478.663 .0496826
479.535 .0494548
480.407 .0492568
481.277 .0490865
482.147 .0489408
483.015 .0488172
483.883 .0487131
484.749 .0486269
485.615 .0485577
486.479 .0485049
487.343 .0484687
488.206 .0484504
489.067 .0484506
489.928 .0484704
490.788 .0485107
491.647 .0485726
492.505 .0486564
493.362 .0487623
494.218 .0488906
495.073 .0490415
495.928 .0493569
496.781 .0495706
497.634 .0498106
498.486 .0500785
499.337 .0503758
500.187 .0507045
501.036 .0510665
501.884 .0514640
502.731 .0518992
503.578 .0523747
504.424 .0526968
505.268 .0532449
506.113 .0538440
506.956 .0544979
507.798 .0552122
508.640 .0559928
509.480 .0568481
510.320 .0577890
511.160 .0588289
511.998 .0599840
512.836 .0612748
513.672 .0627225
514.508 .0643512
515.344 .0661870
516.178 .0682561
517.012 .0705857
517.845 .0732005
518.677 .0761219
519.508 .0793670
520.339 .0829428
521.169 .0868535
521.998 .0910731
522.826 .0955652
523.654 .1002706
524.481 .1051150
525.307 .1100136
526.133 .1148706
526.958 .1195825
527.782 .1240510
528.605 .1281828
529.428 .1318963
530.250 .1351154
531.072 .1377911
531.892 .1398799
532.712 .1413536
533.532 .1421970
534.350 .1424015
535.168 .1419686
535.986 .1409106
536.802 .1392373
537.618 .1369656
538.434 .1341126
539.249 .1307217
540.063 .1268450
540.876 .1225531
541.689 .1179295
542.501 .1130641
543.313 .1080567
544.124 .1030119
544.934 .0980249
545.744 .0931827
546.553 .0885591
547.361 .0842154
548.169 .0801846
548.976 .0764909
549.783 .0731392
550.589 .0701215
551.395 .0674202
552.200 .0650093
553.004 .0628543
553.808 .0609261
554.611 .0591975
555.414 .0576436
556.216 .0562431
557.018 .0549753
557.819 .0538228
558.619 .0527709
559.419 .0518084
560.218 .0509234
561.017 .0501054
561.815 .0493463
562.613 .0486383
563.410 .0479731
564.207 .0473436
565.003 .0467430
565.799 .0461658
566.594 .0456071
567.388 .0450633
568.182 .0445314
568.976 .0440095
569.769 .0434967
570.562 .0429930
571.354 .0424991
572.145 .0420161
572.936 .0415444
573.727 .0410849
574.517 .0406385
575.307 .0402057
576.096 .0397863
576.885 .0393811
577.673 .0389906
578.461 .0386151
579.248 .0382545
580.035 .0379090
580.821 .0375788
581.607 .0372642
582.392 .0369653
583.177 .0366823
583.962 .0364155
584.746 .0361649
585.529 .0359302
586.313 .0357111
587.095 .0355069
587.878 .0353170
588.660 .0351403
589.441 .0349760
590.222 .0348235
591.003 .0346819
591.783 .0345508
592.563 .0344295
593.342 .0343174
594.121 .0342138
594.899 .0341176
595.678 .0340283
596.455 .0339449
597.233 .0338669
598.009 .0337936
598.786 .0337247
599.562 .0336597
600.338 .0335982
601.113 .0335401
601.888 .0334616
602.663 .0334100
603.437 .0333608
604.211 .0333139
604.984 .0332690
605.757 .0332260
606.530 .0331848
607.302 .0331454
608.074 .0331080
608.845 .0330724
609.616 .0330389
610.387 .0330275
611.158 .0329974
611.928 .0329695
612.697 .0329437
613.467 .0329199
614.236 .0328981
615.004 .0328781
615.773 .0328597
616.541 .0328427
617.308 .0328271
618.076 .0328125
618.843 .0327990
619.609 .0327862
620.375 .0327741
621.141 .0327622
621.907 .0327505
622.672 .0327385
623.437 .0327262
624.202 .0327132
624.966 .0326994
625.730 .0326845
626.493 .0326684
627.257 .0326511
628.020 .0326323
628.782 .0326121
629.545 .0325904
630.307 .0325670
631.068 .0325422
631.830 .0325158
632.591 .0324882
633.352 .0324593
634.112 .0324295
634.872 .0323987
635.632 .0323672
636.392 .0323350
637.151 .0323023
637.910 .0322692
638.668 .0322357
639.427 .0322020
640.185 .0321681
640.943 .0321342
641.700 .0321003
642.457 .0320664
643.214 .0320325
643.971 .0319986
644.727 .0319647
645.483 .0319306
646.239 .0318964
646.994 .0318621
647.750 .0318277
648.505 .0317932
649.259 .0317586
650.014 .0317237
650.768 .0316887
651.521 .0316533
652.275 .0316175
653.028 .0315814
653.781 .0315449
654.534 .0315081
655.286 .0314711
656.039 .0314340
656.791 .0313970
657.542 .0313600
658.294 .0313232
659.045 .0312867
659.796 .0312504
660.546 .0312146
661.297 .0311793
662.047 .0311446
662.796 .0311105
663.546 .0310772
664.295 .0310446
665.044 .0310128
665.793 .0309819
666.542 .0309519
667.290 .0309229
668.038 .0308949
668.786 .0308680
669.533 .0308421
670.281 .0308172
671.028 .0307932
671.774 .0307701
672.521 .0307479
673.267 .0307263
674.013 .0307053
674.759 .0306848
675.505 .0306649
676.250 .0306455
676.995 .0306266
677.740 .0306082
678.484 .0305903
679.229 .0305729
679.973 .0305561
680.717 .0305398
681.460 .0305242
682.204 .0305091
682.947 .0304947
683.690 .0304807
684.433 .0304673
685.175 .0304544
685.917 .0304420
686.659 .0304300
687.401 .0304185
688.142 .0304075
688.884 .0303969
689.625 .0303867
690.365 .0303769
691.106 .0303675
691.846 .0303582
692.586 .0303491
693.326 .0303401
694.066 .0303311
694.805 .0303221
695.545 .0303130
696.284 .0303038
697.022 .0302945
697.761 .0302849
698.499 .0302751
699.237 .0302649
699.975 .0302545
700.713 .0302438
701.450 .0302329
702.187 .0302218
702.924 .0302104
703.661 .0301988
704.397 .0301870
705.133 .0301749
705.869 .0301625
706.605 .0301498
707.341 .0301368
708.076 .0301235
708.811 .0301100
709.546 .0300962
710.281 .0300822
711.015 .0300679
711.749 .0300533
712.483 .0300383
713.217 .0300229
713.950 .0300068
714.684 .0299902
715.417 .0299730
716.150 .0299552
716.882 .0299366
717.615 .0299174
718.347 .0298973
719.079 .0298765
719.811 .0298549
720.542 .0298325
721.273 .0298093
722.005 .0297854
722.735 .0297608
723.466 .0297356
724.196 .0297100
724.927 .0296840
725.656 .0296576
726.386 .0296310
727.116 .0296041
727.845 .0295770
728.574 .0295499
729.303 .0295228
730.031 .0294958
730.760 .0294691
731.488 .0294427
732.216 .0294167
732.944 .0293912
733.671 .0293664
734.398 .0293421
735.125 .0293185
735.852 .0292954
736.579 .0292729
737.305 .0292510
738.031 .0292296
738.757 .0292087
739.483 .0291883
740.208 .0291682
740.933 .0291485
741.658 .0291289
742.383 .0291095
743.108 .0290902
743.832 .0290709
744.556 .0290515
745.280 .0290320
746.004 .0290123
746.727 .0289924
747.450 .0289723
748.173 .0289519
748.896 .0289312
749.618 .0289104
750.340 .0288892
751.062 .0288679
751.784 .0288464
752.506 .0288248
753.227 .0288030
753.948 .0287812
754.669 .0287594
755.389 .0287376
756.110 .0287159
756.830 .0286942
757.550 .0286727
758.269 .0286514
758.989 .0286305
759.708 .0286098
760.427 .0285896
761.146 .0285697
761.864 .0285504
762.582 .0285317
763.300 .0285137
764.018 .0284963
764.736 .0284796
765.453 .0284635
766.170 .0284481
766.887 .0284333
767.603 .0284191
768.320 .0284056
769.036 .0283928
769.751 .0283806
770.467 .0283692
771.182 .0283586
771.897 .0283489
772.612 .0283400
773.327 .0283320
774.041 .0283248
774.755 .0283185
775.469 .0283129
776.183 .0283081
776.896 .0283040
777.609 .0283007
778.322 .0282981
779.035 .0282961
779.747 .0282949
780.459 .0282942
781.171 .0282942
781.882 .0282947
782.594 .0282957
783.305 .0282970
784.016 .0282987
784.726 .0283005
785.436 .0283024
786.147 .0283051
786.856 .0283069
787.566 .0283086
788.275 .0283103
788.984 .0283119
789.693 .0283134
790.401 .0283147
791.110 .0283160
791.818 .0283171
792.525 .0283180
793.233 .0283188
793.940 .0283193
794.647 .0283189
795.353 .0283192
796.060 .0283192
796.766 .0283190
797.472 .0283185
798.177 .0283176
798.883 .0283163
799.588 .0283146
800.292 .0283124
800.997 .0283099
801.701 .0283069
802.405 .0283035
803.109 .0282997
803.812 .0282956
804.515 .0282910
805.218 .0282860
805.921 .0282805
806.623 .0282745
807.325 .0282680
808.027 .0282609
808.728 .0282534
809.429 .0282455
810.130 .0282371
810.831 .0282283
811.531 .0282192
812.231 .0282097
812.931 .0281998
813.630 .0281896
814.330 .0281790
815.029 .0281683
815.727 .0281575
816.426 .0281466
817.124 .0281358
817.821 .0281252
818.519 .0281147
819.216 .0281045
819.913 .0280946
820.609 .0280848
821.306 .0280754
822.002 .0280662
822.697 .0280572
823.393 .0280486
824.088 .0280402
824.783 .0280321
825.477 .0280242
826.171 .0280164
826.865 .0280087
827.559 .0280009
828.252 .0279930
828.945 .0279850
829.638 .0279768
830.330 .0279683
831.023 .0279596
831.714 .0279507
832.406 .0279414
833.097 .0279319
833.788 .0279219
834.479 .0279117
835.169 .0279010
835.859 .0278901
836.548 .0278788
837.238 .0278672
837.927 .0278554
838.615 .0278431
839.304 .0278305
839.992 .0278174
840.680 .0278037
841.367 .0277894
842.054 .0277746
842.741 .0277591
843.428 .0277430
844.114 .0277263
844.800 .0277090
845.485 .0276912
846.170 .0276727
846.855 .0276536
847.540 .0276337
848.224 .0276132
848.908 .0275920
849.592 .0275701
850.275 .0275476
850.958 .0275244
851.641 .0275006
852.323 .0274761
853.005 .0274510
853.687 .0274251
854.368 .0273986
855.049 .0273715
855.730 .0273437
856.410 .0273153
857.090 .0272864
857.769 .0272571
858.449 .0272274
859.128 .0271974
859.806 .0271672
860.485 .0271368
861.163 .0271063
861.840 .0270757
862.518 .0270453
863.195 .0270150
863.871 .0269851
864.548 .0269555
865.224 .0269264
865.899 .0268977
866.574 .0268696
867.249 .0268421
867.924 .0268150
868.598 .0267886
869.272 .0267628
869.946 .0267377
870.619 .0267132
871.292 .0266895
871.964 .0266665
872.636 .0266443
873.308 .0266229
873.979 .0266024
874.651 .0265828
875.321 .0265640
875.992 .0265462
876.662 .0265292
877.331 .0265131
878.001 .0264979
878.670 .0264836
879.338 .0264703
880.007 .0264578
880.675 .0264462
881.342 .0264356
882.009 .0264259
882.676 .0264171
883.343 .0264092
884.009 .0264022
884.675 .0263959
885.340 .0263905
886.005 .0263858
886.670 .0263818
887.334 .0263785
887.998 .0263758
888.662 .0263738
889.325 .0263723
889.988 .0263714
890.650 .0263710
891.312 .0263711
891.974 .0263716
892.636 .0263725
893.297 .0263738
893.957 .0263754
894.618 .0263773
895.278 .0263794
895.937 .0263816
896.596 .0263838
897.255 .0263860
897.914 .0263879
898.572 .0263895
899.230 .0263907
899.887 .0263914
900.544 .0263915
901.201 .0263910
901.857 .0263876
902.513 .0263856
903.168 .0263830
903.823 .0263799
904.478 .0263764
905.132 .0263723
905.786 .0263679
906.440 .0263630
907.093 .0263578
907.746 .0263524
908.399 .0263468
909.051 .0263411
909.703 .0263354
910.354 .0263327
911.005 .0263273
911.656 .0263220
912.306 .0263168
912.956 .0263118
913.605 .0263070
914.254 .0263024
914.903 .0262981
915.551 .0262939
916.199 .0262900
916.847 .0262863
917.494 .0262827
918.141 .0262793
918.788 .0262761
919.434 .0262729
920.079 .0262699
920.725 .0262670
921.370 .0262640
922.014 .0262611
922.658 .0262581
923.302 .0262549
923.946 .0262515
924.589 .0262478
925.231 .0262438
925.873 .0262395
926.515 .0262350
927.157 .0262302
927.798 .0262252
928.439 .0262201
929.079 .0262148
929.719 .0262095
930.359 .0262041
930.998 .0261987
931.637 .0261933
932.275 .0261881
932.913 .0261831
933.551 .0261785
934.188 .0261745
934.825 .0261710
935.462 .0261682
936.098 .0261661
936.733 .0261647
937.369 .0261639
938.004 .0261637
938.638 .0261640
939.273 .0261648
939.907 .0261662
940.540 .0261680
941.173 .0261704
941.806 .0261733
942.438 .0261767
943.070 .0261806
943.702 .0261848
944.333 .0261892
944.964 .0261938
945.594 .0261983
946.224 .0262027
946.854 .0262070
947.483 .0262110
948.112 .0262148
948.741 .0262183
949.369 .0262215
949.996 .0262244
950.624 .0262269
951.251 .0262290
951.878 .0262307
952.504 .0262319
953.130 .0262326
953.755 .0262328
954.380 .0262325
955.005 .0262318
955.629 .0262307
956.253 .0262293
956.877 .0262276
957.500 .0262256
958.123 .0262233
958.746 .0262208
959.368 .0262179
959.990 .0262148
960.611 .0262112
961.232 .0262074
961.853 .0262033
962.473 .0261990
963.093 .0261943
963.712 .0261894
964.331 .0261841
964.950 .0261785
965.569 .0261725
966.187 .0261660
966.804 .0261589
967.422 .0261512
968.039 .0261428
968.655 .0261337
969.272 .0261239
969.887 .0261135
970.503 .0261024
971.118 .0260907
971.733 .0260783
972.347 .0260653
972.961 .0260517
973.575 .0260373
974.188 .0260223
974.801 .0260065
975.414 .0259901
976.026 .0259730
976.638 .0259553
977.250 .0259371
977.861 .0259183
978.472 .0258990
979.083 .0258792
979.693 .0258590
980.303 .0258382
980.912 .0258053
981.521 .0257833
982.130 .0257609
982.738 .0257381
983.346 .0257152
983.954 .0256922
984.562 .0256693
985.169 .0256465
985.775 .0256239
986.382 .0256015
986.988 .0255795
987.594 .0255577
988.199 .0255363
988.804 .0255153
989.409 .0255060
990.013 .0254858
990.617 .0254659
991.221 .0254466
991.824 .0254277
992.427 .0254092
993.030 .0253912
993.632 .0253735
994.234 .0253561
994.836 .0253389
995.438 .0253220
996.039 .0253053
996.640 .0252887
997.240 .0252725
997.840 .0252565
998.440 .0252409
999.040 .0252257
999.639 .0252109
1000.238 .0251966
1000.836 .0251827
1001.435 .0251691
1002.033 .0251559
1002.630 .0251428
1003.228 .0251299
1003.825 .0251170
1004.422 .0251041
1005.018 .0250912
1005.614 .0250780
1006.210 .0250648
1006.806 .0250514
1007.401 .0250378
1007.996 .0250240
1008.591 .0250100
1009.186 .0249957
1009.780 .0249812
1010.374 .0249664
1010.967 .0249515
1011.561 .0249363
1012.154 .0249211
1012.746 .0249058
1013.339 .0248907
1013.931 .0248758
1014.523 .0248611
1015.115 .0248467
1015.706 .0248327
1016.298 .0248190
1016.888 .0248057
1017.479 .0247927
1018.069 .0247800
1018.660 .0247676
1019.250 .0247556
1019.839 .0247439
1020.429 .0247327
1021.018 .0247219
1021.607 .0247116
1022.195 .0247017
1022.784 .0246924
1023.372 .0246836
1023.960 .0246753
1024.547 .0246677
1025.135 .0246606
1025.722 .0246542
1026.309 .0246484
1026.896 .0246433
1027.483 .0246389
1028.069 .0246350
1028.655 .0246317
1029.241 .0246288
1029.827 .0246263
1030.412 .0246241
1030.997 .0246220
1031.582 .0246201
1032.167 .0246182
1032.752 .0246164
1033.336 .0246146
1033.921 .0246127
1034.505 .0246107
1035.089 .0246085
1035.672 .0246062
1036.256 .0246036
1036.839 .0246008
1037.422 .0245978
1038.005 .0245945
1038.588 .0245911
1039.171 .0245874
1039.753 .0245836
1040.335 .0245797
1040.918 .0245756
1041.500 .0245714
1042.081 .0245671
1042.663 .0245628
1043.244 .0245583
1043.826 .0245537
1044.407 .0245490
1044.988 .0245442
1045.569 .0245393
1046.150 .0245344
1046.730 .0245295
1047.311 .0245247
1047.891 .0245201
1048.471 .0245158
1049.052 .0245119
1049.632 .0245083
1050.211 .0245051
1050.791 .0245022
1051.371 .0244997
1051.950 .0244973
1052.530 .0244952
1053.109 .0244932
1053.688 .0244915
1054.268 .0244900
1054.847 .0244889
1055.426 .0244882
1056.005 .0244882
1056.583 .0244888
1057.162 .0244901
1057.741 .0244918
1058.319 .0244940
1058.898 .0244966
1059.476 .0244995
1060.055 .0245027
1060.633 .0245065
1061.211 .0245107
1061.790 .0245157
1062.368 .0245215
1062.946 .0245281
1063.524 .0245356
1064.102 .0245439
1064.680 .0245529
1065.258 .0245622
1065.836 .0245718
1066.414 .0245815
1066.992 .0245913
1067.570 .0246012
1068.148 .0246112
1068.726 .0246215
1069.304 .0246320
1069.882 .0246428
1070.460 .0246540
1071.038 .0246654
1071.616 .0246770
1072.194 .0246886
1072.772 .0247002
1073.350 .0247116
1073.928 .0247229
1074.506 .0247342
1075.084 .0247456
1075.662 .0247571
1076.240 .0247689
1076.819 .0247810
1077.397 .0247935
1077.976 .0248064
1078.554 .0248197
1079.133 .0248334
1079.711 .0248476
1080.290 .0248621
1080.869 .0248769
1081.448 .0248922
1082.027 .0249079
1082.606 .0249240
1083.185 .0249405
1083.764 .0249575
1084.343 .0249749
1084.923 .0249928
1085.502 .0250112
1086.082 .0250301
1086.662 .0250495
1087.242 .0250693
1087.822 .0250894
1088.402 .0251099
1088.983 .0251306
1089.563 .0251515
1090.144 .0251728
1090.725 .0251943
1091.306 .0252162
1091.887 .0252385
1092.469 .0252615
1093.050 .0252851
1093.632 .0253095
1094.214 .0253345
1094.796 .0253602
1095.379 .0253865
1095.961 .0254133
1096.544 .0254405
1097.127 .0254680
1097.710 .0254960
1098.294 .0255244
1098.877 .0255533
1099.461 .0255827
1100.046 .0256128
1100.630 .0256437
1101.215 .0256752
1101.800 .0257074
1102.385 .0257403
1102.970 .0257737
1103.556 .0258079
1104.142 .0258429
1104.728 .0258788
1105.315 .0259159
1105.902 .0259543
1106.489 .0259941
1107.077 .0260354
1107.664 .0260782
1108.253 .0261225
1108.841 .0261680
1109.430 .0262146
1110.019 .0262622
1110.609 .0263108
1111.198 .0263603
1111.789 .0264106
1112.379 .0264616
1112.970 .0265132
1113.561 .0265651
1114.153 .0266172
1114.745 .0266693
1115.338 .0267213
1115.931 .0267732
1116.524 .0268253
1117.117 .0268776
1117.712 .0269307
1118.306 .0269848
1118.901 .0270402
1119.496 .0270967
1120.092 .0271543
1120.689 .0272129
1121.285 .0272722
1121.882 .0273322
1122.480 .0273932
1123.078 .0274552
1123.677 .0275188
1124.276 .0275842
1124.875 .0276518
1125.476 .0277217
1126.076 .0277940
1126.677 .0278685
1127.279 .0279451
1127.881 .0280234
1128.484 .0281033
1129.087 .0281357
1129.691 .0282177
1130.295 .0283018
1130.900 .0283883
1131.505 .0284776
1132.111 .0285703
1132.718 .0286667
1133.325 .0287669
1133.933 .0288695
1134.541 .0289746
1135.150 .0290910
1135.760 .0292021
1136.370 .0293158
1136.981 .0294434
1137.592 .0295575
1138.204 .0296752
1138.817 .0297962
1139.431 .0299201
1140.045 .0300570
1140.660 .0301979
1141.275 .0303417
1141.891 .0304547
1142.508 .0305708
1143.126 .0309522
1143.744 .0308722
1144.363 .0310212
1144.983 .0302824
