Measurement Sequence started on: 15-12-46-377
Integration time: 28
Scans to Average: 2 
>>>>>Begin Spectral Data<<<<<
432.689 .0000100
433.621 .0000100
434.552 .0000100
435.482 .0000100
436.410 .0000100
437.337 .0000100
438.262 .0293441
439.187 .0620255
440.110 .1026814
441.031 .1485187
441.952 .1187418
442.871 .1239913
443.789 .1288816
444.705 .1334896
445.621 .1378654
446.535 .1420481
447.447 .1445217
448.359 .1451323
449.269 .1434783
450.178 .1393024
451.086 .1326891
451.993 .1241507
452.898 .1145318
453.803 .1047886
454.706 .0957342
455.608 .0878714
456.508 .0813662
457.408 .0769698
458.306 .0735857
459.204 .0708246
460.100 .0684905
460.995 .0664741
461.888 .0647013
462.781 .0631248
463.673 .0617093
464.563 .0604296
465.452 .0592669
466.340 .0582060
467.228 .0572349
468.114 .0563445
468.999 .0555277
469.882 .0547780
470.765 .0540902
471.647 .0534593
472.528 .0528811
473.407 .0523511
474.286 .0518663
475.163 .0514245
476.040 .0510231
476.915 .0506609
477.790 .0503355
478.663 .0500456
479.535 .0497894
480.407 .0495645
481.277 .0493686
482.147 .0491981
483.015 .0490504
483.883 .0489223
484.749 .0488114
485.615 .0487168
486.479 .0486384
487.343 .0485773
488.206 .0485355
489.067 .0485146
489.928 .0485170
490.788 .0485441
491.647 .0485964
492.505 .0486741
493.362 .0487760
494.218 .0489017
495.073 .0490502
495.928 .0493608
496.781 .0495688
497.634 .0498019
498.486 .0500621
499.337 .0503514
500.187 .0506715
501.036 .0510239
501.884 .0514103
502.731 .0518322
503.578 .0522918
504.424 .0525958
505.268 .0531234
506.113 .0536995
506.956 .0543291
507.798 .0550189
508.640 .0557781
509.480 .0566177
510.320 .0575502
511.160 .0585902
511.998 .0597542
512.836 .0610620
513.672 .0625340
514.508 .0641928
515.344 .0660639
516.178 .0681721
517.012 .0705446
517.845 .0732047
518.677 .0761747
519.508 .0794705
520.339 .0831012
521.169 .0870684
521.998 .0913495
522.826 .0959082
523.654 .1006875
524.481 .1056151
525.307 .1106066
526.133 .1155646
526.958 .1203846
527.782 .1249631
528.605 .1292039
529.428 .1330223
530.250 .1363433
531.072 .1391154
531.892 .1412984
532.712 .1428659
533.532 .1438035
534.350 .1441032
535.168 .1437672
535.986 .1428032
536.802 .1412199
537.618 .1390291
538.434 .1362464
539.249 .1329123
540.063 .1290781
540.876 .1248134
541.689 .1202015
542.501 .1153341
543.313 .1103116
544.124 .1052382
544.934 .1002141
545.744 .0953277
546.553 .0906541
547.361 .0862532
548.169 .0821602
548.976 .0783973
549.783 .0749690
550.589 .0718675
551.395 .0690755
552.200 .0665688
553.004 .0643174
553.808 .0622950
554.611 .0604784
555.414 .0588454
556.216 .0573739
557.018 .0560428
557.819 .0548326
558.619 .0537251
559.419 .0527051
560.218 .0517600
561.017 .0508789
561.815 .0500531
562.613 .0492760
563.410 .0485411
564.207 .0478435
565.003 .0471786
565.799 .0465409
566.594 .0459259
567.388 .0453305
568.182 .0447514
568.976 .0441864
569.769 .0436347
570.562 .0430964
571.354 .0425720
572.145 .0420633
572.936 .0415711
573.727 .0410964
574.517 .0406403
575.307 .0402035
576.096 .0397860
576.885 .0393881
577.673 .0390094
578.461 .0386498
579.248 .0383091
580.035 .0379871
580.821 .0376835
581.607 .0373978
582.392 .0371299
583.177 .0368793
583.962 .0366455
584.746 .0364277
585.529 .0362252
586.313 .0360369
587.095 .0358619
587.878 .0356991
588.660 .0355476
589.441 .0354066
590.222 .0352756
591.003 .0351538
591.783 .0350408
592.563 .0349361
593.342 .0348391
594.121 .0347493
594.899 .0346660
595.678 .0345885
596.455 .0345160
597.233 .0344479
598.009 .0343834
598.786 .0343222
599.562 .0342637
600.338 .0342077
601.113 .0341539
601.888 .0340804
602.663 .0340315
603.437 .0339846
604.211 .0339395
604.984 .0338960
605.757 .0338538
606.530 .0338126
607.302 .0337721
608.074 .0337323
608.845 .0336929
609.616 .0336540
610.387 .0336359
611.158 .0335982
611.928 .0335612
612.697 .0335251
613.467 .0334899
614.236 .0334558
615.004 .0334227
615.773 .0333904
616.541 .0333588
617.308 .0333279
618.076 .0332975
618.843 .0332675
619.609 .0332378
620.375 .0332084
621.141 .0331792
621.907 .0331502
622.672 .0331215
623.437 .0330931
624.202 .0330648
624.966 .0330367
625.730 .0330087
626.493 .0329807
627.257 .0329525
628.020 .0329240
628.782 .0328951
629.545 .0328658
630.307 .0328360
631.068 .0328057
631.830 .0327752
632.591 .0327445
633.352 .0327137
634.112 .0326832
634.872 .0326528
635.632 .0326227
636.392 .0325929
637.151 .0325633
637.910 .0325339
638.668 .0325048
639.427 .0324759
640.185 .0324473
640.943 .0324190
641.700 .0323911
642.457 .0323636
643.214 .0323366
643.971 .0323101
644.727 .0322842
645.483 .0322589
646.239 .0322340
646.994 .0322097
647.750 .0321857
648.505 .0321620
649.259 .0321384
650.014 .0321148
650.768 .0320911
651.521 .0320672
652.275 .0320430
653.028 .0320186
653.781 .0319940
654.534 .0319692
655.286 .0319442
656.039 .0319191
656.791 .0318938
657.542 .0318683
658.294 .0318424
659.045 .0318162
659.796 .0317896
660.546 .0317627
661.297 .0317354
662.047 .0317079
662.796 .0316802
663.546 .0316525
664.295 .0316248
665.044 .0315972
665.793 .0315698
666.542 .0315426
667.290 .0315155
668.038 .0314886
668.786 .0314619
669.533 .0314354
670.281 .0314091
671.028 .0313832
671.774 .0313576
672.521 .0313324
673.267 .0313078
674.013 .0312837
674.759 .0312602
675.505 .0312372
676.250 .0312149
676.995 .0311932
677.740 .0311719
678.484 .0311510
679.229 .0311306
679.973 .0311105
680.717 .0310907
681.460 .0310712
682.204 .0310520
682.947 .0310330
683.690 .0310143
684.433 .0309958
685.175 .0309776
685.917 .0309595
686.659 .0309416
687.401 .0309238
688.142 .0309061
688.884 .0308884
689.625 .0308707
690.365 .0308528
691.106 .0308348
691.846 .0308166
692.586 .0307983
693.326 .0307798
694.066 .0307612
694.805 .0307426
695.545 .0307239
696.284 .0307051
697.022 .0306862
697.761 .0306672
698.499 .0306480
699.237 .0306285
699.975 .0306088
700.713 .0305890
701.450 .0305690
702.187 .0305491
702.924 .0305292
703.661 .0305093
704.397 .0304896
705.133 .0304699
705.869 .0304504
706.605 .0304310
707.341 .0304116
708.076 .0303923
708.811 .0303731
709.546 .0303541
710.281 .0303352
711.015 .0303163
711.749 .0302977
712.483 .0302791
713.217 .0302606
713.950 .0302420
714.684 .0302236
715.417 .0302051
716.150 .0301866
716.882 .0301680
717.615 .0301493
718.347 .0301306
719.079 .0301116
719.811 .0300923
720.542 .0300728
721.273 .0300530
722.005 .0300328
722.735 .0300125
723.466 .0299919
724.196 .0299713
724.927 .0299507
725.656 .0299302
726.386 .0299099
727.116 .0298898
727.845 .0298699
728.574 .0298504
729.303 .0298311
730.031 .0298123
730.760 .0297939
731.488 .0297758
732.216 .0297583
732.944 .0297411
733.671 .0297245
734.398 .0297083
735.125 .0296926
735.852 .0296773
736.579 .0296625
737.305 .0296482
738.031 .0296342
738.757 .0296205
739.483 .0296072
740.208 .0295941
740.933 .0295811
741.658 .0295682
742.383 .0295554
743.108 .0295426
743.832 .0295299
744.556 .0295172
745.280 .0295046
746.004 .0294920
746.727 .0294795
747.450 .0294671
748.173 .0294546
748.896 .0294423
749.618 .0294299
750.340 .0294176
751.062 .0294053
751.784 .0293930
752.506 .0293808
753.227 .0293686
753.948 .0293564
754.669 .0293444
755.389 .0293323
756.110 .0293203
756.830 .0293084
757.550 .0292967
758.269 .0292850
758.989 .0292735
759.708 .0292621
760.427 .0292507
761.146 .0292393
761.864 .0292279
762.582 .0292164
763.300 .0292048
764.018 .0291930
764.736 .0291811
765.453 .0291691
766.170 .0291571
766.887 .0291451
767.603 .0291331
768.320 .0291211
769.036 .0291093
769.751 .0290976
770.467 .0290860
771.182 .0290745
771.897 .0290631
772.612 .0290519
773.327 .0290407
774.041 .0290297
774.755 .0290187
775.469 .0290079
776.183 .0289972
776.896 .0289867
777.609 .0289764
778.322 .0289663
779.035 .0289564
779.747 .0289468
780.459 .0289374
781.171 .0289283
781.882 .0289194
782.594 .0289107
783.305 .0289023
784.016 .0288941
784.726 .0288861
785.436 .0288784
786.147 .0288683
786.856 .0288612
787.566 .0288543
788.275 .0288476
788.984 .0288411
789.693 .0288347
790.401 .0288285
791.110 .0288223
791.818 .0288161
792.525 .0288097
793.233 .0288032
793.940 .0287965
794.647 .0287922
795.353 .0287849
796.060 .0287772
796.766 .0287692
797.472 .0287608
798.177 .0287520
798.883 .0287428
799.588 .0287331
800.292 .0287229
800.997 .0287121
801.701 .0287006
802.405 .0286885
803.109 .0286757
803.812 .0286622
804.515 .0286482
805.218 .0286336
805.921 .0286184
806.623 .0286026
807.325 .0285864
808.027 .0285697
808.728 .0285526
809.429 .0285350
810.130 .0285171
810.831 .0284990
811.531 .0284808
812.231 .0284625
812.931 .0284443
813.630 .0284262
814.330 .0284083
815.029 .0283907
815.727 .0283734
816.426 .0283565
817.124 .0283400
817.821 .0283239
818.519 .0283083
819.216 .0282933
819.913 .0282787
820.609 .0282646
821.306 .0282511
822.002 .0282380
822.697 .0282253
823.393 .0282130
824.088 .0282011
824.783 .0281896
825.477 .0281784
826.171 .0281673
826.865 .0281566
827.559 .0281460
828.252 .0281355
828.945 .0281252
829.638 .0281149
830.330 .0281046
831.023 .0280944
831.714 .0280841
832.406 .0280737
833.097 .0280632
833.788 .0280527
834.479 .0280420
835.169 .0280314
835.859 .0280207
836.548 .0280101
837.238 .0279995
837.927 .0279890
838.615 .0279785
839.304 .0279680
839.992 .0279576
840.680 .0279473
841.367 .0279369
842.054 .0279266
842.741 .0279163
843.428 .0279062
844.114 .0278960
844.800 .0278859
845.485 .0278758
846.170 .0278656
846.855 .0278552
847.540 .0278448
848.224 .0278341
848.908 .0278232
849.592 .0278122
850.275 .0278009
850.958 .0277895
851.641 .0277778
852.323 .0277659
853.005 .0277538
853.687 .0277416
854.368 .0277293
855.049 .0277169
855.730 .0277045
856.410 .0276921
857.090 .0276798
857.769 .0276677
858.449 .0276556
859.128 .0276437
859.806 .0276320
860.485 .0276205
861.163 .0276092
861.840 .0275982
862.518 .0275875
863.195 .0275773
863.871 .0275674
864.548 .0275579
865.224 .0275487
865.899 .0275398
866.574 .0275311
867.249 .0275228
867.924 .0275147
868.598 .0275070
869.272 .0274996
869.946 .0274925
870.619 .0274857
871.292 .0274793
871.964 .0274732
872.636 .0274673
873.308 .0274616
873.979 .0274562
874.651 .0274510
875.321 .0274461
875.992 .0274415
876.662 .0274371
877.331 .0274329
878.001 .0274289
878.670 .0274251
879.338 .0274213
880.007 .0274176
880.675 .0274139
881.342 .0274103
882.009 .0274068
882.676 .0274034
883.343 .0274002
884.009 .0273971
884.675 .0273943
885.340 .0273915
886.005 .0273889
886.670 .0273865
887.334 .0273842
887.998 .0273822
888.662 .0273803
889.325 .0273787
889.988 .0273773
890.650 .0273762
891.312 .0273752
891.974 .0273745
892.636 .0273739
893.297 .0273733
893.957 .0273728
894.618 .0273723
895.278 .0273718
895.937 .0273712
896.596 .0273705
897.255 .0273695
897.914 .0273682
898.572 .0273665
899.230 .0273643
899.887 .0273615
900.544 .0273581
901.201 .0273539
901.857 .0273439
902.513 .0273377
903.168 .0273308
903.823 .0273231
904.478 .0273146
905.132 .0273053
905.786 .0272950
906.440 .0272839
907.093 .0272720
907.746 .0272593
908.399 .0272458
909.051 .0272317
909.703 .0272170
910.354 .0272085
911.005 .0271933
911.656 .0271776
912.306 .0271616
912.956 .0271453
913.605 .0271288
914.254 .0271120
914.903 .0270952
915.551 .0270783
916.199 .0270613
916.847 .0270443
917.494 .0270271
918.141 .0270098
918.788 .0269924
919.434 .0269747
920.079 .0269568
920.725 .0269385
921.370 .0269199
922.014 .0269010
922.658 .0268818
923.302 .0268621
923.946 .0268421
924.589 .0268216
925.231 .0268008
925.873 .0267795
926.515 .0267578
927.157 .0267358
927.798 .0267135
928.439 .0266909
929.079 .0266683
929.719 .0266455
930.359 .0266227
930.998 .0265998
931.637 .0265770
932.275 .0265542
932.913 .0265314
933.551 .0265088
934.188 .0264864
934.825 .0264644
935.462 .0264428
936.098 .0264217
936.733 .0264011
937.369 .0263810
938.004 .0263615
938.638 .0263425
939.273 .0263240
939.907 .0263060
940.540 .0262886
941.173 .0262717
941.806 .0262555
942.438 .0262399
943.070 .0262248
943.702 .0262103
944.333 .0261962
944.964 .0261824
945.594 .0261688
946.224 .0261553
946.854 .0261417
947.483 .0261280
948.112 .0261142
948.741 .0261003
949.369 .0260861
949.996 .0260718
950.624 .0260574
951.251 .0260427
951.878 .0260277
952.504 .0260126
953.130 .0259971
953.755 .0259814
954.380 .0259655
955.005 .0259494
955.629 .0259332
956.253 .0259168
956.877 .0259003
957.500 .0258838
958.123 .0258673
958.746 .0258507
959.368 .0258342
959.990 .0258179
960.611 .0258017
961.232 .0257858
961.853 .0257702
962.473 .0257549
963.093 .0257399
963.712 .0257254
964.331 .0257114
964.950 .0256978
965.569 .0256847
966.187 .0256721
966.804 .0256600
967.422 .0256485
968.039 .0256374
968.655 .0256267
969.272 .0256164
969.887 .0256064
970.503 .0255967
971.118 .0255872
971.733 .0255780
972.347 .0255690
972.961 .0255603
973.575 .0255517
974.188 .0255433
974.801 .0255349
975.414 .0255266
976.026 .0255183
976.638 .0255099
977.250 .0255013
977.861 .0254926
978.472 .0254836
979.083 .0254745
979.693 .0254652
980.303 .0254559
980.912 .0254411
981.521 .0254315
982.130 .0254218
982.738 .0254119
983.346 .0254020
983.954 .0253920
984.562 .0253820
985.169 .0253722
985.775 .0253627
986.382 .0253535
986.988 .0253448
987.594 .0253365
988.199 .0253289
988.804 .0253217
989.409 .0253198
990.013 .0253136
990.617 .0253081
991.221 .0253031
991.824 .0252988
992.427 .0252951
993.030 .0252922
993.632 .0252901
994.234 .0252886
994.836 .0252879
995.438 .0252878
996.039 .0252884
996.640 .0252896
997.240 .0252914
997.840 .0252938
998.440 .0252968
999.040 .0253005
999.639 .0253049
1000.238 .0253099
1000.836 .0253157
1001.435 .0253220
1002.033 .0253289
1002.630 .0253361
1003.228 .0253435
1003.825 .0253511
1004.422 .0253587
1005.018 .0253663
1005.614 .0253739
1006.210 .0253816
1006.806 .0253892
1007.401 .0253968
1007.996 .0254045
1008.591 .0254121
1009.186 .0254198
1009.780 .0254273
1010.374 .0254347
1010.967 .0254419
1011.561 .0254490
1012.154 .0254561
1012.746 .0254632
1013.339 .0254705
1013.931 .0254781
1014.523 .0254859
1015.115 .0254942
1015.706 .0255028
1016.298 .0255117
1016.888 .0255210
1017.479 .0255305
1018.069 .0255404
1018.660 .0255505
1019.250 .0255610
1019.839 .0255719
1020.429 .0255832
1021.018 .0255950
1021.607 .0256072
1022.195 .0256199
1022.784 .0256330
1023.372 .0256465
1023.960 .0256603
1024.547 .0256744
1025.135 .0256886
1025.722 .0257030
1026.309 .0257175
1026.896 .0257319
1027.483 .0257464
1028.069 .0257609
1028.655 .0257753
1029.241 .0257896
1029.827 .0258038
1030.412 .0258178
1030.997 .0258315
1031.582 .0258450
1032.167 .0258582
1032.752 .0258709
1033.336 .0258831
1033.921 .0258948
1034.505 .0259059
1035.089 .0259165
1035.672 .0259265
1036.256 .0259359
1036.839 .0259448
1037.422 .0259531
1038.005 .0259609
1038.588 .0259682
1039.171 .0259749
1039.753 .0259810
1040.335 .0259865
1040.918 .0259915
1041.500 .0259960
1042.081 .0260000
1042.663 .0260037
1043.244 .0260071
1043.826 .0260103
1044.407 .0260136
1044.988 .0260170
1045.569 .0260206
1046.150 .0260244
1046.730 .0260284
1047.311 .0260326
1047.891 .0260368
1048.471 .0260411
1049.052 .0260455
1049.632 .0260499
1050.211 .0260545
1050.791 .0260592
1051.371 .0260641
1051.950 .0260691
1052.530 .0260744
1053.109 .0260797
1053.688 .0260851
1054.268 .0260904
1054.847 .0260956
1055.426 .0261007
1056.005 .0261055
1056.583 .0261103
1057.162 .0261149
1057.741 .0261195
1058.319 .0261240
1058.898 .0261284
1059.476 .0261326
1060.055 .0261366
1060.633 .0261403
1061.211 .0261436
1061.790 .0261464
1062.368 .0261487
1062.946 .0261505
1063.524 .0261518
1064.102 .0261527
1064.680 .0261531
1065.258 .0261530
1065.836 .0261524
1066.414 .0261514
1066.992 .0261500
1067.570 .0261481
1068.148 .0261459
1068.726 .0261434
1069.304 .0261406
1069.882 .0261376
1070.460 .0261345
1071.038 .0261312
1071.616 .0261278
1072.194 .0261242
1072.772 .0261206
1073.350 .0261169
1073.928 .0261131
1074.506 .0261092
1075.084 .0261055
1075.662 .0261019
1076.240 .0260986
1076.819 .0260955
1077.397 .0260928
1077.976 .0260904
1078.554 .0260883
1079.133 .0260864
1079.711 .0260847
1080.290 .0260832
1080.869 .0260819
1081.448 .0260810
1082.027 .0260804
1082.606 .0260803
1083.185 .0260805
1083.764 .0260810
1084.343 .0260817
1084.923 .0260824
1085.502 .0260829
1086.082 .0260833
1086.662 .0260834
1087.242 .0260834
1087.822 .0260832
1088.402 .0260831
1088.983 .0260831
1089.563 .0260835
1090.144 .0260843
1090.725 .0260855
1091.306 .0260872
1091.887 .0260894
1092.469 .0260920
1093.050 .0260952
1093.632 .0260989
1094.214 .0261032
1094.796 .0261080
1095.379 .0261134
1095.961 .0261193
1096.544 .0261256
1097.127 .0261322
1097.710 .0261392
1098.294 .0261465
1098.877 .0261541
1099.461 .0261619
1100.046 .0261700
1100.630 .0261782
1101.215 .0261866
1101.800 .0261952
1102.385 .0262039
1102.970 .0262127
1103.556 .0262217
1104.142 .0262309
1104.728 .0262404
1105.315 .0262506
1105.902 .0262614
1106.489 .0262731
1107.077 .0262858
1107.664 .0262994
1108.253 .0263140
1108.841 .0263294
1109.430 .0263455
1110.019 .0263623
1110.609 .0263797
1111.198 .0263977
1111.789 .0264162
1112.379 .0264355
1112.970 .0264555
1113.561 .0264762
1114.153 .0264975
1114.745 .0265197
1115.338 .0265425
1115.931 .0265659
1116.524 .0265899
1117.117 .0266145
1117.712 .0266400
1118.306 .0266665
1118.901 .0266939
1119.496 .0267227
1120.092 .0267529
1120.689 .0267848
1121.285 .0268185
1121.882 .0268540
1122.480 .0268912
1123.078 .0269299
1123.677 .0269700
1124.276 .0270114
1124.875 .0270538
1125.476 .0270973
1126.076 .0271419
1126.677 .0271877
1127.279 .0272348
1127.881 .0272835
1128.484 .0273343
1129.087 .0273553
1129.691 .0274089
1130.295 .0274650
1130.900 .0275240
1131.505 .0275862
1132.111 .0276516
1132.718 .0277207
1133.325 .0277948
1133.933 .0278747
1134.541 .0279545
1135.150 .0280408
1135.760 .0281353
1136.370 .0282573
1136.981 .0281803
1137.592 .0282834
1138.204 .0283911
1138.817 .0285080
1139.431 .0286308
1140.045 .0287598
1140.660 .0288984
1141.275 .0290674
1141.891 .0292658
1142.508 .0292960
1143.126 .0295121
1143.744 .0297767
1144.363 .0305798
1144.983 .0309195
