Measurement Sequence started on: 15-12-46-377
Integration time: 28
Scans to Average: 2 
>>>>>Begin Spectral Data<<<<<
432.689 .0000100
433.621 .0000100
434.552 .0000100
435.482 .0000100
436.410 .0000100
437.337 .0000100
438.262 .0281706
439.187 .0596667
440.110 .0987509
441.031 .1427926
441.952 .1136470
442.871 .1186065
443.789 .1232220
444.705 .1275656
445.621 .1316842
446.535 .1356140
447.447 .1378993
448.359 .1383855
449.269 .1366934
450.178 .1325777
451.086 .1261247
451.993 .1178326
452.898 .1085171
453.803 .0991015
454.706 .0903692
455.608 .0828017
456.508 .0765565
457.408 .0723508
458.306 .0691313
459.204 .0665159
460.100 .0643151
460.995 .0624238
461.888 .0607728
462.781 .0593177
463.673 .0580242
464.563 .0568673
465.452 .0558281
466.340 .0548879
467.228 .0540325
468.114 .0532498
468.999 .0525300
469.882 .0518661
470.765 .0512526
471.647 .0506858
472.528 .0501637
473.407 .0496847
474.286 .0492476
475.163 .0488507
476.040 .0484929
476.915 .0481722
477.790 .0478866
478.663 .0476339
479.535 .0474122
480.407 .0472192
481.277 .0470533
482.147 .0469128
483.015 .0467964
483.883 .0467027
484.749 .0466313
485.615 .0465816
486.479 .0465531
487.343 .0465449
488.206 .0465563
489.067 .0465853
489.928 .0466304
490.788 .0466892
491.647 .0467595
492.505 .0468404
493.362 .0469313
494.218 .0470330
495.073 .0471472
495.928 .0473740
496.781 .0475345
497.634 .0477167
498.486 .0479219
499.337 .0481515
500.187 .0484069
501.036 .0486886
501.884 .0489980
502.731 .0493373
503.578 .0497099
504.424 .0499767
505.268 .0504165
506.113 .0509050
506.956 .0514495
507.798 .0520579
508.640 .0527403
509.480 .0535056
510.320 .0543646
511.160 .0553269
511.998 .0564044
512.836 .0576109
513.672 .0589615
514.508 .0604765
515.344 .0621778
516.178 .0640895
517.012 .0662404
517.845 .0686577
518.677 .0713675
519.508 .0743905
520.339 .0777378
521.169 .0814118
521.998 .0853905
522.826 .0896379
523.654 .0940999
524.481 .0987076
525.307 .1033856
526.133 .1080440
526.958 .1125870
527.782 .1169229
528.605 .1209660
529.428 .1246398
530.250 .1278742
531.072 .1306195
531.892 .1328332
532.712 .1344849
533.532 .1355579
534.350 .1360378
535.168 .1359224
535.986 .1352129
536.802 .1339107
537.618 .1320245
538.434 .1295698
539.249 .1265842
540.063 .1231180
540.876 .1192358
541.689 .1150150
542.501 .1105362
543.313 .1058914
544.124 .1011768
544.934 .0964831
545.744 .0918920
546.553 .0874736
547.361 .0832880
548.169 .0793742
548.976 .0757579
549.783 .0724508
550.589 .0694486
551.395 .0667389
552.200 .0642976
553.004 .0620971
553.808 .0601137
554.611 .0583255
555.414 .0567109
556.216 .0552502
557.018 .0539241
557.819 .0527162
558.619 .0516109
559.419 .0505963
560.218 .0496617
561.017 .0487969
561.815 .0479916
562.613 .0472388
563.410 .0465313
564.207 .0458632
565.003 .0452283
565.799 .0446219
566.594 .0440390
567.388 .0434764
568.182 .0429311
568.976 .0424020
569.769 .0418879
570.562 .0413889
571.354 .0409046
572.145 .0404358
572.936 .0399819
573.727 .0395428
574.517 .0391187
575.307 .0387099
576.096 .0383155
576.885 .0379356
577.673 .0375706
578.461 .0372208
579.248 .0368867
580.035 .0365688
580.821 .0362672
581.607 .0359825
582.392 .0357144
583.177 .0354626
583.962 .0352266
584.746 .0350059
585.529 .0348000
586.313 .0346079
587.095 .0344293
587.878 .0342633
588.660 .0341094
589.441 .0339670
590.222 .0338355
591.003 .0337141
591.783 .0336024
592.563 .0334996
593.342 .0334050
594.121 .0333179
594.899 .0332376
595.678 .0331629
596.455 .0330932
597.233 .0330275
598.009 .0329650
598.786 .0329052
599.562 .0328476
600.338 .0327920
601.113 .0327381
601.888 .0326623
602.663 .0326122
603.437 .0325637
604.211 .0325165
604.984 .0324706
605.757 .0324258
606.530 .0323821
607.302 .0323394
608.074 .0322977
608.845 .0322572
609.616 .0322180
610.387 .0322021
611.158 .0321651
611.928 .0321296
612.697 .0320956
613.467 .0320631
614.236 .0320322
615.004 .0320029
615.773 .0319749
616.541 .0319483
617.308 .0319228
618.076 .0318983
618.843 .0318748
619.609 .0318521
620.375 .0318301
621.141 .0318087
621.907 .0317879
622.672 .0317675
623.437 .0317474
624.202 .0317274
624.966 .0317073
625.730 .0316868
626.493 .0316660
627.257 .0316446
628.020 .0316227
628.782 .0316002
629.545 .0315771
630.307 .0315534
631.068 .0315292
631.830 .0315043
632.591 .0314788
633.352 .0314526
634.112 .0314258
634.872 .0313983
635.632 .0313703
636.392 .0313418
637.151 .0313129
637.910 .0312838
638.668 .0312543
639.427 .0312246
640.185 .0311948
640.943 .0311649
641.700 .0311350
642.457 .0311051
643.214 .0310754
643.971 .0310459
644.727 .0310165
645.483 .0309875
646.239 .0309586
646.994 .0309301
647.750 .0309017
648.505 .0308736
649.259 .0308458
650.014 .0308182
650.768 .0307908
651.521 .0307636
652.275 .0307367
653.028 .0307100
653.781 .0306835
654.534 .0306571
655.286 .0306310
656.039 .0306050
656.791 .0305794
657.542 .0305540
658.294 .0305289
659.045 .0305041
659.796 .0304796
660.546 .0304553
661.297 .0304312
662.047 .0304072
662.796 .0303835
663.546 .0303599
664.295 .0303365
665.044 .0303133
665.793 .0302904
666.542 .0302679
667.290 .0302456
668.038 .0302237
668.786 .0302020
669.533 .0301806
670.281 .0301596
671.028 .0301388
671.774 .0301182
672.521 .0300979
673.267 .0300777
674.013 .0300576
674.759 .0300377
675.505 .0300179
676.250 .0299981
676.995 .0299784
677.740 .0299589
678.484 .0299394
679.229 .0299201
679.973 .0299008
680.717 .0298817
681.460 .0298625
682.204 .0298434
682.947 .0298243
683.690 .0298052
684.433 .0297860
685.175 .0297668
685.917 .0297476
686.659 .0297284
687.401 .0297091
688.142 .0296899
688.884 .0296706
689.625 .0296513
690.365 .0296320
691.106 .0296127
691.846 .0295933
692.586 .0295741
693.326 .0295549
694.066 .0295357
694.805 .0295167
695.545 .0294979
696.284 .0294791
697.022 .0294606
697.761 .0294422
698.499 .0294240
699.237 .0294061
699.975 .0293885
700.713 .0293712
701.450 .0293543
702.187 .0293378
702.924 .0293217
703.661 .0293058
704.397 .0292901
705.133 .0292747
705.869 .0292593
706.605 .0292440
707.341 .0292288
708.076 .0292136
708.811 .0291984
709.546 .0291834
710.281 .0291683
711.015 .0291534
711.749 .0291384
712.483 .0291234
713.217 .0291083
713.950 .0290932
714.684 .0290779
715.417 .0290626
716.150 .0290473
716.882 .0290319
717.615 .0290166
718.347 .0290014
719.079 .0289861
719.811 .0289710
720.542 .0289558
721.273 .0289407
722.005 .0289257
722.735 .0289109
723.466 .0288962
724.196 .0288819
724.927 .0288679
725.656 .0288543
726.386 .0288409
727.116 .0288279
727.845 .0288150
728.574 .0288024
729.303 .0287899
730.031 .0287776
730.760 .0287654
731.488 .0287533
732.216 .0287413
732.944 .0287295
733.671 .0287177
734.398 .0287059
735.125 .0286941
735.852 .0286823
736.579 .0286704
737.305 .0286585
738.031 .0286466
738.757 .0286348
739.483 .0286230
740.208 .0286113
740.933 .0285997
741.658 .0285881
742.383 .0285766
743.108 .0285651
743.832 .0285537
744.556 .0285423
745.280 .0285311
746.004 .0285199
746.727 .0285088
747.450 .0284977
748.173 .0284867
748.896 .0284757
749.618 .0284647
750.340 .0284536
751.062 .0284425
751.784 .0284313
752.506 .0284201
753.227 .0284087
753.948 .0283972
754.669 .0283855
755.389 .0283735
756.110 .0283611
756.830 .0283483
757.550 .0283350
758.269 .0283212
758.989 .0283068
759.708 .0282920
760.427 .0282768
761.146 .0282611
761.864 .0282449
762.582 .0282284
763.300 .0282114
764.018 .0281940
764.736 .0281762
765.453 .0281580
766.170 .0281393
766.887 .0281203
767.603 .0281010
768.320 .0280814
769.036 .0280616
769.751 .0280418
770.467 .0280220
771.182 .0280024
771.897 .0279829
772.612 .0279637
773.327 .0279447
774.041 .0279261
774.755 .0279078
775.469 .0278898
776.183 .0278721
776.896 .0278548
777.609 .0278379
778.322 .0278215
779.035 .0278056
779.747 .0277902
780.459 .0277754
781.171 .0277612
781.882 .0277476
782.594 .0277346
783.305 .0277220
784.016 .0277099
784.726 .0276981
785.436 .0276867
786.147 .0276705
786.856 .0276593
787.566 .0276483
788.275 .0276373
788.984 .0276264
789.693 .0276156
790.401 .0276049
791.110 .0275943
791.818 .0275837
792.525 .0275732
793.233 .0275627
793.940 .0275521
794.647 .0275462
795.353 .0275353
796.060 .0275241
796.766 .0275127
797.472 .0275009
798.177 .0274889
798.883 .0274765
799.588 .0274639
800.292 .0274510
800.997 .0274378
801.701 .0274244
802.405 .0274108
803.109 .0273971
803.812 .0273831
804.515 .0273691
805.218 .0273550
805.921 .0273409
806.623 .0273267
807.325 .0273125
808.027 .0272983
808.728 .0272843
809.429 .0272703
810.130 .0272565
810.831 .0272429
811.531 .0272295
812.231 .0272165
812.931 .0272038
813.630 .0271915
814.330 .0271797
815.029 .0271683
815.727 .0271574
816.426 .0271470
817.124 .0271372
817.821 .0271280
818.519 .0271194
819.216 .0271114
819.913 .0271040
820.609 .0270973
821.306 .0270913
822.002 .0270859
822.697 .0270812
823.393 .0270770
824.088 .0270734
824.783 .0270704
825.477 .0270677
826.171 .0270654
826.865 .0270634
827.559 .0270616
828.252 .0270599
828.945 .0270584
829.638 .0270571
830.330 .0270559
831.023 .0270548
831.714 .0270539
832.406 .0270531
833.097 .0270523
833.788 .0270517
834.479 .0270511
835.169 .0270505
835.859 .0270500
836.548 .0270496
837.238 .0270492
837.927 .0270489
838.615 .0270485
839.304 .0270481
839.992 .0270475
840.680 .0270468
841.367 .0270458
842.054 .0270446
842.741 .0270431
843.428 .0270413
844.114 .0270393
844.800 .0270368
845.485 .0270340
846.170 .0270307
846.855 .0270269
847.540 .0270225
848.224 .0270173
848.908 .0270115
849.592 .0270050
850.275 .0269977
850.958 .0269898
851.641 .0269812
852.323 .0269720
853.005 .0269621
853.687 .0269515
854.368 .0269403
855.049 .0269286
855.730 .0269163
856.410 .0269036
857.090 .0268906
857.769 .0268774
858.449 .0268640
859.128 .0268507
859.806 .0268373
860.485 .0268241
861.163 .0268109
861.840 .0267980
862.518 .0267852
863.195 .0267727
863.871 .0267605
864.548 .0267487
865.224 .0267374
865.899 .0267264
866.574 .0267159
867.249 .0267058
867.924 .0266961
868.598 .0266866
869.272 .0266774
869.946 .0266683
870.619 .0266594
871.292 .0266506
871.964 .0266419
872.636 .0266333
873.308 .0266249
873.979 .0266165
874.651 .0266082
875.321 .0266000
875.992 .0265918
876.662 .0265836
877.331 .0265754
878.001 .0265671
878.670 .0265589
879.338 .0265508
880.007 .0265427
880.675 .0265348
881.342 .0265272
882.009 .0265198
882.676 .0265127
883.343 .0265060
884.009 .0264995
884.675 .0264934
885.340 .0264877
886.005 .0264823
886.670 .0264771
887.334 .0264724
887.998 .0264680
888.662 .0264639
889.325 .0264602
889.988 .0264567
890.650 .0264534
891.312 .0264502
891.974 .0264470
892.636 .0264438
893.297 .0264403
893.957 .0264367
894.618 .0264327
895.278 .0264283
895.937 .0264234
896.596 .0264180
897.255 .0264118
897.914 .0264050
898.572 .0263973
899.230 .0263886
899.887 .0263789
900.544 .0263682
901.201 .0263565
901.857 .0263342
902.513 .0263198
903.168 .0263045
903.823 .0262883
904.478 .0262712
905.132 .0262533
905.786 .0262346
906.440 .0262151
907.093 .0261949
907.746 .0261741
908.399 .0261528
909.051 .0261311
909.703 .0261090
910.354 .0260979
911.005 .0260757
911.656 .0260534
912.306 .0260310
912.956 .0260086
913.605 .0259862
914.254 .0259638
914.903 .0259415
915.551 .0259193
916.199 .0258972
916.847 .0258753
917.494 .0258535
918.141 .0258318
918.788 .0258103
919.434 .0257890
920.079 .0257677
920.725 .0257464
921.370 .0257252
922.014 .0257038
922.658 .0256823
923.302 .0256606
923.946 .0256387
924.589 .0256166
925.231 .0255941
925.873 .0255714
926.515 .0255486
927.157 .0255255
927.798 .0255023
928.439 .0254790
929.079 .0254556
929.719 .0254321
930.359 .0254088
930.998 .0253854
931.637 .0253623
932.275 .0253393
932.913 .0253167
933.551 .0252944
934.188 .0252726
934.825 .0252513
935.462 .0252307
936.098 .0252106
936.733 .0251912
937.369 .0251724
938.004 .0251542
938.638 .0251367
939.273 .0251198
939.907 .0251037
940.540 .0250882
941.173 .0250735
941.806 .0250595
942.438 .0250463
943.070 .0250338
943.702 .0250219
944.333 .0250107
944.964 .0249999
945.594 .0249897
946.224 .0249799
946.854 .0249704
947.483 .0249613
948.112 .0249524
948.741 .0249437
949.369 .0249351
949.996 .0249267
950.624 .0249183
951.251 .0249098
951.878 .0249013
952.504 .0248926
953.130 .0248837
953.755 .0248747
954.380 .0248656
955.005 .0248564
955.629 .0248470
956.253 .0248376
956.877 .0248281
957.500 .0248186
958.123 .0248090
958.746 .0247994
959.368 .0247898
959.990 .0247802
960.611 .0247707
961.232 .0247612
961.853 .0247520
962.473 .0247430
963.093 .0247343
963.712 .0247259
964.331 .0247177
964.950 .0247099
965.569 .0247024
966.187 .0246951
966.804 .0246880
967.422 .0246812
968.039 .0246745
968.655 .0246681
969.272 .0246618
969.887 .0246557
970.503 .0246498
971.118 .0246440
971.733 .0246383
972.347 .0246326
972.961 .0246268
973.575 .0246209
974.188 .0246149
974.801 .0246087
975.414 .0246023
976.026 .0245958
976.638 .0245891
977.250 .0245822
977.861 .0245752
978.472 .0245680
979.083 .0245606
979.693 .0245530
980.303 .0245452
980.912 .0245329
981.521 .0245252
982.130 .0245176
982.738 .0245102
983.346 .0245031
983.954 .0244964
984.562 .0244901
985.169 .0244842
985.775 .0244789
986.382 .0244742
986.988 .0244701
987.594 .0244667
988.199 .0244641
988.804 .0244622
989.409 .0244642
990.013 .0244635
990.617 .0244636
991.221 .0244645
991.824 .0244659
992.427 .0244680
993.030 .0244705
993.632 .0244736
994.234 .0244770
994.836 .0244808
995.438 .0244851
996.039 .0244898
996.640 .0244949
997.240 .0245005
997.840 .0245066
998.440 .0245131
999.040 .0245200
999.639 .0245271
1000.238 .0245344
1000.836 .0245419
1001.435 .0245494
1002.033 .0245570
1002.630 .0245646
1003.228 .0245723
1003.825 .0245800
1004.422 .0245877
1005.018 .0245954
1005.614 .0246031
1006.210 .0246106
1006.806 .0246180
1007.401 .0246252
1007.996 .0246323
1008.591 .0246392
1009.186 .0246461
1009.780 .0246531
1010.374 .0246601
1010.967 .0246672
1011.561 .0246744
1012.154 .0246819
1012.746 .0246894
1013.339 .0246971
1013.931 .0247048
1014.523 .0247127
1015.115 .0247205
1015.706 .0247283
1016.298 .0247362
1016.888 .0247442
1017.479 .0247523
1018.069 .0247606
1018.660 .0247691
1019.250 .0247779
1019.839 .0247870
1020.429 .0247965
1021.018 .0248063
1021.607 .0248166
1022.195 .0248272
1022.784 .0248384
1023.372 .0248501
1023.960 .0248622
1024.547 .0248750
1025.135 .0248883
1025.722 .0249022
1026.309 .0249166
1026.896 .0249314
1027.483 .0249465
1028.069 .0249617
1028.655 .0249771
1029.241 .0249924
1029.827 .0250077
1030.412 .0250229
1030.997 .0250381
1031.582 .0250531
1032.167 .0250680
1032.752 .0250828
1033.336 .0250975
1033.921 .0251120
1034.505 .0251263
1035.089 .0251402
1035.672 .0251537
1036.256 .0251666
1036.839 .0251790
1037.422 .0251908
1038.005 .0252020
1038.588 .0252126
1039.171 .0252225
1039.753 .0252317
1040.335 .0252401
1040.918 .0252479
1041.500 .0252550
1042.081 .0252613
1042.663 .0252670
1043.244 .0252722
1043.826 .0252769
1044.407 .0252813
1044.988 .0252856
1045.569 .0252899
1046.150 .0252942
1046.730 .0252985
1047.311 .0253029
1047.891 .0253073
1048.471 .0253117
1049.052 .0253162
1049.632 .0253207
1050.211 .0253252
1050.791 .0253297
1051.371 .0253342
1051.950 .0253385
1052.530 .0253426
1053.109 .0253465
1053.688 .0253498
1054.268 .0253527
1054.847 .0253550
1055.426 .0253568
1056.005 .0253582
1056.583 .0253594
1057.162 .0253602
1057.741 .0253610
1058.319 .0253616
1058.898 .0253622
1059.476 .0253627
1060.055 .0253631
1060.633 .0253632
1061.211 .0253632
1061.790 .0253628
1062.368 .0253622
1062.946 .0253614
1063.524 .0253606
1064.102 .0253597
1064.680 .0253588
1065.258 .0253579
1065.836 .0253568
1066.414 .0253558
1066.992 .0253546
1067.570 .0253535
1068.148 .0253525
1068.726 .0253517
1069.304 .0253513
1069.882 .0253517
1070.460 .0253528
1071.038 .0253550
1071.616 .0253582
1072.194 .0253623
1072.772 .0253672
1073.350 .0253728
1073.928 .0253788
1074.506 .0253852
1075.084 .0253919
1075.662 .0253987
1076.240 .0254056
1076.819 .0254126
1077.397 .0254197
1077.976 .0254268
1078.554 .0254340
1079.133 .0254411
1079.711 .0254480
1080.290 .0254545
1080.869 .0254608
1081.448 .0254666
1082.027 .0254723
1082.606 .0254777
1083.185 .0254828
1083.764 .0254877
1084.343 .0254925
1084.923 .0254970
1085.502 .0255014
1086.082 .0255057
1086.662 .0255099
1087.242 .0255141
1087.822 .0255182
1088.402 .0255224
1088.983 .0255267
1089.563 .0255310
1090.144 .0255356
1090.725 .0255403
1091.306 .0255453
1091.887 .0255506
1092.469 .0255563
1093.050 .0255626
1093.632 .0255694
1094.214 .0255768
1094.796 .0255847
1095.379 .0255930
1095.961 .0256015
1096.544 .0256099
1097.127 .0256181
1097.710 .0256258
1098.294 .0256330
1098.877 .0256397
1099.461 .0256460
1100.046 .0256520
1100.630 .0256578
1101.215 .0256636
1101.800 .0256693
1102.385 .0256750
1102.970 .0256805
1103.556 .0256857
1104.142 .0256905
1104.728 .0256952
1105.315 .0257000
1105.902 .0257051
1106.489 .0257111
1107.077 .0257182
1107.664 .0257268
1108.253 .0257371
1108.841 .0257490
1109.430 .0257626
1110.019 .0257776
1110.609 .0257939
1111.198 .0258113
1111.789 .0258298
1112.379 .0258495
1112.970 .0258706
1113.561 .0258934
1114.153 .0259177
1114.745 .0259438
1115.338 .0259717
1115.931 .0260013
1116.524 .0260321
1117.117 .0260643
1117.712 .0260976
1118.306 .0261319
1118.901 .0261672
1119.496 .0262034
1120.092 .0262406
1120.689 .0262789
1121.285 .0263182
1121.882 .0263584
1122.480 .0263996
1123.078 .0264415
1123.677 .0264841
1124.276 .0265277
1124.875 .0265721
1125.476 .0266175
1126.076 .0266641
1126.677 .0267119
1127.279 .0267610
1127.881 .0268115
1128.484 .0268633
1129.087 .0268834
1129.691 .0269369
1130.295 .0269919
1130.900 .0270486
1131.505 .0271071
1132.111 .0271678
1132.718 .0272306
1133.325 .0272959
1133.933 .0273632
1134.541 .0274350
1135.150 .0275108
1135.760 .0275776
1136.370 .0276613
1136.981 .0277553
1137.592 .0278431
1138.204 .0279309
1138.817 .0280182
1139.431 .0281063
1140.045 .0282016
1140.660 .0282919
1141.275 .0283915
1141.891 .0284735
1142.508 .0286225
1143.126 .0287651
1143.744 .0285387
1144.363 .0290425
1144.983 .0285559
