Measurement Sequence started on: 15-12-46-377
Integration time: 28
Scans to Average: 2 
>>>>>Begin Spectral Data<<<<<
432.689 .0000100
433.621 .0000100
434.552 .0000100
435.482 .0000100
436.410 .0000100
437.337 .0000100
438.262 .0283553
439.187 .0599022
440.110 .0990629
441.031 .1431795
441.952 .1142755
442.871 .1193223
443.789 .1240172
444.705 .1284288
445.621 .1326062
446.535 .1365861
447.447 .1389041
448.359 .1394145
449.269 .1377372
450.178 .1336270
451.086 .1271695
451.993 .1188613
452.898 .1095196
453.803 .1000661
454.706 .0912823
455.608 .0836488
456.508 .0773239
457.408 .0730330
458.306 .0697157
459.204 .0669979
460.100 .0646962
460.995 .0627087
461.888 .0609692
462.781 .0594317
463.673 .0580622
464.563 .0568358
465.452 .0557324
466.340 .0547332
467.228 .0538243
468.114 .0529945
468.999 .0522337
469.882 .0515330
470.765 .0508865
471.647 .0502888
472.528 .0497368
473.407 .0492280
474.286 .0487611
475.163 .0483354
476.040 .0479496
476.915 .0476023
477.790 .0472919
478.663 .0470163
479.535 .0467736
480.407 .0465615
481.277 .0463784
482.147 .0462226
483.015 .0460928
483.883 .0459885
484.749 .0459087
485.615 .0458527
486.479 .0458191
487.343 .0458061
488.206 .0458119
489.067 .0458340
489.928 .0458705
490.788 .0459201
491.647 .0459820
492.505 .0460561
493.362 .0461430
494.218 .0462434
495.073 .0463586
495.928 .0465847
496.781 .0467430
497.634 .0469185
498.486 .0471112
499.337 .0473221
500.187 .0475528
501.036 .0478055
501.884 .0480835
502.731 .0483925
503.578 .0487379
504.424 .0489940
505.268 .0494136
506.113 .0498850
506.956 .0504130
507.798 .0510025
508.640 .0516592
509.480 .0523898
510.320 .0532031
511.160 .0541100
511.998 .0551225
512.836 .0562575
513.672 .0575318
514.508 .0589654
515.344 .0605797
516.178 .0623964
517.012 .0644380
517.845 .0667238
518.677 .0692702
519.508 .0720939
520.339 .0751993
521.169 .0785894
521.998 .0822470
522.826 .0861439
523.654 .0902355
524.481 .0944624
525.307 .0987594
526.133 .1030475
526.958 .1072395
527.782 .1112494
528.605 .1149910
529.428 .1183910
530.250 .1213787
531.072 .1239044
531.892 .1259289
532.712 .1274249
533.532 .1283765
534.350 .1287741
535.168 .1286201
535.986 .1279234
536.802 .1266883
537.618 .1249276
538.434 .1226560
539.249 .1199049
540.063 .1167169
540.876 .1131479
541.689 .1092678
542.501 .1051503
543.313 .1008780
544.124 .0965403
544.934 .0922210
545.744 .0880000
546.553 .0839430
547.361 .0801066
548.169 .0765274
548.976 .0732277
549.783 .0702162
550.589 .0674892
551.395 .0650348
552.200 .0628319
553.004 .0608542
553.808 .0590779
554.611 .0574810
555.414 .0560413
556.216 .0547384
557.018 .0535526
557.819 .0524663
558.619 .0514643
559.419 .0505330
560.218 .0496630
561.017 .0488446
561.815 .0480704
562.613 .0473354
563.410 .0466336
564.207 .0459607
565.003 .0453127
565.799 .0446857
566.594 .0440765
567.388 .0434831
568.182 .0429038
568.976 .0423374
569.769 .0417836
570.562 .0412430
571.354 .0407165
572.145 .0402052
572.936 .0397105
573.727 .0392327
574.517 .0387728
575.307 .0383313
576.096 .0379076
576.885 .0375022
577.673 .0371151
578.461 .0367465
579.248 .0363965
580.035 .0360654
580.821 .0357534
581.607 .0354605
582.392 .0351867
583.177 .0349319
583.962 .0346953
584.746 .0344761
585.529 .0342729
586.313 .0340845
587.095 .0339097
587.878 .0337476
588.660 .0335973
589.441 .0334581
590.222 .0333296
591.003 .0332112
591.783 .0331026
592.563 .0330030
593.342 .0329118
594.121 .0328281
594.899 .0327510
595.678 .0326796
596.455 .0326131
597.233 .0325509
598.009 .0324924
598.786 .0324375
599.562 .0323857
600.338 .0323369
601.113 .0322910
601.888 .0322302
602.663 .0321904
603.437 .0321531
604.211 .0321178
604.984 .0320842
605.757 .0320522
606.530 .0320214
607.302 .0319918
608.074 .0319633
608.845 .0319358
609.616 .0319094
610.387 .0318991
611.158 .0318742
611.928 .0318503
612.697 .0318275
613.467 .0318056
614.236 .0317845
615.004 .0317640
615.773 .0317439
616.541 .0317242
617.308 .0317046
618.076 .0316850
618.843 .0316652
619.609 .0316453
620.375 .0316250
621.141 .0316044
621.907 .0315833
622.672 .0315616
623.437 .0315394
624.202 .0315166
624.966 .0314932
625.730 .0314691
626.493 .0314445
627.257 .0314193
628.020 .0313936
628.782 .0313675
629.545 .0313410
630.307 .0313142
631.068 .0312874
631.830 .0312604
632.591 .0312335
633.352 .0312067
634.112 .0311801
634.872 .0311536
635.632 .0311274
636.392 .0311013
637.151 .0310754
637.910 .0310496
638.668 .0310240
639.427 .0309983
640.185 .0309728
640.943 .0309473
641.700 .0309219
642.457 .0308966
643.214 .0308714
643.971 .0308464
644.727 .0308215
645.483 .0307967
646.239 .0307722
646.994 .0307477
647.750 .0307233
648.505 .0306991
649.259 .0306750
650.014 .0306510
650.768 .0306273
651.521 .0306037
652.275 .0305804
653.028 .0305574
653.781 .0305347
654.534 .0305122
655.286 .0304898
656.039 .0304677
656.791 .0304457
657.542 .0304237
658.294 .0304018
659.045 .0303800
659.796 .0303583
660.546 .0303367
661.297 .0303151
662.047 .0302937
662.796 .0302723
663.546 .0302511
664.295 .0302299
665.044 .0302089
665.793 .0301881
666.542 .0301675
667.290 .0301473
668.038 .0301274
668.786 .0301080
669.533 .0300891
670.281 .0300707
671.028 .0300528
671.774 .0300355
672.521 .0300188
673.267 .0300026
674.013 .0299870
674.759 .0299721
675.505 .0299579
676.250 .0299444
676.995 .0299316
677.740 .0299195
678.484 .0299079
679.229 .0298969
679.973 .0298863
680.717 .0298760
681.460 .0298659
682.204 .0298558
682.947 .0298457
683.690 .0298355
684.433 .0298250
685.175 .0298142
685.917 .0298031
686.659 .0297916
687.401 .0297798
688.142 .0297675
688.884 .0297548
689.625 .0297417
690.365 .0297281
691.106 .0297139
691.846 .0296991
692.586 .0296837
693.326 .0296676
694.066 .0296508
694.805 .0296333
695.545 .0296153
696.284 .0295967
697.022 .0295777
697.761 .0295583
698.499 .0295384
699.237 .0295182
699.975 .0294976
700.713 .0294766
701.450 .0294551
702.187 .0294332
702.924 .0294108
703.661 .0293879
704.397 .0293645
705.133 .0293407
705.869 .0293165
706.605 .0292920
707.341 .0292672
708.076 .0292423
708.811 .0292173
709.546 .0291923
710.281 .0291673
711.015 .0291424
711.749 .0291176
712.483 .0290928
713.217 .0290681
713.950 .0290435
714.684 .0290189
715.417 .0289944
716.150 .0289701
716.882 .0289459
717.615 .0289220
718.347 .0288983
719.079 .0288749
719.811 .0288518
720.542 .0288290
721.273 .0288064
722.005 .0287841
722.735 .0287621
723.466 .0287403
724.196 .0287189
724.927 .0286977
725.656 .0286769
726.386 .0286565
727.116 .0286366
727.845 .0286171
728.574 .0285982
729.303 .0285799
730.031 .0285622
730.760 .0285451
731.488 .0285287
732.216 .0285129
732.944 .0284977
733.671 .0284832
734.398 .0284692
735.125 .0284557
735.852 .0284428
736.579 .0284305
737.305 .0284187
738.031 .0284076
738.757 .0283970
739.483 .0283870
740.208 .0283777
740.933 .0283689
741.658 .0283607
742.383 .0283530
743.108 .0283459
743.832 .0283393
744.556 .0283334
745.280 .0283280
746.004 .0283232
746.727 .0283190
747.450 .0283154
748.173 .0283122
748.896 .0283095
749.618 .0283072
750.340 .0283052
751.062 .0283036
751.784 .0283023
752.506 .0283013
753.227 .0283005
753.948 .0282999
754.669 .0282993
755.389 .0282987
756.110 .0282979
756.830 .0282969
757.550 .0282956
758.269 .0282940
758.989 .0282921
759.708 .0282897
760.427 .0282867
761.146 .0282832
761.864 .0282789
762.582 .0282739
763.300 .0282681
764.018 .0282613
764.736 .0282538
765.453 .0282454
766.170 .0282362
766.887 .0282263
767.603 .0282158
768.320 .0282046
769.036 .0281929
769.751 .0281807
770.467 .0281680
771.182 .0281548
771.897 .0281412
772.612 .0281273
773.327 .0281133
774.041 .0280991
774.755 .0280848
775.469 .0280704
776.183 .0280561
776.896 .0280416
777.609 .0280271
778.322 .0280124
779.035 .0279976
779.747 .0279825
780.459 .0279672
781.171 .0279516
781.882 .0279356
782.594 .0279193
783.305 .0279025
784.016 .0278854
784.726 .0278678
785.436 .0278498
786.147 .0278209
786.856 .0278017
787.566 .0277821
788.275 .0277620
788.984 .0277414
789.693 .0277203
790.401 .0276987
791.110 .0276767
791.818 .0276543
792.525 .0276314
793.233 .0276081
793.940 .0275844
794.647 .0275720
795.353 .0275481
796.060 .0275239
796.766 .0274995
797.472 .0274751
798.177 .0274507
798.883 .0274263
799.588 .0274020
800.292 .0273778
800.997 .0273537
801.701 .0273296
802.405 .0273057
803.109 .0272819
803.812 .0272582
804.515 .0272347
805.218 .0272113
805.921 .0271881
806.623 .0271651
807.325 .0271423
808.027 .0271198
808.728 .0270975
809.429 .0270755
810.130 .0270538
810.831 .0270324
811.531 .0270114
812.231 .0269909
812.931 .0269708
813.630 .0269512
814.330 .0269323
815.029 .0269140
815.727 .0268964
816.426 .0268795
817.124 .0268634
817.821 .0268481
818.519 .0268335
819.216 .0268196
819.913 .0268066
820.609 .0267942
821.306 .0267826
822.002 .0267718
822.697 .0267618
823.393 .0267525
824.088 .0267440
824.783 .0267363
825.477 .0267293
826.171 .0267229
826.865 .0267172
827.559 .0267120
828.252 .0267073
828.945 .0267032
829.638 .0266997
830.330 .0266967
831.023 .0266943
831.714 .0266924
832.406 .0266910
833.097 .0266901
833.788 .0266896
834.479 .0266895
835.169 .0266898
835.859 .0266904
836.548 .0266915
837.238 .0266930
837.927 .0266949
838.615 .0266973
839.304 .0267002
839.992 .0267035
840.680 .0267072
841.367 .0267114
842.054 .0267159
842.741 .0267208
843.428 .0267261
844.114 .0267317
844.800 .0267377
845.485 .0267439
846.170 .0267504
846.855 .0267571
847.540 .0267638
848.224 .0267705
848.908 .0267771
849.592 .0267835
850.275 .0267898
850.958 .0267958
851.641 .0268015
852.323 .0268070
853.005 .0268121
853.687 .0268170
854.368 .0268215
855.049 .0268257
855.730 .0268295
856.410 .0268328
857.090 .0268357
857.769 .0268381
858.449 .0268399
859.128 .0268413
859.806 .0268421
860.485 .0268425
861.163 .0268424
861.840 .0268419
862.518 .0268410
863.195 .0268396
863.871 .0268377
864.548 .0268354
865.224 .0268324
865.899 .0268290
866.574 .0268249
867.249 .0268204
867.924 .0268153
868.598 .0268096
869.272 .0268034
869.946 .0267965
870.619 .0267890
871.292 .0267807
871.964 .0267717
872.636 .0267620
873.308 .0267516
873.979 .0267405
874.651 .0267288
875.321 .0267165
875.992 .0267036
876.662 .0266900
877.331 .0266757
878.001 .0266607
878.670 .0266448
879.338 .0266281
880.007 .0266106
880.675 .0265924
881.342 .0265735
882.009 .0265540
882.676 .0265341
883.343 .0265137
884.009 .0264929
884.675 .0264717
885.340 .0264500
886.005 .0264278
886.670 .0264052
887.334 .0263821
887.998 .0263587
888.662 .0263349
889.325 .0263109
889.988 .0262867
890.650 .0262623
891.312 .0262377
891.974 .0262130
892.636 .0261880
893.297 .0261628
893.957 .0261373
894.618 .0261115
895.278 .0260854
895.937 .0260591
896.596 .0260325
897.255 .0260056
897.914 .0259784
898.572 .0259510
899.230 .0259231
899.887 .0258948
900.544 .0258661
901.201 .0258370
901.857 .0257916
902.513 .0257617
903.168 .0257317
903.823 .0257017
904.478 .0256717
905.132 .0256417
905.786 .0256118
906.440 .0255819
907.093 .0255520
907.746 .0255220
908.399 .0254921
909.051 .0254623
909.703 .0254328
910.354 .0254195
911.005 .0253908
911.656 .0253626
912.306 .0253352
912.956 .0253084
913.605 .0252822
914.254 .0252567
914.903 .0252318
915.551 .0252076
916.199 .0251839
916.847 .0251608
917.494 .0251383
918.141 .0251164
918.788 .0250952
919.434 .0250746
920.079 .0250545
920.725 .0250349
921.370 .0250157
922.014 .0249968
922.658 .0249782
923.302 .0249598
923.946 .0249417
924.589 .0249239
925.231 .0249063
925.873 .0248890
926.515 .0248720
927.157 .0248553
927.798 .0248389
928.439 .0248228
929.079 .0248069
929.719 .0247913
930.359 .0247760
930.998 .0247610
931.637 .0247463
932.275 .0247319
932.913 .0247179
933.551 .0247042
934.188 .0246910
934.825 .0246783
935.462 .0246660
936.098 .0246541
936.733 .0246427
937.369 .0246317
938.004 .0246211
938.638 .0246110
939.273 .0246015
939.907 .0245926
940.540 .0245843
941.173 .0245767
941.806 .0245700
942.438 .0245640
943.070 .0245589
943.702 .0245547
944.333 .0245513
944.964 .0245486
945.594 .0245468
946.224 .0245457
946.854 .0245454
947.483 .0245458
948.112 .0245470
948.741 .0245489
949.369 .0245515
949.996 .0245548
950.624 .0245588
951.251 .0245634
951.878 .0245687
952.504 .0245746
953.130 .0245811
953.755 .0245882
954.380 .0245959
955.005 .0246043
955.629 .0246132
956.253 .0246227
956.877 .0246327
957.500 .0246433
958.123 .0246543
958.746 .0246657
959.368 .0246775
959.990 .0246898
960.611 .0247025
961.232 .0247155
961.853 .0247288
962.473 .0247424
963.093 .0247561
963.712 .0247700
964.331 .0247839
964.950 .0247978
965.569 .0248118
966.187 .0248257
966.804 .0248395
967.422 .0248532
968.039 .0248668
968.655 .0248803
969.272 .0248937
969.887 .0249070
970.503 .0249200
971.118 .0249329
971.733 .0249456
972.347 .0249580
972.961 .0249702
973.575 .0249821
974.188 .0249937
974.801 .0250049
975.414 .0250158
976.026 .0250262
976.638 .0250361
977.250 .0250454
977.861 .0250540
978.472 .0250620
979.083 .0250694
979.693 .0250760
980.303 .0250820
980.912 .0250886
981.521 .0250932
982.130 .0250972
982.738 .0251008
983.346 .0251041
983.954 .0251069
984.562 .0251095
985.169 .0251117
985.775 .0251137
986.382 .0251154
986.988 .0251170
987.594 .0251184
988.199 .0251196
988.804 .0251208
989.409 .0251210
990.013 .0251221
990.617 .0251230
991.221 .0251237
991.824 .0251243
992.427 .0251246
993.030 .0251245
993.632 .0251241
994.234 .0251232
994.836 .0251220
995.438 .0251204
996.039 .0251184
996.640 .0251161
997.240 .0251136
997.840 .0251109
998.440 .0251081
999.040 .0251050
999.639 .0251016
1000.238 .0250980
1000.836 .0250939
1001.435 .0250894
1002.033 .0250844
1002.630 .0250788
1003.228 .0250727
1003.825 .0250660
1004.422 .0250587
1005.018 .0250508
1005.614 .0250423
1006.210 .0250331
1006.806 .0250233
1007.401 .0250127
1007.996 .0250013
1008.591 .0249891
1009.186 .0249761
1009.780 .0249625
1010.374 .0249483
1010.967 .0249338
1011.561 .0249189
1012.154 .0249038
1012.746 .0248886
1013.339 .0248733
1013.931 .0248578
1014.523 .0248422
1015.115 .0248263
1015.706 .0248101
1016.298 .0247937
1016.888 .0247771
1017.479 .0247605
1018.069 .0247438
1018.660 .0247272
1019.250 .0247107
1019.839 .0246943
1020.429 .0246780
1021.018 .0246616
1021.607 .0246451
1022.195 .0246285
1022.784 .0246119
1023.372 .0245953
1023.960 .0245788
1024.547 .0245625
1025.135 .0245466
1025.722 .0245311
1026.309 .0245161
1026.896 .0245013
1027.483 .0244868
1028.069 .0244725
1028.655 .0244582
1029.241 .0244438
1029.827 .0244292
1030.412 .0244146
1030.997 .0244000
1031.582 .0243853
1032.167 .0243707
1032.752 .0243561
1033.336 .0243414
1033.921 .0243267
1034.505 .0243116
1035.089 .0242963
1035.672 .0242805
1036.256 .0242643
1036.839 .0242477
1037.422 .0242308
1038.005 .0242138
1038.588 .0241968
1039.171 .0241799
1039.753 .0241631
1040.335 .0241463
1040.918 .0241296
1041.500 .0241127
1042.081 .0240957
1042.663 .0240784
1043.244 .0240610
1043.826 .0240435
1044.407 .0240260
1044.988 .0240087
1045.569 .0239916
1046.150 .0239747
1046.730 .0239581
1047.311 .0239417
1047.891 .0239254
1048.471 .0239092
1049.052 .0238931
1049.632 .0238772
1050.211 .0238615
1050.791 .0238461
1051.371 .0238313
1051.950 .0238172
1052.530 .0238038
1053.109 .0237912
1053.688 .0237795
1054.268 .0237684
1054.847 .0237581
1055.426 .0237484
1056.005 .0237393
1056.583 .0237308
1057.162 .0237229
1057.741 .0237156
1058.319 .0237091
1058.898 .0237033
1059.476 .0236982
1060.055 .0236939
1060.633 .0236901
1061.211 .0236869
1061.790 .0236841
1062.368 .0236815
1062.946 .0236793
1063.524 .0236773
1064.102 .0236757
1064.680 .0236745
1065.258 .0236738
1065.836 .0236735
1066.414 .0236736
1066.992 .0236739
1067.570 .0236745
1068.148 .0236750
1068.726 .0236754
1069.304 .0236757
1069.882 .0236760
1070.460 .0236763
1071.038 .0236768
1071.616 .0236777
1072.194 .0236791
1072.772 .0236809
1073.350 .0236831
1073.928 .0236856
1074.506 .0236884
1075.084 .0236914
1075.662 .0236945
1076.240 .0236977
1076.819 .0237011
1077.397 .0237047
1077.976 .0237087
1078.554 .0237133
1079.133 .0237185
1079.711 .0237243
1080.290 .0237308
1080.869 .0237380
1081.448 .0237458
1082.027 .0237542
1082.606 .0237631
1083.185 .0237725
1083.764 .0237826
1084.343 .0237934
1084.923 .0238052
1085.502 .0238182
1086.082 .0238325
1086.662 .0238482
1087.242 .0238652
1087.822 .0238835
1088.402 .0239029
1088.983 .0239231
1089.563 .0239439
1090.144 .0239652
1090.725 .0239868
1091.306 .0240088
1091.887 .0240310
1092.469 .0240535
1093.050 .0240765
1093.632 .0240999
1094.214 .0241237
1094.796 .0241478
1095.379 .0241722
1095.961 .0241968
1096.544 .0242217
1097.127 .0242470
1097.710 .0242728
1098.294 .0242993
1098.877 .0243267
1099.461 .0243552
1100.046 .0243848
1100.630 .0244157
1101.215 .0244477
1101.800 .0244809
1102.385 .0245151
1102.970 .0245503
1103.556 .0245864
1104.142 .0246235
1104.728 .0246615
1105.315 .0247004
1105.902 .0247404
1106.489 .0247814
1107.077 .0248235
1107.664 .0248666
1108.253 .0249107
1108.841 .0249558
1109.430 .0250020
1110.019 .0250494
1110.609 .0250979
1111.198 .0251477
1111.789 .0251987
1112.379 .0252508
1112.970 .0253036
1113.561 .0253568
1114.153 .0254100
1114.745 .0254628
1115.338 .0255148
1115.931 .0255657
1116.524 .0256156
1117.117 .0256645
1117.712 .0257127
1118.306 .0257605
1118.901 .0258080
1119.496 .0258554
1120.092 .0259028
1120.689 .0259502
1121.285 .0259976
1121.882 .0260451
1122.480 .0260929
1123.078 .0261413
1123.677 .0261909
1124.276 .0262423
1124.875 .0262961
1125.476 .0263531
1126.076 .0264136
1126.677 .0264777
1127.279 .0265456
1127.881 .0266170
1128.484 .0266917
1129.087 .0267168
1129.691 .0267955
1130.295 .0268772
1130.900 .0269624
1131.505 .0270515
1132.111 .0271447
1132.718 .0272422
1133.325 .0273448
1133.933 .0274521
1134.541 .0275705
1135.150 .0276887
1135.760 .0277966
1136.370 .0279362
1136.981 .0280965
1137.592 .0282414
1138.204 .0283758
1138.817 .0285077
1139.431 .0286448
1140.045 .0287848
1140.660 .0289170
1141.275 .0290748
1141.891 .0292205
1142.508 .0295560
1143.126 .0295809
1143.744 .0293319
1144.363 .0302671
1144.983 .0297420
