Measurement Sequence started on: 15-12-46-377
Integration time: 28
Scans to Average: 2 
>>>>>Begin Spectral Data<<<<<
432.689 .0000100
433.621 .0000100
434.552 .0000100
435.482 .0000100
436.410 .0000100
437.337 .0000100
438.262 .0281412
439.187 .0597457
440.110 .0989382
441.031 .1431595
441.952 .1144704
442.871 .1194904
443.789 .1241511
444.705 .1285263
445.621 .1326664
446.535 .1366097
447.447 .1389030
448.359 .1393870
449.269 .1376825
450.178 .1335404
451.086 .1270406
451.993 .1186775
452.898 .1092673
453.803 .0997355
454.706 .0908683
455.608 .0831545
456.508 .0767589
457.408 .0724058
458.306 .0690510
459.204 .0663118
460.100 .0640014
460.995 .0620148
461.888 .0602805
462.781 .0587502
463.673 .0573876
464.563 .0561674
465.452 .0550686
466.340 .0540734
467.228 .0531683
468.114 .0523442
468.999 .0515925
469.882 .0509057
470.765 .0502784
471.647 .0497052
472.528 .0491824
473.407 .0487059
474.286 .0482724
475.163 .0478795
476.040 .0475246
476.915 .0472056
477.790 .0469204
478.663 .0466676
479.535 .0464454
480.407 .0462523
481.277 .0460870
482.147 .0459475
483.015 .0458318
483.883 .0457378
484.749 .0456636
485.615 .0456077
486.479 .0455686
487.343 .0455449
488.206 .0455361
489.067 .0455416
489.928 .0455610
490.788 .0455948
491.647 .0456438
492.505 .0457090
493.362 .0457921
494.218 .0458945
495.073 .0460175
495.928 .0462837
496.781 .0464672
497.634 .0466748
498.486 .0469070
499.337 .0471649
500.187 .0474499
501.036 .0477639
501.884 .0481089
502.731 .0484880
503.578 .0489045
504.424 .0491933
505.268 .0496767
506.113 .0502073
506.956 .0507891
507.798 .0514281
508.640 .0521320
509.480 .0529097
510.320 .0537725
511.160 .0547336
511.998 .0558075
512.836 .0570127
513.672 .0583653
514.508 .0598850
515.344 .0615929
516.178 .0635121
517.012 .0656675
517.845 .0680820
518.677 .0707769
519.508 .0737694
520.339 .0770677
521.169 .0806745
521.998 .0845653
522.826 .0887052
523.654 .0930409
524.481 .0975040
525.307 .1020172
526.133 .1064923
526.958 .1108365
527.782 .1149618
528.605 .1187844
529.428 .1222303
530.250 .1252319
531.072 .1277477
531.892 .1297424
532.712 .1311898
533.532 .1320746
534.350 .1323866
535.168 .1321248
535.986 .1312936
536.802 .1298957
537.618 .1279413
538.434 .1254459
539.249 .1224490
540.063 .1190001
540.876 .1151641
541.689 .1110211
542.501 .1066561
543.313 .1021605
544.124 .0976281
544.934 .0931425
545.744 .0887802
546.553 .0846053
547.361 .0806700
548.169 .0770027
548.976 .0736226
549.783 .0705373
550.589 .0677414
551.395 .0652218
552.200 .0629576
553.004 .0609224
553.808 .0590949
554.611 .0574525
555.414 .0559734
556.216 .0546377
557.018 .0534263
557.819 .0523226
558.619 .0513098
559.419 .0503739
560.218 .0495035
561.017 .0486876
561.815 .0479184
562.613 .0471892
563.410 .0464940
564.207 .0458289
565.003 .0451901
565.799 .0445739
566.594 .0439769
567.388 .0433972
568.182 .0428329
568.976 .0422827
569.769 .0417463
570.562 .0412236
571.354 .0407155
572.145 .0402233
572.936 .0397477
573.727 .0392893
574.517 .0388489
575.307 .0384270
576.096 .0380237
576.885 .0376386
577.673 .0372717
578.461 .0369229
579.248 .0365921
580.035 .0362792
580.821 .0359837
581.607 .0357055
582.392 .0354443
583.177 .0351994
583.962 .0349702
584.746 .0347558
585.529 .0345554
586.313 .0343683
587.095 .0341940
587.878 .0340320
588.660 .0338818
589.441 .0337430
590.222 .0336153
591.003 .0334980
591.783 .0333902
592.563 .0332912
593.342 .0331998
594.121 .0331153
594.899 .0330366
595.678 .0329630
596.455 .0328938
597.233 .0328286
598.009 .0327669
598.786 .0327084
599.562 .0326528
600.338 .0325998
601.113 .0325490
601.888 .0324779
602.663 .0324312
603.437 .0323859
604.211 .0323416
604.984 .0322982
605.757 .0322556
606.530 .0322139
607.302 .0321731
608.074 .0321333
608.845 .0320946
609.616 .0320572
610.387 .0320412
611.158 .0320058
611.928 .0319716
612.697 .0319388
613.467 .0319070
614.236 .0318763
615.004 .0318465
615.773 .0318176
616.541 .0317895
617.308 .0317624
618.076 .0317360
618.843 .0317104
619.609 .0316855
620.375 .0316612
621.141 .0316373
621.907 .0316138
622.672 .0315905
623.437 .0315672
624.202 .0315439
624.966 .0315205
625.730 .0314969
626.493 .0314730
627.257 .0314488
628.020 .0314241
628.782 .0313989
629.545 .0313732
630.307 .0313470
631.068 .0313202
631.830 .0312931
632.591 .0312656
633.352 .0312378
634.112 .0312096
634.872 .0311813
635.632 .0311526
636.392 .0311238
637.151 .0310948
637.910 .0310656
638.668 .0310364
639.427 .0310073
640.185 .0309784
640.943 .0309499
641.700 .0309220
642.457 .0308949
643.214 .0308685
643.971 .0308429
644.727 .0308182
645.483 .0307944
646.239 .0307713
646.994 .0307490
647.750 .0307275
648.505 .0307066
649.259 .0306863
650.014 .0306665
650.768 .0306474
651.521 .0306287
652.275 .0306105
653.028 .0305925
653.781 .0305748
654.534 .0305573
655.286 .0305399
656.039 .0305224
656.791 .0305050
657.542 .0304876
658.294 .0304702
659.045 .0304528
659.796 .0304354
660.546 .0304180
661.297 .0304005
662.047 .0303831
662.796 .0303655
663.546 .0303478
664.295 .0303300
665.044 .0303121
665.793 .0302940
666.542 .0302759
667.290 .0302579
668.038 .0302398
668.786 .0302219
669.533 .0302043
670.281 .0301868
671.028 .0301697
671.774 .0301529
672.521 .0301365
673.267 .0301204
674.013 .0301046
674.759 .0300891
675.505 .0300737
676.250 .0300585
676.995 .0300433
677.740 .0300281
678.484 .0300129
679.229 .0299976
679.973 .0299823
680.717 .0299669
681.460 .0299515
682.204 .0299360
682.947 .0299203
683.690 .0299045
684.433 .0298884
685.175 .0298720
685.917 .0298551
686.659 .0298379
687.401 .0298201
688.142 .0298019
688.884 .0297833
689.625 .0297644
690.365 .0297451
691.106 .0297254
691.846 .0297055
692.586 .0296852
693.326 .0296646
694.066 .0296437
694.805 .0296225
695.545 .0296010
696.284 .0295792
697.022 .0295571
697.761 .0295349
698.499 .0295125
699.237 .0294901
699.975 .0294677
700.713 .0294455
701.450 .0294235
702.187 .0294016
702.924 .0293800
703.661 .0293587
704.397 .0293375
705.133 .0293165
705.869 .0292957
706.605 .0292749
707.341 .0292542
708.076 .0292336
708.811 .0292131
709.546 .0291927
710.281 .0291724
711.015 .0291523
711.749 .0291321
712.483 .0291121
713.217 .0290920
713.950 .0290720
714.684 .0290520
715.417 .0290319
716.150 .0290118
716.882 .0289917
717.615 .0289714
718.347 .0289512
719.079 .0289309
719.811 .0289105
720.542 .0288901
721.273 .0288696
722.005 .0288490
722.735 .0288284
723.466 .0288078
724.196 .0287874
724.927 .0287671
725.656 .0287472
726.386 .0287276
727.116 .0287086
727.845 .0286900
728.574 .0286721
729.303 .0286547
730.031 .0286379
730.760 .0286216
731.488 .0286059
732.216 .0285907
732.944 .0285761
733.671 .0285621
734.398 .0285486
735.125 .0285357
735.852 .0285234
736.579 .0285118
737.305 .0285008
738.031 .0284904
738.757 .0284806
739.483 .0284713
740.208 .0284624
740.933 .0284539
741.658 .0284457
742.383 .0284378
743.108 .0284299
743.832 .0284222
744.556 .0284145
745.280 .0284069
746.004 .0283993
746.727 .0283918
747.450 .0283844
748.173 .0283770
748.896 .0283696
749.618 .0283622
750.340 .0283546
751.062 .0283469
751.784 .0283390
752.506 .0283309
753.227 .0283227
753.948 .0283142
754.669 .0283055
755.389 .0282967
756.110 .0282877
756.830 .0282787
757.550 .0282696
758.269 .0282605
758.989 .0282512
759.708 .0282419
760.427 .0282325
761.146 .0282231
761.864 .0282136
762.582 .0282040
763.300 .0281944
764.018 .0281847
764.736 .0281751
765.453 .0281656
766.170 .0281563
766.887 .0281472
767.603 .0281383
768.320 .0281298
769.036 .0281216
769.751 .0281138
770.467 .0281064
771.182 .0280994
771.897 .0280928
772.612 .0280866
773.327 .0280807
774.041 .0280751
774.755 .0280698
775.469 .0280648
776.183 .0280600
776.896 .0280554
777.609 .0280510
778.322 .0280467
779.035 .0280425
779.747 .0280384
780.459 .0280343
781.171 .0280300
781.882 .0280255
782.594 .0280208
783.305 .0280159
784.016 .0280105
784.726 .0280048
785.436 .0279988
786.147 .0279878
786.856 .0279807
787.566 .0279731
788.275 .0279651
788.984 .0279565
789.693 .0279475
790.401 .0279381
791.110 .0279282
791.818 .0279180
792.525 .0279075
793.233 .0278965
793.940 .0278852
794.647 .0278788
795.353 .0278667
796.060 .0278541
796.766 .0278409
797.472 .0278271
798.177 .0278127
798.883 .0277977
799.588 .0277822
800.292 .0277661
800.997 .0277495
801.701 .0277324
802.405 .0277148
803.109 .0276966
803.812 .0276779
804.515 .0276586
805.218 .0276388
805.921 .0276185
806.623 .0275977
807.325 .0275765
808.027 .0275549
808.728 .0275330
809.429 .0275107
810.130 .0274881
810.831 .0274652
811.531 .0274421
812.231 .0274188
812.931 .0273954
813.630 .0273720
814.330 .0273486
815.029 .0273254
815.727 .0273024
816.426 .0272795
817.124 .0272569
817.821 .0272346
818.519 .0272125
819.216 .0271907
819.913 .0271692
820.609 .0271480
821.306 .0271272
822.002 .0271068
822.697 .0270869
823.393 .0270676
824.088 .0270488
824.783 .0270305
825.477 .0270126
826.171 .0269952
826.865 .0269782
827.559 .0269615
828.252 .0269452
828.945 .0269292
829.638 .0269135
830.330 .0268982
831.023 .0268832
831.714 .0268684
832.406 .0268540
833.097 .0268399
833.788 .0268260
834.479 .0268124
835.169 .0267991
835.859 .0267860
836.548 .0267733
837.238 .0267608
837.927 .0267486
838.615 .0267365
839.304 .0267246
839.992 .0267128
840.680 .0267010
841.367 .0266893
842.054 .0266776
842.741 .0266660
843.428 .0266545
844.114 .0266431
844.800 .0266319
845.485 .0266208
846.170 .0266099
846.855 .0265992
847.540 .0265886
848.224 .0265781
848.908 .0265677
849.592 .0265574
850.275 .0265472
850.958 .0265371
851.641 .0265270
852.323 .0265171
853.005 .0265073
853.687 .0264974
854.368 .0264877
855.049 .0264779
855.730 .0264682
856.410 .0264584
857.090 .0264485
857.769 .0264387
858.449 .0264287
859.128 .0264186
859.806 .0264085
860.485 .0263983
861.163 .0263882
861.840 .0263780
862.518 .0263680
863.195 .0263581
863.871 .0263485
864.548 .0263392
865.224 .0263302
865.899 .0263217
866.574 .0263135
867.249 .0263057
867.924 .0262984
868.598 .0262915
869.272 .0262851
869.946 .0262791
870.619 .0262736
871.292 .0262686
871.964 .0262641
872.636 .0262602
873.308 .0262568
873.979 .0262540
874.651 .0262518
875.321 .0262503
875.992 .0262495
876.662 .0262493
877.331 .0262499
878.001 .0262510
878.670 .0262526
879.338 .0262548
880.007 .0262573
880.675 .0262603
881.342 .0262637
882.009 .0262676
882.676 .0262719
883.343 .0262766
884.009 .0262818
884.675 .0262874
885.340 .0262933
886.005 .0262996
886.670 .0263061
887.334 .0263128
887.998 .0263198
888.662 .0263270
889.325 .0263345
889.988 .0263422
890.650 .0263503
891.312 .0263586
891.974 .0263671
892.636 .0263756
893.297 .0263842
893.957 .0263927
894.618 .0264010
895.278 .0264092
895.937 .0264170
896.596 .0264246
897.255 .0264318
897.914 .0264385
898.572 .0264446
899.230 .0264500
899.887 .0264545
900.544 .0264583
901.201 .0264611
901.857 .0264613
902.513 .0264618
903.168 .0264614
903.823 .0264602
904.478 .0264581
905.132 .0264551
905.786 .0264510
906.440 .0264460
907.093 .0264399
907.746 .0264327
908.399 .0264246
909.051 .0264157
909.703 .0264062
910.354 .0263997
911.005 .0263896
911.656 .0263791
912.306 .0263680
912.956 .0263566
913.605 .0263446
914.254 .0263322
914.903 .0263193
915.551 .0263060
916.199 .0262924
916.847 .0262785
917.494 .0262644
918.141 .0262501
918.788 .0262357
919.434 .0262210
920.079 .0262060
920.725 .0261906
921.370 .0261748
922.014 .0261586
922.658 .0261420
923.302 .0261251
923.946 .0261078
924.589 .0260903
925.231 .0260725
925.873 .0260545
926.515 .0260362
927.157 .0260175
927.798 .0259985
928.439 .0259792
929.079 .0259596
929.719 .0259398
930.359 .0259199
930.998 .0259000
931.637 .0258802
932.275 .0258605
932.913 .0258410
933.551 .0258217
934.188 .0258027
934.825 .0257839
935.462 .0257654
936.098 .0257472
936.733 .0257293
937.369 .0257118
938.004 .0256947
938.638 .0256780
939.273 .0256618
939.907 .0256459
940.540 .0256303
941.173 .0256151
941.806 .0256000
942.438 .0255851
943.070 .0255703
943.702 .0255555
944.333 .0255406
944.964 .0255257
945.594 .0255105
946.224 .0254952
946.854 .0254796
947.483 .0254637
948.112 .0254474
948.741 .0254307
949.369 .0254135
949.996 .0253959
950.624 .0253778
951.251 .0253592
951.878 .0253401
952.504 .0253206
953.130 .0253006
953.755 .0252803
954.380 .0252596
955.005 .0252385
955.629 .0252171
956.253 .0251953
956.877 .0251733
957.500 .0251510
958.123 .0251286
958.746 .0251060
959.368 .0250834
959.990 .0250608
960.611 .0250383
961.232 .0250159
961.853 .0249937
962.473 .0249716
963.093 .0249497
963.712 .0249280
964.331 .0249065
964.950 .0248853
965.569 .0248643
966.187 .0248436
966.804 .0248232
967.422 .0248031
968.039 .0247833
968.655 .0247637
969.272 .0247443
969.887 .0247251
970.503 .0247060
971.118 .0246872
971.733 .0246685
972.347 .0246501
972.961 .0246319
973.575 .0246139
974.188 .0245961
974.801 .0245784
975.414 .0245608
976.026 .0245432
976.638 .0245255
977.250 .0245078
977.861 .0244900
978.472 .0244722
979.083 .0244543
979.693 .0244364
980.303 .0244184
980.912 .0243908
981.521 .0243725
982.130 .0243541
982.738 .0243354
983.346 .0243166
983.954 .0242976
984.562 .0242785
985.169 .0242593
985.775 .0242401
986.382 .0242211
986.988 .0242022
987.594 .0241834
988.199 .0241650
988.804 .0241467
989.409 .0241385
990.013 .0241210
990.617 .0241038
991.221 .0240871
991.824 .0240709
992.427 .0240552
993.030 .0240402
993.632 .0240259
994.234 .0240122
994.836 .0239993
995.438 .0239872
996.039 .0239757
996.640 .0239650
997.240 .0239551
997.840 .0239458
998.440 .0239373
999.040 .0239296
999.639 .0239227
1000.238 .0239164
1000.836 .0239110
1001.435 .0239062
1002.033 .0239022
1002.630 .0238988
1003.228 .0238961
1003.825 .0238939
1004.422 .0238923
1005.018 .0238913
1005.614 .0238908
1006.210 .0238909
1006.806 .0238915
1007.401 .0238926
1007.996 .0238941
1008.591 .0238961
1009.186 .0238985
1009.780 .0239013
1010.374 .0239045
1010.967 .0239081
1011.561 .0239120
1012.154 .0239164
1012.746 .0239213
1013.339 .0239266
1013.931 .0239323
1014.523 .0239384
1015.115 .0239449
1015.706 .0239518
1016.298 .0239591
1016.888 .0239667
1017.479 .0239746
1018.069 .0239830
1018.660 .0239919
1019.250 .0240012
1019.839 .0240111
1020.429 .0240216
1021.018 .0240327
1021.607 .0240443
1022.195 .0240564
1022.784 .0240689
1023.372 .0240818
1023.960 .0240949
1024.547 .0241084
1025.135 .0241221
1025.722 .0241361
1026.309 .0241504
1026.896 .0241650
1027.483 .0241799
1028.069 .0241951
1028.655 .0242105
1029.241 .0242261
1029.827 .0242417
1030.412 .0242573
1030.997 .0242727
1031.582 .0242880
1032.167 .0243031
1032.752 .0243181
1033.336 .0243329
1033.921 .0243477
1034.505 .0243623
1035.089 .0243769
1035.672 .0243913
1036.256 .0244055
1036.839 .0244193
1037.422 .0244326
1038.005 .0244455
1038.588 .0244579
1039.171 .0244697
1039.753 .0244811
1040.335 .0244919
1040.918 .0245025
1041.500 .0245127
1042.081 .0245226
1042.663 .0245323
1043.244 .0245416
1043.826 .0245505
1044.407 .0245592
1044.988 .0245675
1045.569 .0245754
1046.150 .0245831
1046.730 .0245906
1047.311 .0245978
1047.891 .0246050
1048.471 .0246122
1049.052 .0246194
1049.632 .0246269
1050.211 .0246347
1050.791 .0246428
1051.371 .0246513
1051.950 .0246603
1052.530 .0246698
1053.109 .0246800
1053.688 .0246907
1054.268 .0247022
1054.847 .0247142
1055.426 .0247270
1056.005 .0247406
1056.583 .0247549
1057.162 .0247698
1057.741 .0247854
1058.319 .0248015
1058.898 .0248180
1059.476 .0248349
1060.055 .0248520
1060.633 .0248693
1061.211 .0248866
1061.790 .0249040
1062.368 .0249214
1062.946 .0249390
1063.524 .0249566
1064.102 .0249744
1064.680 .0249922
1065.258 .0250101
1065.836 .0250278
1066.414 .0250454
1066.992 .0250626
1067.570 .0250795
1068.148 .0250959
1068.726 .0251118
1069.304 .0251274
1069.882 .0251428
1070.460 .0251578
1071.038 .0251726
1071.616 .0251871
1072.194 .0252014
1072.772 .0252152
1073.350 .0252285
1073.928 .0252413
1074.506 .0252536
1075.084 .0252654
1075.662 .0252769
1076.240 .0252881
1076.819 .0252993
1077.397 .0253103
1077.976 .0253213
1078.554 .0253321
1079.133 .0253427
1079.711 .0253529
1080.290 .0253627
1080.869 .0253721
1081.448 .0253812
1082.027 .0253902
1082.606 .0253991
1083.185 .0254080
1083.764 .0254172
1084.343 .0254267
1084.923 .0254365
1085.502 .0254466
1086.082 .0254570
1086.662 .0254676
1087.242 .0254786
1087.822 .0254900
1088.402 .0255020
1088.983 .0255146
1089.563 .0255280
1090.144 .0255424
1090.725 .0255578
1091.306 .0255742
1091.887 .0255916
1092.469 .0256099
1093.050 .0256290
1093.632 .0256488
1094.214 .0256690
1094.796 .0256897
1095.379 .0257109
1095.961 .0257326
1096.544 .0257547
1097.127 .0257775
1097.710 .0258009
1098.294 .0258249
1098.877 .0258496
1099.461 .0258747
1100.046 .0259004
1100.630 .0259265
1101.215 .0259529
1101.800 .0259796
1102.385 .0260065
1102.970 .0260337
1103.556 .0260612
1104.142 .0260892
1104.728 .0261175
1105.315 .0261462
1105.902 .0261753
1106.489 .0262047
1107.077 .0262342
1107.664 .0262638
1108.253 .0262935
1108.841 .0263233
1109.430 .0263532
1110.019 .0263832
1110.609 .0264136
1111.198 .0264443
1111.789 .0264755
1112.379 .0265072
1112.970 .0265394
1113.561 .0265723
1114.153 .0266056
1114.745 .0266394
1115.338 .0266739
1115.931 .0267091
1116.524 .0267450
1117.117 .0267818
1117.712 .0268198
1118.306 .0268588
1118.901 .0268991
1119.496 .0269405
1120.092 .0269831
1120.689 .0270267
1121.285 .0270710
1121.882 .0271161
1122.480 .0271617
1123.078 .0272079
1123.677 .0272547
1124.276 .0273024
1124.875 .0273508
1125.476 .0274000
1126.076 .0274498
1126.677 .0275002
1127.279 .0275514
1127.881 .0276030
1128.484 .0276553
1129.087 .0276794
1129.691 .0277331
1130.295 .0277877
1130.900 .0278431
1131.505 .0278996
1132.111 .0279571
1132.718 .0280160
1133.325 .0280765
1133.933 .0281386
1134.541 .0282013
1135.150 .0282635
1135.760 .0283343
1136.370 .0284110
1136.981 .0284615
1137.592 .0285173
1138.204 .0285757
1138.817 .0286307
1139.431 .0286923
1140.045 .0287565
1140.660 .0288318
1141.275 .0289187
1141.891 .0290072
1142.508 .0290748
1143.126 .0291182
1143.744 .0294164
1144.363 .0296394
1144.983 .0294436
