Measurement Sequence started on: 15-12-46-377
Integration time: 28
Scans to Average: 2 
>>>>>Begin Spectral Data<<<<<
432.689 .0000100
433.621 .0000100
434.552 .0000100
435.482 .0000100
436.410 .0000100
437.337 .0000100
438.262 .0271942
439.187 .0574307
440.110 .0950898
441.031 .1376156
441.952 .1109209
442.871 .1159240
443.789 .1205848
444.705 .1249719
445.621 .1291350
446.535 .1331131
447.447 .1355026
448.359 .1361636
449.269 .1347233
450.178 .1309386
451.086 .1248848
451.993 .1170284
452.898 .1081455
453.803 .0991177
454.706 .0906965
455.608 .0833480
456.508 .0772316
457.408 .0730518
458.306 .0697990
459.204 .0671238
460.100 .0648508
460.995 .0628809
461.888 .0611490
462.781 .0596092
463.673 .0582266
464.563 .0569772
465.452 .0558435
466.340 .0548106
467.228 .0538683
468.114 .0530087
468.999 .0522255
469.882 .0515139
470.765 .0508694
471.647 .0502887
472.528 .0497689
473.407 .0493074
474.286 .0489007
475.163 .0485462
476.040 .0482392
476.915 .0479759
477.790 .0477514
478.663 .0475614
479.535 .0474019
480.407 .0472692
481.277 .0471599
482.147 .0470716
483.015 .0470020
483.883 .0469489
484.749 .0469108
485.615 .0468865
486.479 .0468742
487.343 .0468729
488.206 .0468817
489.067 .0468997
489.928 .0469275
490.788 .0469659
491.647 .0470163
492.505 .0470807
493.362 .0471616
494.218 .0472612
495.073 .0473819
495.928 .0476489
496.781 .0478315
497.634 .0480397
498.486 .0482744
499.337 .0485368
500.187 .0488284
501.036 .0491504
501.884 .0495044
502.731 .0498936
503.578 .0503210
504.424 .0506173
505.268 .0511146
506.113 .0516625
506.956 .0522649
507.798 .0529273
508.640 .0536559
509.480 .0544575
510.320 .0553398
511.160 .0563116
511.998 .0573833
512.836 .0585678
513.672 .0598811
514.508 .0613410
515.344 .0629675
516.178 .0647846
517.012 .0668142
517.845 .0690774
518.677 .0715922
519.508 .0743759
520.339 .0774333
521.169 .0807677
521.998 .0843562
522.826 .0881686
523.654 .0921609
524.481 .0962791
525.307 .1004571
526.133 .1046219
526.958 .1086948
527.782 .1125947
528.605 .1162413
529.428 .1195647
530.250 .1224965
531.072 .1249893
531.892 .1269989
532.712 .1284957
533.532 .1294572
534.350 .1298756
535.168 .1297487
535.986 .1290806
536.802 .1278762
537.618 .1261473
538.434 .1239062
539.249 .1211904
540.063 .1180440
540.876 .1145214
541.689 .1106867
542.501 .1066142
543.313 .1023809
544.124 .0980678
544.934 .0937561
545.744 .0895229
546.553 .0854338
547.361 .0815497
548.169 .0779060
548.976 .0745327
549.783 .0714428
550.589 .0686368
551.395 .0661011
552.200 .0638159
553.004 .0617585
553.808 .0599044
554.611 .0582341
555.414 .0567290
556.216 .0553703
557.018 .0541392
557.819 .0530199
558.619 .0519967
559.419 .0510551
560.218 .0501837
561.017 .0493719
561.815 .0486104
562.613 .0478926
563.410 .0472110
564.207 .0465595
565.003 .0459337
565.799 .0453289
566.594 .0447406
567.388 .0441663
568.182 .0436039
568.976 .0430525
569.769 .0425116
570.562 .0419826
571.354 .0414658
572.145 .0409622
572.936 .0404729
573.727 .0399985
574.517 .0395395
575.307 .0390966
576.096 .0386699
576.885 .0382600
577.673 .0378672
578.461 .0374918
579.248 .0371342
580.035 .0367945
580.821 .0364731
581.607 .0361696
582.392 .0358841
583.177 .0356164
583.962 .0353663
584.746 .0351336
585.529 .0349179
586.313 .0347184
587.095 .0345343
587.878 .0343645
588.660 .0342081
589.441 .0340638
590.222 .0339307
591.003 .0338079
591.783 .0336943
592.563 .0335892
593.342 .0334919
594.121 .0334013
594.899 .0333167
595.678 .0332373
596.455 .0331623
597.233 .0330911
598.009 .0330233
598.786 .0329586
599.562 .0328967
600.338 .0328377
601.113 .0327813
601.888 .0327037
602.663 .0326523
603.437 .0326029
604.211 .0325552
604.984 .0325092
605.757 .0324646
606.530 .0324215
607.302 .0323798
608.074 .0323397
608.845 .0323012
609.616 .0322644
610.387 .0322496
611.158 .0322149
611.928 .0321817
612.697 .0321498
613.467 .0321190
614.236 .0320893
615.004 .0320607
615.773 .0320331
616.541 .0320066
617.308 .0319812
618.076 .0319569
618.843 .0319337
619.609 .0319116
620.375 .0318903
621.141 .0318697
621.907 .0318496
622.672 .0318298
623.437 .0318101
624.202 .0317904
624.966 .0317706
625.730 .0317506
626.493 .0317305
627.257 .0317101
628.020 .0316895
628.782 .0316686
629.545 .0316473
630.307 .0316256
631.068 .0316035
631.830 .0315809
632.591 .0315577
633.352 .0315341
634.112 .0315099
634.872 .0314851
635.632 .0314599
636.392 .0314342
637.151 .0314082
637.910 .0313818
638.668 .0313552
639.427 .0313284
640.185 .0313017
640.943 .0312749
641.700 .0312483
642.457 .0312218
643.214 .0311954
643.971 .0311693
644.727 .0311433
645.483 .0311176
646.239 .0310920
646.994 .0310667
647.750 .0310417
648.505 .0310169
649.259 .0309924
650.014 .0309683
650.768 .0309445
651.521 .0309211
652.275 .0308979
653.028 .0308749
653.781 .0308519
654.534 .0308290
655.286 .0308059
656.039 .0307826
656.791 .0307591
657.542 .0307351
658.294 .0307108
659.045 .0306862
659.796 .0306611
660.546 .0306358
661.297 .0306100
662.047 .0305840
662.796 .0305577
663.546 .0305311
664.295 .0305043
665.044 .0304774
665.793 .0304505
666.542 .0304235
667.290 .0303967
668.038 .0303699
668.786 .0303432
669.533 .0303168
670.281 .0302905
671.028 .0302645
671.774 .0302388
672.521 .0302135
673.267 .0301887
674.013 .0301645
674.759 .0301408
675.505 .0301178
676.250 .0300954
676.995 .0300736
677.740 .0300523
678.484 .0300315
679.229 .0300111
679.973 .0299912
680.717 .0299717
681.460 .0299526
682.204 .0299339
682.947 .0299156
683.690 .0298976
684.433 .0298798
685.175 .0298621
685.917 .0298446
686.659 .0298270
687.401 .0298094
688.142 .0297917
688.884 .0297739
689.625 .0297561
690.365 .0297381
691.106 .0297200
691.846 .0297017
692.586 .0296832
693.326 .0296644
694.066 .0296454
694.805 .0296262
695.545 .0296068
696.284 .0295873
697.022 .0295679
697.761 .0295484
698.499 .0295291
699.237 .0295098
699.975 .0294905
700.713 .0294712
701.450 .0294518
702.187 .0294324
702.924 .0294130
703.661 .0293936
704.397 .0293745
705.133 .0293557
705.869 .0293372
706.605 .0293190
707.341 .0293011
708.076 .0292836
708.811 .0292662
709.546 .0292491
710.281 .0292321
711.015 .0292153
711.749 .0291987
712.483 .0291823
713.217 .0291661
713.950 .0291501
714.684 .0291344
715.417 .0291188
716.150 .0291033
716.882 .0290878
717.615 .0290725
718.347 .0290571
719.079 .0290418
719.811 .0290265
720.542 .0290112
721.273 .0289958
722.005 .0289802
722.735 .0289645
723.466 .0289486
724.196 .0289326
724.927 .0289166
725.656 .0289005
726.386 .0288846
727.116 .0288688
727.845 .0288532
728.574 .0288378
729.303 .0288225
730.031 .0288074
730.760 .0287923
731.488 .0287774
732.216 .0287626
732.944 .0287479
733.671 .0287334
734.398 .0287192
735.125 .0287052
735.852 .0286916
736.579 .0286782
737.305 .0286651
738.031 .0286523
738.757 .0286398
739.483 .0286276
740.208 .0286156
740.933 .0286038
741.658 .0285921
742.383 .0285805
743.108 .0285689
743.832 .0285574
744.556 .0285459
745.280 .0285344
746.004 .0285228
746.727 .0285112
747.450 .0284995
748.173 .0284879
748.896 .0284761
749.618 .0284644
750.340 .0284525
751.062 .0284405
751.784 .0284283
752.506 .0284160
753.227 .0284033
753.948 .0283904
754.669 .0283771
755.389 .0283635
756.110 .0283496
756.830 .0283353
757.550 .0283208
758.269 .0283061
758.989 .0282911
759.708 .0282759
760.427 .0282605
761.146 .0282448
761.864 .0282289
762.582 .0282127
763.300 .0281964
764.018 .0281800
764.736 .0281634
765.453 .0281468
766.170 .0281302
766.887 .0281135
767.603 .0280969
768.320 .0280803
769.036 .0280637
769.751 .0280470
770.467 .0280305
771.182 .0280140
771.897 .0279976
772.612 .0279814
773.327 .0279654
774.041 .0279495
774.755 .0279339
775.469 .0279185
776.183 .0279034
776.896 .0278885
777.609 .0278739
778.322 .0278597
779.035 .0278458
779.747 .0278323
780.459 .0278191
781.171 .0278063
781.882 .0277938
782.594 .0277817
783.305 .0277699
784.016 .0277585
784.726 .0277473
785.436 .0277365
786.147 .0277216
786.856 .0277112
787.566 .0277009
788.275 .0276907
788.984 .0276806
789.693 .0276704
790.401 .0276603
791.110 .0276502
791.818 .0276400
792.525 .0276298
793.233 .0276195
793.940 .0276092
794.647 .0276030
795.353 .0275925
796.060 .0275817
796.766 .0275709
797.472 .0275599
798.177 .0275487
798.883 .0275373
799.588 .0275258
800.292 .0275141
800.997 .0275022
801.701 .0274901
802.405 .0274778
803.109 .0274654
803.812 .0274527
804.515 .0274400
805.218 .0274271
805.921 .0274141
806.623 .0274011
807.325 .0273881
808.027 .0273749
808.728 .0273618
809.429 .0273486
810.130 .0273354
810.831 .0273221
811.531 .0273089
812.231 .0272956
812.931 .0272824
813.630 .0272692
814.330 .0272561
815.029 .0272432
815.727 .0272304
816.426 .0272178
817.124 .0272055
817.821 .0271934
818.519 .0271816
819.216 .0271702
819.913 .0271591
820.609 .0271484
821.306 .0271380
822.002 .0271280
822.697 .0271184
823.393 .0271092
824.088 .0271005
824.783 .0270922
825.477 .0270843
826.171 .0270769
826.865 .0270698
827.559 .0270631
828.252 .0270568
828.945 .0270508
829.638 .0270451
830.330 .0270397
831.023 .0270345
831.714 .0270295
832.406 .0270247
833.097 .0270199
833.788 .0270153
834.479 .0270106
835.169 .0270059
835.859 .0270012
836.548 .0269965
837.238 .0269917
837.927 .0269869
838.615 .0269819
839.304 .0269768
839.992 .0269716
840.680 .0269662
841.367 .0269606
842.054 .0269547
842.741 .0269485
843.428 .0269422
844.114 .0269355
844.800 .0269286
845.485 .0269215
846.170 .0269140
846.855 .0269064
847.540 .0268984
848.224 .0268901
848.908 .0268815
849.592 .0268726
850.275 .0268633
850.958 .0268538
851.641 .0268440
852.323 .0268340
853.005 .0268238
853.687 .0268135
854.368 .0268031
855.049 .0267926
855.730 .0267820
856.410 .0267714
857.090 .0267607
857.769 .0267499
858.449 .0267391
859.128 .0267283
859.806 .0267175
860.485 .0267067
861.163 .0266961
861.840 .0266856
862.518 .0266754
863.195 .0266655
863.871 .0266558
864.548 .0266465
865.224 .0266374
865.899 .0266286
866.574 .0266200
867.249 .0266117
867.924 .0266034
868.598 .0265954
869.272 .0265875
869.946 .0265797
870.619 .0265721
871.292 .0265645
871.964 .0265571
872.636 .0265498
873.308 .0265426
873.979 .0265354
874.651 .0265283
875.321 .0265213
875.992 .0265144
876.662 .0265074
877.331 .0265005
878.001 .0264935
878.670 .0264865
879.338 .0264794
880.007 .0264722
880.675 .0264649
881.342 .0264575
882.009 .0264501
882.676 .0264427
883.343 .0264354
884.009 .0264282
884.675 .0264211
885.340 .0264141
886.005 .0264073
886.670 .0264006
887.334 .0263942
887.998 .0263878
888.662 .0263817
889.325 .0263758
889.988 .0263702
890.650 .0263649
891.312 .0263599
891.974 .0263551
892.636 .0263507
893.297 .0263465
893.957 .0263425
894.618 .0263387
895.278 .0263349
895.937 .0263309
896.596 .0263268
897.255 .0263224
897.914 .0263175
898.572 .0263122
899.230 .0263062
899.887 .0262997
900.544 .0262925
901.201 .0262846
901.857 .0262691
902.513 .0262592
903.168 .0262485
903.823 .0262370
904.478 .0262246
905.132 .0262114
905.786 .0261974
906.440 .0261826
907.093 .0261671
907.746 .0261509
908.399 .0261343
909.051 .0261171
909.703 .0260995
910.354 .0260900
911.005 .0260723
911.656 .0260543
912.306 .0260362
912.956 .0260181
913.605 .0260001
914.254 .0259822
914.903 .0259646
915.551 .0259472
916.199 .0259300
916.847 .0259131
917.494 .0258962
918.141 .0258794
918.788 .0258625
919.434 .0258456
920.079 .0258286
920.725 .0258116
921.370 .0257945
922.014 .0257773
922.658 .0257600
923.302 .0257426
923.946 .0257249
924.589 .0257070
925.231 .0256886
925.873 .0256699
926.515 .0256507
927.157 .0256311
927.798 .0256112
928.439 .0255910
929.079 .0255706
929.719 .0255499
930.359 .0255291
930.998 .0255081
931.637 .0254868
932.275 .0254655
932.913 .0254439
933.551 .0254223
934.188 .0254008
934.825 .0253794
935.462 .0253583
936.098 .0253375
936.733 .0253172
937.369 .0252973
938.004 .0252778
938.638 .0252587
939.273 .0252399
939.907 .0252217
940.540 .0252038
941.173 .0251865
941.806 .0251697
942.438 .0251537
943.070 .0251382
943.702 .0251234
944.333 .0251091
944.964 .0250953
945.594 .0250818
946.224 .0250686
946.854 .0250556
947.483 .0250428
948.112 .0250302
948.741 .0250178
949.369 .0250056
949.996 .0249937
950.624 .0249821
951.251 .0249707
951.878 .0249593
952.504 .0249481
953.130 .0249368
953.755 .0249256
954.380 .0249145
955.005 .0249035
955.629 .0248927
956.253 .0248821
956.877 .0248717
957.500 .0248615
958.123 .0248514
958.746 .0248414
959.368 .0248315
959.990 .0248216
960.611 .0248118
961.232 .0248021
961.853 .0247926
962.473 .0247833
963.093 .0247743
963.712 .0247655
964.331 .0247568
964.950 .0247484
965.569 .0247400
966.187 .0247317
966.804 .0247235
967.422 .0247154
968.039 .0247073
968.655 .0246993
969.272 .0246913
969.887 .0246836
970.503 .0246759
971.118 .0246683
971.733 .0246607
972.347 .0246530
972.961 .0246453
973.575 .0246374
974.188 .0246295
974.801 .0246215
975.414 .0246134
976.026 .0246053
976.638 .0245972
977.250 .0245890
977.861 .0245807
978.472 .0245723
979.083 .0245638
979.693 .0245551
980.303 .0245463
980.912 .0245326
981.521 .0245237
982.130 .0245149
982.738 .0245061
983.346 .0244975
983.954 .0244890
984.562 .0244806
985.169 .0244724
985.775 .0244643
986.382 .0244564
986.988 .0244488
987.594 .0244414
988.199 .0244345
988.804 .0244280
989.409 .0244262
990.013 .0244205
990.617 .0244153
991.221 .0244106
991.824 .0244064
992.427 .0244028
993.030 .0243996
993.632 .0243971
994.234 .0243951
994.836 .0243937
995.438 .0243929
996.039 .0243927
996.640 .0243930
997.240 .0243938
997.840 .0243952
998.440 .0243970
999.040 .0243992
999.639 .0244018
1000.238 .0244047
1000.836 .0244080
1001.435 .0244116
1002.033 .0244154
1002.630 .0244195
1003.228 .0244238
1003.825 .0244283
1004.422 .0244329
1005.018 .0244375
1005.614 .0244422
1006.210 .0244469
1006.806 .0244516
1007.401 .0244563
1007.996 .0244611
1008.591 .0244660
1009.186 .0244710
1009.780 .0244761
1010.374 .0244815
1010.967 .0244870
1011.561 .0244927
1012.154 .0244987
1012.746 .0245049
1013.339 .0245115
1013.931 .0245183
1014.523 .0245254
1015.115 .0245330
1015.706 .0245409
1016.298 .0245493
1016.888 .0245581
1017.479 .0245674
1018.069 .0245772
1018.660 .0245875
1019.250 .0245983
1019.839 .0246096
1020.429 .0246212
1021.018 .0246332
1021.607 .0246455
1022.195 .0246581
1022.784 .0246710
1023.372 .0246841
1023.960 .0246976
1024.547 .0247113
1025.135 .0247253
1025.722 .0247395
1026.309 .0247540
1026.896 .0247685
1027.483 .0247831
1028.069 .0247974
1028.655 .0248116
1029.241 .0248254
1029.827 .0248388
1030.412 .0248519
1030.997 .0248646
1031.582 .0248769
1032.167 .0248887
1032.752 .0249001
1033.336 .0249110
1033.921 .0249214
1034.505 .0249311
1035.089 .0249403
1035.672 .0249488
1036.256 .0249567
1036.839 .0249639
1037.422 .0249705
1038.005 .0249766
1038.588 .0249822
1039.171 .0249875
1039.753 .0249923
1040.335 .0249968
1040.918 .0250009
1041.500 .0250046
1042.081 .0250078
1042.663 .0250105
1043.244 .0250127
1043.826 .0250143
1044.407 .0250156
1044.988 .0250165
1045.569 .0250172
1046.150 .0250179
1046.730 .0250186
1047.311 .0250195
1047.891 .0250206
1048.471 .0250220
1049.052 .0250237
1049.632 .0250255
1050.211 .0250276
1050.791 .0250299
1051.371 .0250326
1051.950 .0250356
1052.530 .0250391
1053.109 .0250430
1053.688 .0250473
1054.268 .0250521
1054.847 .0250572
1055.426 .0250625
1056.005 .0250679
1056.583 .0250733
1057.162 .0250787
1057.741 .0250840
1058.319 .0250892
1058.898 .0250945
1059.476 .0250999
1060.055 .0251053
1060.633 .0251107
1061.211 .0251162
1061.790 .0251215
1062.368 .0251268
1062.946 .0251318
1063.524 .0251365
1064.102 .0251407
1064.680 .0251445
1065.258 .0251478
1065.836 .0251506
1066.414 .0251529
1066.992 .0251549
1067.570 .0251564
1068.148 .0251575
1068.726 .0251583
1069.304 .0251586
1069.882 .0251587
1070.460 .0251586
1071.038 .0251582
1071.616 .0251578
1072.194 .0251574
1072.772 .0251571
1073.350 .0251570
1073.928 .0251571
1074.506 .0251574
1075.084 .0251580
1075.662 .0251588
1076.240 .0251597
1076.819 .0251607
1077.397 .0251619
1077.976 .0251631
1078.554 .0251644
1079.133 .0251659
1079.711 .0251677
1080.290 .0251699
1080.869 .0251724
1081.448 .0251753
1082.027 .0251787
1082.606 .0251825
1083.185 .0251868
1083.764 .0251914
1084.343 .0251964
1084.923 .0252019
1085.502 .0252078
1086.082 .0252144
1086.662 .0252216
1087.242 .0252295
1087.822 .0252381
1088.402 .0252475
1088.983 .0252574
1089.563 .0252678
1090.144 .0252786
1090.725 .0252898
1091.306 .0253013
1091.887 .0253130
1092.469 .0253248
1093.050 .0253370
1093.632 .0253493
1094.214 .0253619
1094.796 .0253745
1095.379 .0253872
1095.961 .0253999
1096.544 .0254123
1097.127 .0254245
1097.710 .0254366
1098.294 .0254485
1098.877 .0254604
1099.461 .0254723
1100.046 .0254841
1100.630 .0254960
1101.215 .0255080
1101.800 .0255200
1102.385 .0255318
1102.970 .0255436
1103.556 .0255550
1104.142 .0255661
1104.728 .0255769
1105.315 .0255875
1105.902 .0255981
1106.489 .0256088
1107.077 .0256198
1107.664 .0256313
1108.253 .0256433
1108.841 .0256562
1109.430 .0256702
1110.019 .0256857
1110.609 .0257028
1111.198 .0257218
1111.789 .0257431
1112.379 .0257667
1112.970 .0257928
1113.561 .0258215
1114.153 .0258529
1114.745 .0258868
1115.338 .0259232
1115.931 .0259619
1116.524 .0260028
1117.117 .0260457
1117.712 .0260905
1118.306 .0261367
1118.901 .0261841
1119.496 .0262324
1120.092 .0262814
1120.689 .0263310
1121.285 .0263811
1121.882 .0264318
1122.480 .0264831
1123.078 .0265353
1123.677 .0265884
1124.276 .0266426
1124.875 .0266981
1125.476 .0267550
1126.076 .0268134
1126.677 .0268732
1127.279 .0269345
1127.881 .0269973
1128.484 .0270620
1129.087 .0270933
1129.691 .0271599
1130.295 .0272288
1130.900 .0273003
1131.505 .0273749
1132.111 .0274532
1132.718 .0275352
1133.325 .0276216
1133.933 .0277134
1134.541 .0278109
1135.150 .0279131
1135.760 .0280183
1136.370 .0281337
1136.981 .0279950
1137.592 .0281204
1138.204 .0282564
1138.817 .0284061
1139.431 .0285700
1140.045 .0287464
1140.660 .0289315
1141.275 .0291293
1141.891 .0293505
1142.508 .0295806
1143.126 .0297787
1143.744 .0299161
1144.363 .0302482
1144.983 .0309272
