Measurement Sequence started on: 15-12-46-377
Integration time: 28
Scans to Average: 2 
>>>>>Begin Spectral Data<<<<<
432.689 .0000100
433.621 .0000100
434.552 .0000100
435.482 .0000100
436.410 .0000100
437.337 .0000100
438.262 .0260768
439.187 .0552625
440.110 .0916550
441.031 .1327591
441.952 .1075876
442.871 .1125055
443.789 .1170975
444.705 .1214326
445.621 .1255582
446.535 .1295118
447.447 .1319468
448.359 .1327204
449.269 .1314698
450.178 .1279602
451.086 .1222586
451.993 .1148139
452.898 .1063727
453.803 .0977870
454.706 .0897830
455.608 .0828157
456.508 .0770413
457.408 .0731360
458.306 .0701355
459.204 .0676969
460.100 .0656454
460.995 .0638841
461.888 .0623456
462.781 .0609849
463.673 .0597670
464.563 .0586691
465.452 .0576726
466.340 .0567632
467.228 .0559305
468.114 .0551661
468.999 .0544631
469.882 .0538161
470.765 .0532204
471.647 .0526725
472.528 .0521698
473.407 .0517094
474.286 .0512893
475.163 .0509087
476.040 .0505661
476.915 .0502603
477.790 .0499901
478.663 .0497546
479.535 .0495520
480.407 .0493810
481.277 .0492392
482.147 .0491242
483.015 .0490331
483.883 .0489633
484.749 .0489122
485.615 .0488779
486.479 .0488589
487.343 .0488542
488.206 .0488639
489.067 .0488879
489.928 .0489269
490.788 .0489819
491.647 .0490535
492.505 .0491421
493.362 .0492480
494.218 .0493712
495.073 .0495122
495.928 .0497944
496.781 .0499858
497.634 .0501994
498.486 .0504365
499.337 .0506994
500.187 .0509906
501.036 .0513131
501.884 .0516698
502.731 .0520647
503.578 .0525016
504.424 .0528077
505.268 .0533224
506.113 .0538920
506.956 .0545213
507.798 .0552165
508.640 .0559848
509.480 .0568354
510.320 .0577809
511.160 .0588361
511.998 .0600169
512.836 .0613437
513.672 .0628373
514.508 .0645198
515.344 .0664118
516.178 .0685366
517.012 .0709184
517.845 .0735791
518.677 .0765368
519.508 .0798072
520.339 .0833969
521.169 .0873073
521.998 .0915141
522.826 .0959775
523.654 .1006380
524.481 .1054238
525.307 .1102478
526.133 .1150159
526.958 .1196287
527.782 .1239901
528.605 .1280095
529.428 .1316110
530.250 .1347233
531.072 .1372968
531.892 .1392933
532.712 .1406890
533.532 .1414666
534.350 .1416207
535.168 .1411537
535.986 .1400782
536.802 .1384066
537.618 .1361569
538.434 .1333475
539.249 .1300215
540.063 .1262334
540.876 .1220514
541.689 .1175542
542.501 .1128319
543.313 .1079779
544.124 .1030897
544.934 .0982571
545.744 .0935622
546.553 .0890707
547.361 .0848403
548.169 .0809042
548.976 .0772828
549.783 .0739817
550.589 .0709974
551.395 .0683125
552.200 .0659039
553.004 .0637396
553.808 .0617900
554.611 .0600283
555.414 .0584320
556.216 .0569779
557.018 .0556474
557.819 .0544265
558.619 .0533032
559.419 .0522668
560.218 .0513103
561.017 .0504251
561.815 .0496037
562.613 .0488389
563.410 .0481233
564.207 .0474485
565.003 .0468093
565.799 .0461993
566.594 .0456147
567.388 .0450519
568.182 .0445084
568.976 .0439819
569.769 .0434716
570.562 .0429776
571.354 .0424986
572.145 .0420339
572.936 .0415836
573.727 .0411462
574.517 .0407213
575.307 .0403084
576.096 .0399073
576.885 .0395184
577.673 .0391426
578.461 .0387806
579.248 .0384335
580.035 .0381025
580.821 .0377887
581.607 .0374923
582.392 .0372137
583.177 .0369529
583.962 .0367091
584.746 .0364821
585.529 .0362712
586.313 .0360751
587.095 .0358929
587.878 .0357235
588.660 .0355661
589.441 .0354198
590.222 .0352842
591.003 .0351583
591.783 .0350416
592.563 .0349334
593.342 .0348328
594.121 .0347387
594.899 .0346506
595.678 .0345675
596.455 .0344885
597.233 .0344132
598.009 .0343409
598.786 .0342715
599.562 .0342046
600.338 .0341401
601.113 .0340778
601.888 .0339919
602.663 .0339350
603.437 .0338803
604.211 .0338277
604.984 .0337772
605.757 .0337288
606.530 .0336823
607.302 .0336377
608.074 .0335949
608.845 .0335538
609.616 .0335144
610.387 .0334990
611.158 .0334620
611.928 .0334267
612.697 .0333931
613.467 .0333611
614.236 .0333307
615.004 .0333017
615.773 .0332740
616.541 .0332475
617.308 .0332221
618.076 .0331976
618.843 .0331739
619.609 .0331509
620.375 .0331284
621.141 .0331064
621.907 .0330847
622.672 .0330632
623.437 .0330417
624.202 .0330200
624.966 .0329982
625.730 .0329760
626.493 .0329535
627.257 .0329306
628.020 .0329072
628.782 .0328832
629.545 .0328586
630.307 .0328332
631.068 .0328069
631.830 .0327799
632.591 .0327520
633.352 .0327233
634.112 .0326939
634.872 .0326639
635.632 .0326332
636.392 .0326020
637.151 .0325702
637.910 .0325380
638.668 .0325054
639.427 .0324724
640.185 .0324392
640.943 .0324058
641.700 .0323726
642.457 .0323395
643.214 .0323066
643.971 .0322741
644.727 .0322418
645.483 .0322099
646.239 .0321782
646.994 .0321468
647.750 .0321156
648.505 .0320848
649.259 .0320542
650.014 .0320240
650.768 .0319941
651.521 .0319646
652.275 .0319353
653.028 .0319062
653.781 .0318773
654.534 .0318484
655.286 .0318193
656.039 .0317901
656.791 .0317608
657.542 .0317313
658.294 .0317018
659.045 .0316723
659.796 .0316428
660.546 .0316135
661.297 .0315845
662.047 .0315558
662.796 .0315274
663.546 .0314994
664.295 .0314718
665.044 .0314446
665.793 .0314178
666.542 .0313915
667.290 .0313658
668.038 .0313406
668.786 .0313160
669.533 .0312920
670.281 .0312686
671.028 .0312458
671.774 .0312237
672.521 .0312022
673.267 .0311813
674.013 .0311610
674.759 .0311410
675.505 .0311214
676.250 .0311020
676.995 .0310828
677.740 .0310636
678.484 .0310446
679.229 .0310257
679.973 .0310069
680.717 .0309883
681.460 .0309698
682.204 .0309515
682.947 .0309333
683.690 .0309152
684.433 .0308969
685.175 .0308787
685.917 .0308603
686.659 .0308419
687.401 .0308236
688.142 .0308053
688.884 .0307872
689.625 .0307693
690.365 .0307517
691.106 .0307344
691.846 .0307173
692.586 .0307004
693.326 .0306836
694.066 .0306669
694.805 .0306503
695.545 .0306337
696.284 .0306173
697.022 .0306009
697.761 .0305846
698.499 .0305683
699.237 .0305522
699.975 .0305360
700.713 .0305199
701.450 .0305037
702.187 .0304873
702.924 .0304707
703.661 .0304539
704.397 .0304368
705.133 .0304194
705.869 .0304018
706.605 .0303838
707.341 .0303655
708.076 .0303470
708.811 .0303282
709.546 .0303092
710.281 .0302899
711.015 .0302703
711.749 .0302504
712.483 .0302302
713.217 .0302097
713.950 .0301888
714.684 .0301676
715.417 .0301462
716.150 .0301245
716.882 .0301026
717.615 .0300804
718.347 .0300582
719.079 .0300358
719.811 .0300132
720.542 .0299905
721.273 .0299676
722.005 .0299445
722.735 .0299213
723.466 .0298980
724.196 .0298748
724.927 .0298517
725.656 .0298287
726.386 .0298060
727.116 .0297835
727.845 .0297613
728.574 .0297395
729.303 .0297180
730.031 .0296969
730.760 .0296762
731.488 .0296558
732.216 .0296359
732.944 .0296166
733.671 .0295977
734.398 .0295794
735.125 .0295617
735.852 .0295445
736.579 .0295278
737.305 .0295117
738.031 .0294961
738.757 .0294809
739.483 .0294662
740.208 .0294518
740.933 .0294376
741.658 .0294236
742.383 .0294098
743.108 .0293959
743.832 .0293821
744.556 .0293682
745.280 .0293543
746.004 .0293403
746.727 .0293264
747.450 .0293123
748.173 .0292983
748.896 .0292841
749.618 .0292698
750.340 .0292554
751.062 .0292409
751.784 .0292264
752.506 .0292118
753.227 .0291974
753.948 .0291830
754.669 .0291687
755.389 .0291546
756.110 .0291407
756.830 .0291270
757.550 .0291135
758.269 .0291003
758.989 .0290875
759.708 .0290750
760.427 .0290629
761.146 .0290511
761.864 .0290396
762.582 .0290283
763.300 .0290173
764.018 .0290064
764.736 .0289958
765.453 .0289853
766.170 .0289750
766.887 .0289650
767.603 .0289553
768.320 .0289460
769.036 .0289370
769.751 .0289283
770.467 .0289199
771.182 .0289117
771.897 .0289038
772.612 .0288961
773.327 .0288887
774.041 .0288816
774.755 .0288748
775.469 .0288684
776.183 .0288624
776.896 .0288568
777.609 .0288517
778.322 .0288469
779.035 .0288425
779.747 .0288384
780.459 .0288346
781.171 .0288311
781.882 .0288278
782.594 .0288246
783.305 .0288216
784.016 .0288185
784.726 .0288153
785.436 .0288119
786.147 .0288060
786.856 .0288018
787.566 .0287974
788.275 .0287926
788.984 .0287876
789.693 .0287822
790.401 .0287764
791.110 .0287701
791.818 .0287633
792.525 .0287558
793.233 .0287476
793.940 .0287389
794.647 .0287330
795.353 .0287236
796.060 .0287140
796.766 .0287040
797.472 .0286938
798.177 .0286832
798.883 .0286724
799.588 .0286612
800.292 .0286496
800.997 .0286377
801.701 .0286256
802.405 .0286132
803.109 .0286007
803.812 .0285882
804.515 .0285756
805.218 .0285630
805.921 .0285503
806.623 .0285374
807.325 .0285243
808.027 .0285108
808.728 .0284971
809.429 .0284831
810.130 .0284688
810.831 .0284543
811.531 .0284395
812.231 .0284244
812.931 .0284090
813.630 .0283933
814.330 .0283772
815.029 .0283609
815.727 .0283443
816.426 .0283276
817.124 .0283108
817.821 .0282940
818.519 .0282773
819.216 .0282607
819.913 .0282441
820.609 .0282275
821.306 .0282109
822.002 .0281944
822.697 .0281778
823.393 .0281613
824.088 .0281450
824.783 .0281289
825.477 .0281131
826.171 .0280975
826.865 .0280821
827.559 .0280670
828.252 .0280520
828.945 .0280372
829.638 .0280226
830.330 .0280080
831.023 .0279935
831.714 .0279791
832.406 .0279648
833.097 .0279506
833.788 .0279364
834.479 .0279222
835.169 .0279080
835.859 .0278938
836.548 .0278796
837.238 .0278654
837.927 .0278511
838.615 .0278369
839.304 .0278226
839.992 .0278083
840.680 .0277939
841.367 .0277795
842.054 .0277651
842.741 .0277506
843.428 .0277363
844.114 .0277220
844.800 .0277079
845.485 .0276939
846.170 .0276801
846.855 .0276666
847.540 .0276533
848.224 .0276402
848.908 .0276274
849.592 .0276147
850.275 .0276021
850.958 .0275896
851.641 .0275773
852.323 .0275650
853.005 .0275528
853.687 .0275407
854.368 .0275286
855.049 .0275166
855.730 .0275047
856.410 .0274930
857.090 .0274814
857.769 .0274699
858.449 .0274588
859.128 .0274478
859.806 .0274371
860.485 .0274267
861.163 .0274166
861.840 .0274067
862.518 .0273971
863.195 .0273878
863.871 .0273787
864.548 .0273699
865.224 .0273612
865.899 .0273529
866.574 .0273449
867.249 .0273372
867.924 .0273298
868.598 .0273228
869.272 .0273161
869.946 .0273097
870.619 .0273036
871.292 .0272977
871.964 .0272921
872.636 .0272867
873.308 .0272816
873.979 .0272769
874.651 .0272725
875.321 .0272684
875.992 .0272648
876.662 .0272615
877.331 .0272586
878.001 .0272560
878.670 .0272537
879.338 .0272517
880.007 .0272500
880.675 .0272485
881.342 .0272473
882.009 .0272463
882.676 .0272455
883.343 .0272449
884.009 .0272445
884.675 .0272444
885.340 .0272444
886.005 .0272448
886.670 .0272454
887.334 .0272464
887.998 .0272478
888.662 .0272496
889.325 .0272517
889.988 .0272543
890.650 .0272572
891.312 .0272605
891.974 .0272640
892.636 .0272678
893.297 .0272717
893.957 .0272759
894.618 .0272801
895.278 .0272844
895.937 .0272886
896.596 .0272926
897.255 .0272964
897.914 .0272999
898.572 .0273030
899.230 .0273056
899.887 .0273076
900.544 .0273090
901.201 .0273096
901.857 .0273069
902.513 .0273052
903.168 .0273027
903.823 .0272992
904.478 .0272947
905.132 .0272892
905.786 .0272827
906.440 .0272752
907.093 .0272667
907.746 .0272571
908.399 .0272467
909.051 .0272353
909.703 .0272231
910.354 .0272151
911.005 .0272023
911.656 .0271889
912.306 .0271750
912.956 .0271607
913.605 .0271461
914.254 .0271311
914.903 .0271158
915.551 .0271003
916.199 .0270846
916.847 .0270687
917.494 .0270527
918.141 .0270366
918.788 .0270204
919.434 .0270041
920.079 .0269877
920.725 .0269711
921.370 .0269543
922.014 .0269372
922.658 .0269197
923.302 .0269018
923.946 .0268834
924.589 .0268645
925.231 .0268452
925.873 .0268254
926.515 .0268052
927.157 .0267845
927.798 .0267635
928.439 .0267421
929.079 .0267203
929.719 .0266981
930.359 .0266757
930.998 .0266529
931.637 .0266300
932.275 .0266069
932.913 .0265837
933.551 .0265606
934.188 .0265377
934.825 .0265151
935.462 .0264928
936.098 .0264709
936.733 .0264494
937.369 .0264284
938.004 .0264077
938.638 .0263876
939.273 .0263679
939.907 .0263489
940.540 .0263304
941.173 .0263125
941.806 .0262952
942.438 .0262784
943.070 .0262621
943.702 .0262460
944.333 .0262301
944.964 .0262144
945.594 .0261986
946.224 .0261827
946.854 .0261667
947.483 .0261506
948.112 .0261344
948.741 .0261179
949.369 .0261011
949.996 .0260840
950.624 .0260665
951.251 .0260485
951.878 .0260300
952.504 .0260110
953.130 .0259915
953.755 .0259715
954.380 .0259512
955.005 .0259306
955.629 .0259098
956.253 .0258888
956.877 .0258676
957.500 .0258462
958.123 .0258248
958.746 .0258034
959.368 .0257822
959.990 .0257611
960.611 .0257403
961.232 .0257199
961.853 .0256999
962.473 .0256804
963.093 .0256614
963.712 .0256427
964.331 .0256246
964.950 .0256068
965.569 .0255895
966.187 .0255726
966.804 .0255562
967.422 .0255401
968.039 .0255245
968.655 .0255091
969.272 .0254939
969.887 .0254789
970.503 .0254640
971.118 .0254492
971.733 .0254345
972.347 .0254200
972.961 .0254056
973.575 .0253915
974.188 .0253775
974.801 .0253637
975.414 .0253500
976.026 .0253364
976.638 .0253228
977.250 .0253093
977.861 .0252958
978.472 .0252823
979.083 .0252689
979.693 .0252556
980.303 .0252424
980.912 .0252234
981.521 .0252105
982.130 .0251977
982.738 .0251851
983.346 .0251727
983.954 .0251605
984.562 .0251488
985.169 .0251375
985.775 .0251267
986.382 .0251165
986.988 .0251070
987.594 .0250982
988.199 .0250901
988.804 .0250826
989.409 .0250807
990.013 .0250744
990.617 .0250689
991.221 .0250641
991.824 .0250600
992.427 .0250566
993.030 .0250539
993.632 .0250517
994.234 .0250500
994.836 .0250488
995.438 .0250480
996.039 .0250475
996.640 .0250474
997.240 .0250476
997.840 .0250483
998.440 .0250495
999.040 .0250512
999.639 .0250533
1000.238 .0250560
1000.836 .0250591
1001.435 .0250627
1002.033 .0250667
1002.630 .0250710
1003.228 .0250757
1003.825 .0250806
1004.422 .0250858
1005.018 .0250911
1005.614 .0250965
1006.210 .0251021
1006.806 .0251077
1007.401 .0251133
1007.996 .0251190
1008.591 .0251248
1009.186 .0251306
1009.780 .0251366
1010.374 .0251427
1010.967 .0251490
1011.561 .0251554
1012.154 .0251620
1012.746 .0251688
1013.339 .0251758
1013.931 .0251833
1014.523 .0251911
1015.115 .0251995
1015.706 .0252084
1016.298 .0252180
1016.888 .0252281
1017.479 .0252388
1018.069 .0252499
1018.660 .0252613
1019.250 .0252732
1019.839 .0252854
1020.429 .0252981
1021.018 .0253113
1021.607 .0253250
1022.195 .0253394
1022.784 .0253545
1023.372 .0253703
1023.960 .0253868
1024.547 .0254038
1025.135 .0254213
1025.722 .0254392
1026.309 .0254574
1026.896 .0254759
1027.483 .0254947
1028.069 .0255138
1028.655 .0255331
1029.241 .0255528
1029.827 .0255728
1030.412 .0255929
1030.997 .0256132
1031.582 .0256334
1032.167 .0256535
1032.752 .0256734
1033.336 .0256929
1033.921 .0257119
1034.505 .0257306
1035.089 .0257488
1035.672 .0257667
1036.256 .0257841
1036.839 .0258011
1037.422 .0258176
1038.005 .0258336
1038.588 .0258490
1039.171 .0258639
1039.753 .0258781
1040.335 .0258918
1040.918 .0259049
1041.500 .0259175
1042.081 .0259296
1042.663 .0259413
1043.244 .0259526
1043.826 .0259635
1044.407 .0259743
1044.988 .0259848
1045.569 .0259952
1046.150 .0260056
1046.730 .0260160
1047.311 .0260264
1047.891 .0260368
1048.471 .0260472
1049.052 .0260575
1049.632 .0260676
1050.211 .0260775
1050.791 .0260872
1051.371 .0260968
1051.950 .0261061
1052.530 .0261153
1053.109 .0261243
1053.688 .0261329
1054.268 .0261411
1054.847 .0261488
1055.426 .0261558
1056.005 .0261620
1056.583 .0261675
1057.162 .0261723
1057.741 .0261763
1058.319 .0261797
1058.898 .0261826
1059.476 .0261851
1060.055 .0261871
1060.633 .0261887
1061.211 .0261898
1061.790 .0261905
1062.368 .0261909
1062.946 .0261909
1063.524 .0261906
1064.102 .0261903
1064.680 .0261899
1065.258 .0261895
1065.836 .0261894
1066.414 .0261894
1066.992 .0261896
1067.570 .0261900
1068.148 .0261905
1068.726 .0261911
1069.304 .0261919
1069.882 .0261929
1070.460 .0261940
1071.038 .0261954
1071.616 .0261970
1072.194 .0261989
1072.772 .0262009
1073.350 .0262031
1073.928 .0262053
1074.506 .0262073
1075.084 .0262092
1075.662 .0262109
1076.240 .0262125
1076.819 .0262138
1077.397 .0262151
1077.976 .0262162
1078.554 .0262172
1079.133 .0262178
1079.711 .0262182
1080.290 .0262180
1080.869 .0262173
1081.448 .0262159
1082.027 .0262139
1082.606 .0262112
1083.185 .0262081
1083.764 .0262048
1084.343 .0262016
1084.923 .0261987
1085.502 .0261965
1086.082 .0261951
1086.662 .0261946
1087.242 .0261951
1087.822 .0261967
1088.402 .0261994
1088.983 .0262031
1089.563 .0262079
1090.144 .0262139
1090.725 .0262211
1091.306 .0262296
1091.887 .0262394
1092.469 .0262504
1093.050 .0262624
1093.632 .0262750
1094.214 .0262881
1094.796 .0263013
1095.379 .0263146
1095.961 .0263277
1096.544 .0263409
1097.127 .0263541
1097.710 .0263675
1098.294 .0263813
1098.877 .0263957
1099.461 .0264108
1100.046 .0264264
1100.630 .0264424
1101.215 .0264586
1101.800 .0264747
1102.385 .0264904
1102.970 .0265055
1103.556 .0265200
1104.142 .0265339
1104.728 .0265472
1105.315 .0265602
1105.902 .0265729
1106.489 .0265855
1107.077 .0265981
1107.664 .0266106
1108.253 .0266230
1108.841 .0266353
1109.430 .0266475
1110.019 .0266598
1110.609 .0266725
1111.198 .0266859
1111.789 .0267003
1112.379 .0267163
1112.970 .0267337
1113.561 .0267528
1114.153 .0267734
1114.745 .0267954
1115.338 .0268186
1115.931 .0268429
1116.524 .0268681
1117.117 .0268944
1117.712 .0269219
1118.306 .0269508
1118.901 .0269812
1119.496 .0270132
1120.092 .0270468
1120.689 .0270820
1121.285 .0271187
1121.882 .0271569
1122.480 .0271967
1123.078 .0272382
1123.677 .0272816
1124.276 .0273270
1124.875 .0273744
1125.476 .0274241
1126.076 .0274763
1126.677 .0275309
1127.279 .0275878
1127.881 .0276471
1128.484 .0277089
1129.087 .0277353
1129.691 .0278006
1130.295 .0278685
1130.900 .0279393
1131.505 .0280135
1132.111 .0280920
1132.718 .0281756
1133.325 .0282648
1133.933 .0283603
1134.541 .0284607
1135.150 .0285766
1135.760 .0286983
1136.370 .0288126
1136.981 .0287302
1137.592 .0288347
1138.204 .0289491
1138.817 .0290704
1139.431 .0292081
1140.045 .0293731
1140.660 .0295586
1141.275 .0297541
1141.891 .0299793
1142.508 .0301624
1143.126 .0306510
1143.744 .0308678
1144.363 .0307208
1144.983 .0313128
