Measurement Sequence started on: 15-12-46-377
Integration time: 28
Scans to Average: 2 
>>>>>Begin Spectral Data<<<<<
432.689 .0000100
433.621 .0000100
434.552 .0000100
435.482 .0000100
436.410 .0000100
437.337 .0000100
438.262 .0272217
439.187 .0576049
440.110 .0952762
441.031 .1377505
441.952 .1099070
442.871 .1147562
443.789 .1192780
444.705 .1235433
445.621 .1275997
446.535 .1314819
447.447 .1337836
448.359 .1343565
449.269 .1328324
450.178 .1289702
451.086 .1228484
451.993 .1149429
452.898 .1060383
453.803 .0970216
454.706 .0886470
455.608 .0813798
456.508 .0753729
457.408 .0713228
458.306 .0682128
459.204 .0656773
460.100 .0635367
460.995 .0616893
461.888 .0600671
462.781 .0586249
463.673 .0573311
464.563 .0561623
465.452 .0551024
466.340 .0541388
467.228 .0532616
468.114 .0524640
468.999 .0517395
469.882 .0510821
470.765 .0504863
471.647 .0499469
472.528 .0494589
473.407 .0490168
474.286 .0486164
475.163 .0482535
476.040 .0479246
476.915 .0476266
477.790 .0473572
478.663 .0471142
479.535 .0468966
480.407 .0467023
481.277 .0465301
482.147 .0463781
483.015 .0462453
483.883 .0461308
484.749 .0460339
485.615 .0459542
486.479 .0458921
487.343 .0458482
488.206 .0458239
489.067 .0458196
489.928 .0458371
490.788 .0458766
491.647 .0459392
492.505 .0460256
493.362 .0461365
494.218 .0462728
495.073 .0464358
495.928 .0467779
496.781 .0470118
497.634 .0472740
498.486 .0475637
499.337 .0478807
500.187 .0482244
501.036 .0485948
501.884 .0489929
502.731 .0494211
503.578 .0498828
504.424 .0501844
505.268 .0507122
506.113 .0512876
506.956 .0519146
507.798 .0525989
508.640 .0533457
509.480 .0541618
510.320 .0550555
511.160 .0560371
511.998 .0571191
512.836 .0583188
513.672 .0596542
514.508 .0611472
515.344 .0628203
516.178 .0646962
517.012 .0667980
517.845 .0691480
518.677 .0717659
519.508 .0746651
520.339 .0778528
521.169 .0813304
521.998 .0850737
522.826 .0890496
523.654 .0932064
524.481 .0974788
525.307 .1017931
526.133 .1060638
526.958 .1102012
527.782 .1141203
528.605 .1177420
529.428 .1209967
530.250 .1238212
531.072 .1261764
531.892 .1280259
532.712 .1293474
533.532 .1301303
534.350 .1303679
535.168 .1300611
535.986 .1292150
536.802 .1278352
537.618 .1259322
538.434 .1235171
539.249 .1206257
540.063 .1173007
540.876 .1136027
541.689 .1096043
542.501 .1053832
543.313 .1010285
544.124 .0966324
544.934 .0922774
545.744 .0880376
546.553 .0839747
547.361 .0801396
548.169 .0765567
548.976 .0732453
549.783 .0702092
550.589 .0674410
551.395 .0649277
552.200 .0626493
553.004 .0605828
553.808 .0587088
554.611 .0570075
555.414 .0554621
556.216 .0540560
557.018 .0527742
557.819 .0516016
558.619 .0505263
559.419 .0495394
560.218 .0486315
561.017 .0477930
561.815 .0470175
562.613 .0462987
563.410 .0456299
564.207 .0450047
565.003 .0444178
565.799 .0438634
566.594 .0433364
567.388 .0428320
568.182 .0423461
568.976 .0418753
569.769 .0414171
570.562 .0409701
571.354 .0405338
572.145 .0401082
572.936 .0396933
573.727 .0392892
574.517 .0388969
575.307 .0385163
576.096 .0381471
576.885 .0377893
577.673 .0374432
578.461 .0371084
579.248 .0367851
580.035 .0364739
580.821 .0361751
581.607 .0358893
582.392 .0356171
583.177 .0353589
583.962 .0351152
584.746 .0348861
585.529 .0346717
586.313 .0344717
587.095 .0342855
587.878 .0341121
588.660 .0339509
589.441 .0338011
590.222 .0336621
591.003 .0335331
591.783 .0334132
592.563 .0333020
593.342 .0331985
594.121 .0331024
594.899 .0330130
595.678 .0329298
596.455 .0328522
597.233 .0327797
598.009 .0327118
598.786 .0326480
599.562 .0325878
600.338 .0325310
601.113 .0324773
601.888 .0324060
602.663 .0323587
603.437 .0323136
604.211 .0322706
604.984 .0322294
605.757 .0321901
606.530 .0321524
607.302 .0321164
608.074 .0320820
608.845 .0320492
609.616 .0320179
610.387 .0320053
611.158 .0319760
611.928 .0319478
612.697 .0319207
613.467 .0318945
614.236 .0318692
615.004 .0318446
615.773 .0318209
616.541 .0317979
617.308 .0317757
618.076 .0317541
618.843 .0317331
619.609 .0317125
620.375 .0316922
621.141 .0316720
621.907 .0316520
622.672 .0316319
623.437 .0316117
624.202 .0315913
624.966 .0315706
625.730 .0315495
626.493 .0315278
627.257 .0315055
628.020 .0314825
628.782 .0314588
629.545 .0314344
630.307 .0314095
631.068 .0313841
631.830 .0313584
632.591 .0313325
633.352 .0313063
634.112 .0312798
634.872 .0312531
635.632 .0312260
636.392 .0311986
637.151 .0311710
637.910 .0311433
638.668 .0311156
639.427 .0310880
640.185 .0310609
640.943 .0310341
641.700 .0310079
642.457 .0309823
643.214 .0309571
643.971 .0309325
644.727 .0309084
645.483 .0308848
646.239 .0308616
646.994 .0308390
647.750 .0308168
648.505 .0307950
649.259 .0307735
650.014 .0307523
650.768 .0307312
651.521 .0307102
652.275 .0306891
653.028 .0306679
653.781 .0306464
654.534 .0306247
655.286 .0306027
656.039 .0305805
656.791 .0305580
657.542 .0305352
658.294 .0305122
659.045 .0304888
659.796 .0304653
660.546 .0304415
661.297 .0304176
662.047 .0303936
662.796 .0303695
663.546 .0303454
664.295 .0303214
665.044 .0302975
665.793 .0302737
666.542 .0302502
667.290 .0302270
668.038 .0302041
668.786 .0301814
669.533 .0301592
670.281 .0301372
671.028 .0301157
671.774 .0300944
672.521 .0300735
673.267 .0300529
674.013 .0300326
674.759 .0300125
675.505 .0299928
676.250 .0299735
676.995 .0299544
677.740 .0299356
678.484 .0299172
679.229 .0298992
679.973 .0298815
680.717 .0298642
681.460 .0298470
682.204 .0298301
682.947 .0298132
683.690 .0297963
684.433 .0297793
685.175 .0297622
685.917 .0297450
686.659 .0297275
687.401 .0297099
688.142 .0296920
688.884 .0296740
689.625 .0296558
690.365 .0296374
691.106 .0296187
691.846 .0295997
692.586 .0295803
693.326 .0295606
694.066 .0295404
694.805 .0295200
695.545 .0294993
696.284 .0294783
697.022 .0294571
697.761 .0294358
698.499 .0294144
699.237 .0293931
699.975 .0293720
700.713 .0293509
701.450 .0293301
702.187 .0293095
702.924 .0292891
703.661 .0292690
704.397 .0292493
705.133 .0292298
705.869 .0292106
706.605 .0291917
707.341 .0291732
708.076 .0291550
708.811 .0291370
709.546 .0291194
710.281 .0291020
711.015 .0290848
711.749 .0290678
712.483 .0290509
713.217 .0290341
713.950 .0290175
714.684 .0290009
715.417 .0289844
716.150 .0289679
716.882 .0289514
717.615 .0289347
718.347 .0289180
719.079 .0289010
719.811 .0288840
720.542 .0288667
721.273 .0288494
722.005 .0288321
722.735 .0288148
723.466 .0287976
724.196 .0287805
724.927 .0287636
725.656 .0287469
726.386 .0287305
727.116 .0287142
727.845 .0286982
728.574 .0286825
729.303 .0286670
730.031 .0286518
730.760 .0286369
731.488 .0286222
732.216 .0286078
732.944 .0285938
733.671 .0285801
734.398 .0285667
735.125 .0285536
735.852 .0285409
736.579 .0285285
737.305 .0285163
738.031 .0285044
738.757 .0284926
739.483 .0284809
740.208 .0284691
740.933 .0284572
741.658 .0284453
742.383 .0284332
743.108 .0284211
743.832 .0284089
744.556 .0283967
745.280 .0283845
746.004 .0283722
746.727 .0283598
747.450 .0283472
748.173 .0283344
748.896 .0283213
749.618 .0283080
750.340 .0282944
751.062 .0282806
751.784 .0282666
752.506 .0282525
753.227 .0282382
753.948 .0282239
754.669 .0282096
755.389 .0281952
756.110 .0281807
756.830 .0281664
757.550 .0281520
758.269 .0281377
758.989 .0281234
759.708 .0281092
760.427 .0280949
761.146 .0280807
761.864 .0280663
762.582 .0280519
763.300 .0280374
764.018 .0280229
764.736 .0280083
765.453 .0279937
766.170 .0279791
766.887 .0279645
767.603 .0279500
768.320 .0279356
769.036 .0279211
769.751 .0279067
770.467 .0278923
771.182 .0278780
771.897 .0278638
772.612 .0278498
773.327 .0278360
774.041 .0278225
774.755 .0278094
775.469 .0277967
776.183 .0277844
776.896 .0277727
777.609 .0277614
778.322 .0277506
779.035 .0277403
779.747 .0277305
780.459 .0277212
781.171 .0277122
781.882 .0277035
782.594 .0276950
783.305 .0276867
784.016 .0276786
784.726 .0276705
785.436 .0276625
786.147 .0276503
786.856 .0276420
787.566 .0276337
788.275 .0276253
788.984 .0276167
789.693 .0276079
790.401 .0275989
791.110 .0275895
791.818 .0275798
792.525 .0275696
793.233 .0275591
793.940 .0275483
794.647 .0275420
795.353 .0275308
796.060 .0275195
796.766 .0275080
797.472 .0274963
798.177 .0274845
798.883 .0274726
799.588 .0274606
800.292 .0274484
800.997 .0274361
801.701 .0274236
802.405 .0274110
803.109 .0273984
803.812 .0273857
804.515 .0273730
805.218 .0273604
805.921 .0273477
806.623 .0273352
807.325 .0273226
808.027 .0273100
808.728 .0272974
809.429 .0272848
810.130 .0272722
810.831 .0272596
811.531 .0272471
812.231 .0272347
812.931 .0272223
813.630 .0272100
814.330 .0271979
815.029 .0271860
815.727 .0271743
816.426 .0271629
817.124 .0271519
817.821 .0271414
818.519 .0271313
819.216 .0271217
819.913 .0271126
820.609 .0271041
821.306 .0270960
822.002 .0270883
822.697 .0270811
823.393 .0270743
824.088 .0270678
824.783 .0270617
825.477 .0270560
826.171 .0270505
826.865 .0270453
827.559 .0270402
828.252 .0270353
828.945 .0270305
829.638 .0270258
830.330 .0270211
831.023 .0270163
831.714 .0270115
832.406 .0270066
833.097 .0270016
833.788 .0269963
834.479 .0269909
835.169 .0269853
835.859 .0269796
836.548 .0269736
837.238 .0269676
837.927 .0269614
838.615 .0269551
839.304 .0269486
839.992 .0269420
840.680 .0269353
841.367 .0269284
842.054 .0269213
842.741 .0269140
843.428 .0269066
844.114 .0268991
844.800 .0268915
845.485 .0268838
846.170 .0268760
846.855 .0268682
847.540 .0268604
848.224 .0268524
848.908 .0268443
849.592 .0268360
850.275 .0268276
850.958 .0268190
851.641 .0268103
852.323 .0268013
853.005 .0267920
853.687 .0267824
854.368 .0267726
855.049 .0267624
855.730 .0267518
856.410 .0267410
857.090 .0267298
857.769 .0267184
858.449 .0267069
859.128 .0266952
859.806 .0266834
860.485 .0266715
861.163 .0266595
861.840 .0266476
862.518 .0266355
863.195 .0266235
863.871 .0266115
864.548 .0265995
865.224 .0265877
865.899 .0265760
866.574 .0265644
867.249 .0265531
867.924 .0265419
868.598 .0265310
869.272 .0265203
869.946 .0265098
870.619 .0264995
871.292 .0264893
871.964 .0264793
872.636 .0264696
873.308 .0264600
873.979 .0264505
874.651 .0264413
875.321 .0264321
875.992 .0264230
876.662 .0264140
877.331 .0264051
878.001 .0263963
878.670 .0263876
879.338 .0263789
880.007 .0263704
880.675 .0263619
881.342 .0263535
882.009 .0263451
882.676 .0263368
883.343 .0263285
884.009 .0263203
884.675 .0263123
885.340 .0263043
886.005 .0262965
886.670 .0262890
887.334 .0262818
887.998 .0262748
888.662 .0262681
889.325 .0262617
889.988 .0262555
890.650 .0262496
891.312 .0262440
891.974 .0262385
892.636 .0262332
893.297 .0262282
893.957 .0262232
894.618 .0262183
895.278 .0262134
895.937 .0262084
896.596 .0262033
897.255 .0261979
897.914 .0261921
898.572 .0261860
899.230 .0261794
899.887 .0261724
900.544 .0261647
901.201 .0261565
901.857 .0261411
902.513 .0261313
903.168 .0261209
903.823 .0261099
904.478 .0260982
905.132 .0260858
905.786 .0260728
906.440 .0260591
907.093 .0260449
907.746 .0260300
908.399 .0260147
909.051 .0259990
909.703 .0259829
910.354 .0259744
911.005 .0259581
911.656 .0259416
912.306 .0259250
912.956 .0259082
913.605 .0258912
914.254 .0258741
914.903 .0258569
915.551 .0258395
916.199 .0258220
916.847 .0258044
917.494 .0257868
918.141 .0257690
918.788 .0257511
919.434 .0257331
920.079 .0257149
920.725 .0256965
921.370 .0256778
922.014 .0256590
922.658 .0256398
923.302 .0256204
923.946 .0256008
924.589 .0255810
925.231 .0255611
925.873 .0255412
926.515 .0255213
927.157 .0255014
927.798 .0254815
928.439 .0254616
929.079 .0254418
929.719 .0254220
930.359 .0254022
930.998 .0253826
931.637 .0253631
932.275 .0253439
932.913 .0253250
933.551 .0253065
934.188 .0252886
934.825 .0252712
935.462 .0252543
936.098 .0252380
936.733 .0252224
937.369 .0252073
938.004 .0251929
938.638 .0251791
939.273 .0251661
939.907 .0251538
940.540 .0251424
941.173 .0251317
941.806 .0251218
942.438 .0251126
943.070 .0251039
943.702 .0250957
944.333 .0250879
944.964 .0250802
945.594 .0250728
946.224 .0250654
946.854 .0250580
947.483 .0250506
948.112 .0250431
948.741 .0250356
949.369 .0250281
949.996 .0250204
950.624 .0250126
951.251 .0250047
951.878 .0249965
952.504 .0249881
953.130 .0249795
953.755 .0249707
954.380 .0249617
955.005 .0249525
955.629 .0249432
956.253 .0249338
956.877 .0249243
957.500 .0249148
958.123 .0249052
958.746 .0248957
959.368 .0248862
959.990 .0248768
960.611 .0248674
961.232 .0248583
961.853 .0248493
962.473 .0248406
963.093 .0248322
963.712 .0248243
964.331 .0248166
964.950 .0248094
965.569 .0248026
966.187 .0247962
966.804 .0247900
967.422 .0247841
968.039 .0247784
968.655 .0247727
969.272 .0247672
969.887 .0247616
970.503 .0247560
971.118 .0247503
971.733 .0247446
972.347 .0247388
972.961 .0247328
973.575 .0247265
974.188 .0247200
974.801 .0247131
975.414 .0247057
976.026 .0246979
976.638 .0246896
977.250 .0246809
977.861 .0246718
978.472 .0246623
979.083 .0246526
979.693 .0246426
980.303 .0246324
980.912 .0246162
981.521 .0246056
982.130 .0245950
982.738 .0245843
983.346 .0245736
983.954 .0245631
984.562 .0245529
985.169 .0245430
985.775 .0245336
986.382 .0245246
986.988 .0245160
987.594 .0245080
988.199 .0245003
988.804 .0244931
989.409 .0244912
990.013 .0244846
990.617 .0244785
991.221 .0244729
991.824 .0244678
992.427 .0244632
993.030 .0244591
993.632 .0244554
994.234 .0244522
994.836 .0244494
995.438 .0244469
996.039 .0244448
996.640 .0244431
997.240 .0244418
997.840 .0244408
998.440 .0244403
999.040 .0244402
999.639 .0244405
1000.238 .0244410
1000.836 .0244419
1001.435 .0244429
1002.033 .0244440
1002.630 .0244453
1003.228 .0244467
1003.825 .0244481
1004.422 .0244497
1005.018 .0244515
1005.614 .0244534
1006.210 .0244555
1006.806 .0244577
1007.401 .0244601
1007.996 .0244626
1008.591 .0244652
1009.186 .0244678
1009.780 .0244705
1010.374 .0244733
1010.967 .0244762
1011.561 .0244793
1012.154 .0244825
1012.746 .0244860
1013.339 .0244897
1013.931 .0244936
1014.523 .0244978
1015.115 .0245023
1015.706 .0245070
1016.298 .0245120
1016.888 .0245173
1017.479 .0245229
1018.069 .0245288
1018.660 .0245352
1019.250 .0245421
1019.839 .0245494
1020.429 .0245574
1021.018 .0245658
1021.607 .0245747
1022.195 .0245839
1022.784 .0245935
1023.372 .0246032
1023.960 .0246130
1024.547 .0246228
1025.135 .0246328
1025.722 .0246427
1026.309 .0246527
1026.896 .0246628
1027.483 .0246729
1028.069 .0246831
1028.655 .0246933
1029.241 .0247034
1029.827 .0247135
1030.412 .0247233
1030.997 .0247330
1031.582 .0247425
1032.167 .0247519
1032.752 .0247609
1033.336 .0247698
1033.921 .0247783
1034.505 .0247865
1035.089 .0247942
1035.672 .0248014
1036.256 .0248078
1036.839 .0248135
1037.422 .0248183
1038.005 .0248223
1038.588 .0248253
1039.171 .0248274
1039.753 .0248287
1040.335 .0248294
1040.918 .0248295
1041.500 .0248292
1042.081 .0248286
1042.663 .0248278
1043.244 .0248269
1043.826 .0248261
1044.407 .0248253
1044.988 .0248247
1045.569 .0248242
1046.150 .0248240
1046.730 .0248240
1047.311 .0248243
1047.891 .0248249
1048.471 .0248259
1049.052 .0248271
1049.632 .0248285
1050.211 .0248302
1050.791 .0248320
1051.371 .0248340
1051.950 .0248360
1052.530 .0248383
1053.109 .0248406
1053.688 .0248432
1054.268 .0248462
1054.847 .0248495
1055.426 .0248532
1056.005 .0248573
1056.583 .0248618
1057.162 .0248667
1057.741 .0248719
1058.319 .0248773
1058.898 .0248829
1059.476 .0248885
1060.055 .0248942
1060.633 .0248998
1061.211 .0249054
1061.790 .0249108
1062.368 .0249161
1062.946 .0249213
1063.524 .0249263
1064.102 .0249310
1064.680 .0249356
1065.258 .0249400
1065.836 .0249443
1066.414 .0249487
1066.992 .0249533
1067.570 .0249581
1068.148 .0249632
1068.726 .0249688
1069.304 .0249747
1069.882 .0249810
1070.460 .0249876
1071.038 .0249944
1071.616 .0250014
1072.194 .0250085
1072.772 .0250157
1073.350 .0250228
1073.928 .0250298
1074.506 .0250368
1075.084 .0250435
1075.662 .0250499
1076.240 .0250561
1076.819 .0250619
1077.397 .0250673
1077.976 .0250724
1078.554 .0250772
1079.133 .0250818
1079.711 .0250864
1080.290 .0250908
1080.869 .0250951
1081.448 .0250994
1082.027 .0251036
1082.606 .0251077
1083.185 .0251117
1083.764 .0251157
1084.343 .0251196
1084.923 .0251236
1085.502 .0251278
1086.082 .0251322
1086.662 .0251370
1087.242 .0251421
1087.822 .0251477
1088.402 .0251536
1088.983 .0251599
1089.563 .0251667
1090.144 .0251740
1090.725 .0251818
1091.306 .0251903
1091.887 .0251994
1092.469 .0252090
1093.050 .0252192
1093.632 .0252299
1094.214 .0252409
1094.796 .0252522
1095.379 .0252637
1095.961 .0252754
1096.544 .0252872
1097.127 .0252993
1097.710 .0253116
1098.294 .0253242
1098.877 .0253373
1099.461 .0253506
1100.046 .0253641
1100.630 .0253779
1101.215 .0253918
1101.800 .0254059
1102.385 .0254201
1102.970 .0254346
1103.556 .0254495
1104.142 .0254649
1104.728 .0254810
1105.315 .0254979
1105.902 .0255157
1106.489 .0255343
1107.077 .0255538
1107.664 .0255743
1108.253 .0255959
1108.841 .0256186
1109.430 .0256427
1110.019 .0256681
1110.609 .0256952
1111.198 .0257240
1111.789 .0257544
1112.379 .0257866
1112.970 .0258207
1113.561 .0258563
1114.153 .0258933
1114.745 .0259319
1115.338 .0259717
1115.931 .0260126
1116.524 .0260546
1117.117 .0260976
1117.712 .0261415
1118.306 .0261865
1118.901 .0262324
1119.496 .0262794
1120.092 .0263275
1120.689 .0263765
1121.285 .0264263
1121.882 .0264769
1122.480 .0265282
1123.078 .0265801
1123.677 .0266326
1124.276 .0266860
1124.875 .0267404
1125.476 .0267961
1126.076 .0268535
1126.677 .0269130
1127.279 .0269747
1127.881 .0270387
1128.484 .0271049
1129.087 .0271331
1129.691 .0272020
1130.295 .0272727
1130.900 .0273455
1131.505 .0274207
1132.111 .0274983
1132.718 .0275783
1133.325 .0276612
1133.933 .0277477
1134.541 .0278442
1135.150 .0279410
1135.760 .0280277
1136.370 .0281251
1136.981 .0281820
1137.592 .0282959
1138.204 .0284064
1138.817 .0285151
1139.431 .0286330
1140.045 .0287563
1140.660 .0288749
1141.275 .0290027
1141.891 .0291487
1142.508 .0294773
1143.126 .0295311
1143.744 .0292953
1144.363 .0296457
1144.983 .0302048
