Measurement Sequence started on: 15-12-46-377
Integration time: 28
Scans to Average: 2 
>>>>>Begin Spectral Data<<<<<
432.689 .0000100
433.621 .0000100
434.552 .0000100
435.482 .0000100
436.410 .0000100
437.337 .0000100
438.262 .0273684
439.187 .0582226
440.110 .0965082
441.031 .1396428
441.952 .1124149
442.871 .1174764
443.789 .1221951
444.705 .1266430
445.621 .1308678
446.535 .1349093
447.447 .1373561
448.359 .1380466
449.269 .1366075
450.178 .1327978
451.086 .1266899
451.993 .1187606
452.898 .1097979
453.803 .1006996
454.706 .0922295
455.608 .0848628
456.508 .0787589
457.408 .0746232
458.306 .0714460
459.204 .0688557
460.100 .0666688
460.995 .0647889
461.888 .0631464
462.781 .0616959
463.673 .0604003
464.563 .0592334
465.452 .0581750
466.340 .0572094
467.228 .0563244
468.114 .0555124
468.999 .0547664
469.882 .0540813
470.765 .0534524
471.647 .0528769
472.528 .0523507
473.407 .0518702
474.286 .0514321
475.163 .0510343
476.040 .0506731
476.915 .0503460
477.790 .0500501
478.663 .0497841
479.535 .0495467
480.407 .0493369
481.277 .0491533
482.147 .0489956
483.015 .0488623
483.883 .0487529
484.749 .0486659
485.615 .0486010
486.479 .0485573
487.343 .0485346
488.206 .0485335
489.067 .0485543
489.928 .0485980
490.788 .0486660
491.647 .0487597
492.505 .0488804
493.362 .0490286
494.218 .0492048
495.073 .0494085
495.928 .0498101
496.781 .0500766
497.634 .0503666
498.486 .0506796
499.337 .0510157
500.187 .0513749
501.036 .0517586
501.884 .0521678
502.731 .0526054
503.578 .0530733
504.424 .0533629
505.268 .0538853
506.113 .0544480
506.956 .0550553
507.798 .0557132
508.640 .0564309
509.480 .0572205
510.320 .0580967
511.160 .0590762
511.998 .0601780
512.836 .0614242
513.672 .0628367
514.508 .0644402
515.344 .0662579
516.178 .0683138
517.012 .0706331
517.845 .0732373
518.677 .0761473
519.508 .0793807
520.339 .0829446
521.169 .0868401
521.998 .0910450
522.826 .0955210
523.654 .1002062
524.481 .1050246
525.307 .1098904
526.133 .1147037
526.958 .1193593
527.782 .1237558
528.605 .1278011
529.428 .1314172
530.250 .1345358
531.072 .1371106
531.892 .1391072
532.712 .1405061
533.532 .1412954
534.350 .1414692
535.168 .1410322
535.986 .1399918
536.802 .1383530
537.618 .1361284
538.434 .1333354
539.249 .1300116
540.063 .1262103
540.876 .1220049
541.689 .1174816
542.501 .1127323
543.313 .1078572
544.124 .1029579
544.934 .0981275
545.744 .0934472
546.553 .0889818
547.361 .0847823
548.169 .0808787
548.976 .0772868
549.783 .0740077
550.589 .0710341
551.395 .0683509
552.200 .0659338
553.004 .0637555
553.808 .0617924
554.611 .0600214
555.414 .0584204
556.216 .0569704
557.018 .0556514
557.819 .0544461
558.619 .0533379
559.419 .0523144
560.218 .0513652
561.017 .0504817
561.815 .0496573
562.613 .0488863
563.410 .0481629
564.207 .0474818
565.003 .0468374
565.799 .0462241
566.594 .0456362
567.388 .0450690
568.182 .0445179
568.976 .0439803
569.769 .0434542
570.562 .0429395
571.354 .0424372
572.145 .0419494
572.936 .0414769
573.727 .0410206
574.517 .0405813
575.307 .0401594
576.096 .0397538
576.885 .0393640
577.673 .0389893
578.461 .0386293
579.248 .0382838
580.035 .0379530
580.821 .0376372
581.607 .0373372
582.392 .0370537
583.177 .0367871
583.962 .0365374
584.746 .0363043
585.529 .0360871
586.313 .0358849
587.095 .0356967
587.878 .0355213
588.660 .0353573
589.441 .0352042
590.222 .0350612
591.003 .0349276
591.783 .0348032
592.563 .0346875
593.342 .0345800
594.121 .0344803
594.899 .0343874
595.678 .0343007
596.455 .0342195
597.233 .0341429
598.009 .0340701
598.786 .0340004
599.562 .0339334
600.338 .0338686
601.113 .0338057
601.888 .0337161
602.663 .0336570
603.437 .0335996
604.211 .0335437
604.984 .0334892
605.757 .0334361
606.530 .0333842
607.302 .0333335
608.074 .0332841
608.845 .0332358
609.616 .0331890
610.387 .0331698
611.158 .0331257
611.928 .0330831
612.697 .0330424
613.467 .0330035
614.236 .0329665
615.004 .0329316
615.773 .0328988
616.541 .0328678
617.308 .0328387
618.076 .0328112
618.843 .0327853
619.609 .0327609
620.375 .0327377
621.141 .0327157
621.907 .0326948
622.672 .0326748
623.437 .0326556
624.202 .0326370
624.966 .0326188
625.730 .0326008
626.493 .0325829
627.257 .0325648
628.020 .0325466
628.782 .0325282
629.545 .0325095
630.307 .0324905
631.068 .0324712
631.830 .0324516
632.591 .0324316
633.352 .0324112
634.112 .0323903
634.872 .0323690
635.632 .0323473
636.392 .0323252
637.151 .0323027
637.910 .0322799
638.668 .0322569
639.427 .0322336
640.185 .0322100
640.943 .0321862
641.700 .0321621
642.457 .0321377
643.214 .0321129
643.971 .0320875
644.727 .0320616
645.483 .0320352
646.239 .0320081
646.994 .0319804
647.750 .0319522
648.505 .0319233
649.259 .0318939
650.014 .0318639
650.768 .0318333
651.521 .0318021
652.275 .0317703
653.028 .0317378
653.781 .0317046
654.534 .0316707
655.286 .0316361
656.039 .0316008
656.791 .0315650
657.542 .0315287
658.294 .0314921
659.045 .0314553
659.796 .0314183
660.546 .0313813
661.297 .0313444
662.047 .0313077
662.796 .0312711
663.546 .0312349
664.295 .0311990
665.044 .0311637
665.793 .0311289
666.542 .0310948
667.290 .0310615
668.038 .0310290
668.786 .0309975
669.533 .0309670
670.281 .0309375
671.028 .0309091
671.774 .0308816
672.521 .0308551
673.267 .0308295
674.013 .0308049
674.759 .0307812
675.505 .0307583
676.250 .0307362
676.995 .0307150
677.740 .0306946
678.484 .0306750
679.229 .0306561
679.973 .0306380
680.717 .0306205
681.460 .0306037
682.204 .0305874
682.947 .0305717
683.690 .0305564
684.433 .0305415
685.175 .0305269
685.917 .0305128
686.659 .0304989
687.401 .0304854
688.142 .0304722
688.884 .0304593
689.625 .0304467
690.365 .0304344
691.106 .0304222
691.846 .0304102
692.586 .0303982
693.326 .0303863
694.066 .0303745
694.805 .0303626
695.545 .0303508
696.284 .0303391
697.022 .0303274
697.761 .0303158
698.499 .0303042
699.237 .0302926
699.975 .0302809
700.713 .0302692
701.450 .0302574
702.187 .0302453
702.924 .0302331
703.661 .0302207
704.397 .0302081
705.133 .0301952
705.869 .0301820
706.605 .0301685
707.341 .0301547
708.076 .0301405
708.811 .0301259
709.546 .0301109
710.281 .0300954
711.015 .0300795
711.749 .0300632
712.483 .0300465
713.217 .0300293
713.950 .0300117
714.684 .0299936
715.417 .0299750
716.150 .0299559
716.882 .0299362
717.615 .0299161
718.347 .0298954
719.079 .0298742
719.811 .0298526
720.542 .0298306
721.273 .0298083
722.005 .0297857
722.735 .0297628
723.466 .0297398
724.196 .0297166
724.927 .0296932
725.656 .0296696
726.386 .0296459
727.116 .0296221
727.845 .0295982
728.574 .0295743
729.303 .0295503
730.031 .0295266
730.760 .0295029
731.488 .0294795
732.216 .0294563
732.944 .0294333
733.671 .0294106
734.398 .0293881
735.125 .0293659
735.852 .0293441
736.579 .0293225
737.305 .0293013
738.031 .0292806
738.757 .0292602
739.483 .0292402
740.208 .0292208
740.933 .0292017
741.658 .0291830
742.383 .0291646
743.108 .0291465
743.832 .0291285
744.556 .0291107
745.280 .0290929
746.004 .0290751
746.727 .0290572
747.450 .0290391
748.173 .0290208
748.896 .0290023
749.618 .0289835
750.340 .0289645
751.062 .0289452
751.784 .0289256
752.506 .0289056
753.227 .0288854
753.948 .0288648
754.669 .0288440
755.389 .0288229
756.110 .0288016
756.830 .0287803
757.550 .0287589
758.269 .0287377
758.989 .0287166
759.708 .0286959
760.427 .0286755
761.146 .0286557
761.864 .0286364
762.582 .0286177
763.300 .0285998
764.018 .0285825
764.736 .0285661
765.453 .0285504
766.170 .0285355
766.887 .0285214
767.603 .0285082
768.320 .0284959
769.036 .0284844
769.751 .0284739
770.467 .0284644
771.182 .0284558
771.897 .0284481
772.612 .0284412
773.327 .0284352
774.041 .0284300
774.755 .0284255
775.469 .0284217
776.183 .0284186
776.896 .0284162
777.609 .0284145
778.322 .0284134
779.035 .0284129
779.747 .0284130
780.459 .0284136
781.171 .0284147
781.882 .0284163
782.594 .0284183
783.305 .0284207
784.016 .0284234
784.726 .0284264
785.436 .0284296
786.147 .0284347
786.856 .0284379
787.566 .0284410
788.275 .0284439
788.984 .0284467
789.693 .0284491
790.401 .0284513
791.110 .0284530
791.818 .0284544
792.525 .0284554
793.233 .0284559
793.940 .0284560
794.647 .0284546
795.353 .0284541
796.060 .0284532
796.766 .0284518
797.472 .0284499
798.177 .0284476
798.883 .0284447
799.588 .0284414
800.292 .0284375
800.997 .0284330
801.701 .0284281
802.405 .0284227
803.109 .0284167
803.812 .0284103
804.515 .0284035
805.218 .0283961
805.921 .0283881
806.623 .0283796
807.325 .0283704
808.027 .0283605
808.728 .0283500
809.429 .0283387
810.130 .0283267
810.831 .0283140
811.531 .0283007
812.231 .0282868
812.931 .0282724
813.630 .0282575
814.330 .0282422
815.029 .0282265
815.727 .0282104
816.426 .0281940
817.124 .0281774
817.821 .0281607
818.519 .0281439
819.216 .0281272
819.913 .0281104
820.609 .0280938
821.306 .0280773
822.002 .0280609
822.697 .0280447
823.393 .0280288
824.088 .0280130
824.783 .0279976
825.477 .0279825
826.171 .0279677
826.865 .0279531
827.559 .0279388
828.252 .0279246
828.945 .0279105
829.638 .0278964
830.330 .0278822
831.023 .0278679
831.714 .0278533
832.406 .0278384
833.097 .0278232
833.788 .0278076
834.479 .0277917
835.169 .0277754
835.859 .0277587
836.548 .0277417
837.238 .0277243
837.927 .0277066
838.615 .0276884
839.304 .0276697
839.992 .0276506
840.680 .0276311
841.367 .0276112
842.054 .0275910
842.741 .0275706
843.428 .0275500
844.114 .0275292
844.800 .0275084
845.485 .0274873
846.170 .0274662
846.855 .0274448
847.540 .0274232
848.224 .0274015
848.908 .0273796
849.592 .0273576
850.275 .0273355
850.958 .0273135
851.641 .0272914
852.323 .0272693
853.005 .0272472
853.687 .0272251
854.368 .0272029
855.049 .0271808
855.730 .0271587
856.410 .0271367
857.090 .0271148
857.769 .0270930
858.449 .0270715
859.128 .0270501
859.806 .0270288
860.485 .0270078
861.163 .0269870
861.840 .0269664
862.518 .0269463
863.195 .0269265
863.871 .0269074
864.548 .0268888
865.224 .0268707
865.899 .0268533
866.574 .0268364
867.249 .0268200
867.924 .0268041
868.598 .0267887
869.272 .0267738
869.946 .0267596
870.619 .0267459
871.292 .0267329
871.964 .0267207
872.636 .0267091
873.308 .0266983
873.979 .0266882
874.651 .0266789
875.321 .0266704
875.992 .0266628
876.662 .0266561
877.331 .0266502
878.001 .0266451
878.670 .0266409
879.338 .0266375
880.007 .0266349
880.675 .0266331
881.342 .0266322
882.009 .0266322
882.676 .0266332
883.343 .0266352
884.009 .0266383
884.675 .0266426
885.340 .0266478
886.005 .0266540
886.670 .0266612
887.334 .0266691
887.998 .0266778
888.662 .0266871
889.325 .0266972
889.988 .0267079
890.650 .0267192
891.312 .0267310
891.974 .0267435
892.636 .0267563
893.297 .0267695
893.957 .0267829
894.618 .0267964
895.278 .0268098
895.937 .0268231
896.596 .0268360
897.255 .0268485
897.914 .0268604
898.572 .0268716
899.230 .0268821
899.887 .0268917
900.544 .0269004
901.201 .0269082
901.857 .0269155
902.513 .0269208
903.168 .0269252
903.823 .0269286
904.478 .0269310
905.132 .0269325
905.786 .0269329
906.440 .0269324
907.093 .0269309
907.746 .0269284
908.399 .0269251
909.051 .0269210
909.703 .0269161
910.354 .0269125
911.005 .0269071
911.656 .0269012
912.306 .0268949
912.956 .0268884
913.605 .0268816
914.254 .0268745
914.903 .0268672
915.551 .0268597
916.199 .0268519
916.847 .0268438
917.494 .0268355
918.141 .0268268
918.788 .0268178
919.434 .0268085
920.079 .0267989
920.725 .0267890
921.370 .0267786
922.014 .0267679
922.658 .0267567
923.302 .0267451
923.946 .0267329
924.589 .0267203
925.231 .0267072
925.873 .0266936
926.515 .0266796
927.157 .0266652
927.798 .0266504
928.439 .0266352
929.079 .0266196
929.719 .0266038
930.359 .0265876
930.998 .0265712
931.637 .0265547
932.275 .0265380
932.913 .0265215
933.551 .0265050
934.188 .0264888
934.825 .0264728
935.462 .0264571
936.098 .0264418
936.733 .0264267
937.369 .0264119
938.004 .0263975
938.638 .0263834
939.273 .0263696
939.907 .0263562
940.540 .0263431
941.173 .0263304
941.806 .0263179
942.438 .0263058
943.070 .0262939
943.702 .0262821
944.333 .0262704
944.964 .0262588
945.594 .0262471
946.224 .0262353
946.854 .0262233
947.483 .0262110
948.112 .0261984
948.741 .0261854
949.369 .0261721
949.996 .0261583
950.624 .0261441
951.251 .0261293
951.878 .0261141
952.504 .0260982
953.130 .0260816
953.755 .0260644
954.380 .0260464
955.005 .0260277
955.629 .0260083
956.253 .0259882
956.877 .0259675
957.500 .0259462
958.123 .0259245
958.746 .0259023
959.368 .0258796
959.990 .0258567
960.611 .0258333
961.232 .0258097
961.853 .0257857
962.473 .0257615
963.093 .0257371
963.712 .0257125
964.331 .0256878
964.950 .0256631
965.569 .0256382
966.187 .0256134
966.804 .0255886
967.422 .0255638
968.039 .0255389
968.655 .0255141
969.272 .0254893
969.887 .0254644
970.503 .0254397
971.118 .0254149
971.733 .0253903
972.347 .0253657
972.961 .0253412
973.575 .0253167
974.188 .0252923
974.801 .0252680
975.414 .0252436
976.026 .0252193
976.638 .0251949
977.250 .0251704
977.861 .0251460
978.472 .0251214
979.083 .0250969
979.693 .0250723
980.303 .0250477
980.912 .0250107
981.521 .0249863
982.130 .0249619
982.738 .0249377
983.346 .0249137
983.954 .0248900
984.562 .0248665
985.169 .0248435
985.775 .0248210
986.382 .0247990
986.988 .0247775
987.594 .0247567
988.199 .0247366
988.804 .0247172
989.409 .0247097
990.013 .0246916
990.617 .0246743
991.221 .0246578
991.824 .0246420
992.427 .0246271
993.030 .0246128
993.632 .0245992
994.234 .0245862
994.836 .0245738
995.438 .0245619
996.039 .0245505
996.640 .0245397
997.240 .0245294
997.840 .0245197
998.440 .0245105
999.040 .0245018
999.639 .0244937
1000.238 .0244860
1000.836 .0244789
1001.435 .0244721
1002.033 .0244658
1002.630 .0244600
1003.228 .0244546
1003.825 .0244496
1004.422 .0244451
1005.018 .0244410
1005.614 .0244374
1006.210 .0244343
1006.806 .0244316
1007.401 .0244294
1007.996 .0244275
1008.591 .0244261
1009.186 .0244251
1009.780 .0244247
1010.374 .0244247
1010.967 .0244253
1011.561 .0244266
1012.154 .0244286
1012.746 .0244313
1013.339 .0244349
1013.931 .0244393
1014.523 .0244448
1015.115 .0244512
1015.706 .0244586
1016.298 .0244671
1016.888 .0244767
1017.479 .0244872
1018.069 .0244988
1018.660 .0245113
1019.250 .0245247
1019.839 .0245390
1020.429 .0245541
1021.018 .0245701
1021.607 .0245868
1022.195 .0246042
1022.784 .0246224
1023.372 .0246411
1023.960 .0246603
1024.547 .0246798
1025.135 .0246997
1025.722 .0247198
1026.309 .0247399
1026.896 .0247602
1027.483 .0247806
1028.069 .0248010
1028.655 .0248215
1029.241 .0248419
1029.827 .0248623
1030.412 .0248827
1030.997 .0249030
1031.582 .0249232
1032.167 .0249432
1032.752 .0249630
1033.336 .0249826
1033.921 .0250019
1034.505 .0250209
1035.089 .0250397
1035.672 .0250580
1036.256 .0250760
1036.839 .0250936
1037.422 .0251107
1038.005 .0251274
1038.588 .0251437
1039.171 .0251596
1039.753 .0251752
1040.335 .0251904
1040.918 .0252052
1041.500 .0252199
1042.081 .0252342
1042.663 .0252485
1043.244 .0252627
1043.826 .0252768
1044.407 .0252910
1044.988 .0253052
1045.569 .0253195
1046.150 .0253341
1046.730 .0253487
1047.311 .0253636
1047.891 .0253786
1048.471 .0253937
1049.052 .0254087
1049.632 .0254238
1050.211 .0254389
1050.791 .0254539
1051.371 .0254690
1051.950 .0254841
1052.530 .0254993
1053.109 .0255147
1053.688 .0255303
1054.268 .0255462
1054.847 .0255624
1055.426 .0255788
1056.005 .0255954
1056.583 .0256122
1057.162 .0256292
1057.741 .0256466
1058.319 .0256642
1058.898 .0256822
1059.476 .0257005
1060.055 .0257191
1060.633 .0257379
1061.211 .0257568
1061.790 .0257758
1062.368 .0257946
1062.946 .0258131
1063.524 .0258312
1064.102 .0258489
1064.680 .0258660
1065.258 .0258828
1065.836 .0258993
1066.414 .0259155
1066.992 .0259314
1067.570 .0259471
1068.148 .0259625
1068.726 .0259776
1069.304 .0259924
1069.882 .0260066
1070.460 .0260204
1071.038 .0260335
1071.616 .0260461
1072.194 .0260582
1072.772 .0260699
1073.350 .0260812
1073.928 .0260922
1074.506 .0261031
1075.084 .0261137
1075.662 .0261241
1076.240 .0261344
1076.819 .0261444
1077.397 .0261544
1077.976 .0261643
1078.554 .0261742
1079.133 .0261843
1079.711 .0261947
1080.290 .0262054
1080.869 .0262165
1081.448 .0262280
1082.027 .0262396
1082.606 .0262512
1083.185 .0262624
1083.764 .0262733
1084.343 .0262837
1084.923 .0262935
1085.502 .0263029
1086.082 .0263119
1086.662 .0263207
1087.242 .0263294
1087.822 .0263380
1088.402 .0263468
1088.983 .0263556
1089.563 .0263644
1090.144 .0263731
1090.725 .0263816
1091.306 .0263899
1091.887 .0263980
1092.469 .0264061
1093.050 .0264142
1093.632 .0264224
1094.214 .0264307
1094.796 .0264391
1095.379 .0264475
1095.961 .0264558
1096.544 .0264637
1097.127 .0264711
1097.710 .0264779
1098.294 .0264839
1098.877 .0264891
1099.461 .0264938
1100.046 .0264983
1100.630 .0265030
1101.215 .0265081
1101.800 .0265139
1102.385 .0265208
1102.970 .0265289
1103.556 .0265381
1104.142 .0265486
1104.728 .0265602
1105.315 .0265728
1105.902 .0265865
1106.489 .0266012
1107.077 .0266172
1107.664 .0266347
1108.253 .0266537
1108.841 .0266743
1109.430 .0266966
1110.019 .0267203
1110.609 .0267452
1111.198 .0267713
1111.789 .0267982
1112.379 .0268258
1112.970 .0268541
1113.561 .0268831
1114.153 .0269131
1114.745 .0269442
1115.338 .0269768
1115.931 .0270108
1116.524 .0270467
1117.117 .0270842
1117.712 .0271232
1118.306 .0271636
1118.901 .0272052
1119.496 .0272477
1120.092 .0272909
1120.689 .0273347
1121.285 .0273788
1121.882 .0274235
1122.480 .0274687
1123.078 .0275143
1123.677 .0275601
1124.276 .0276060
1124.875 .0276514
1125.476 .0276963
1126.076 .0277407
1126.677 .0277845
1127.279 .0278280
1127.881 .0278716
1128.484 .0279160
1129.087 .0279366
1129.691 .0279827
1130.295 .0280312
1130.900 .0280826
1131.505 .0281374
1132.111 .0281964
1132.718 .0282604
1133.325 .0283306
1133.933 .0284083
1134.541 .0284869
1135.150 .0285817
1135.760 .0286884
1136.370 .0288050
1136.981 .0285824
1137.592 .0286689
1138.204 .0287677
1138.817 .0288764
1139.431 .0290021
1140.045 .0291515
1140.660 .0293277
1141.275 .0295327
1141.891 .0297848
1142.508 .0298524
1143.126 .0303542
1143.744 .0307348
1144.363 .0310663
1144.983 .0317015
