Measurement Sequence started on: 15-12-46-377
Integration time: 28
Scans to Average: 2 
>>>>>Begin Spectral Data<<<<<
432.689 .0000100
433.621 .0000100
434.552 .0000100
435.482 .0000100
436.410 .0000100
437.337 .0000100
438.262 .0282634
439.187 .0599220
440.110 .0992845
441.031 .1437112
441.952 .1153226
442.871 .1204416
443.789 .1252037
444.705 .1296812
445.621 .1339238
446.535 .1379695
447.447 .1403574
448.359 .1409302
449.269 .1393005
450.178 .1352160
451.086 .1287567
451.993 .1204158
452.898 .1110088
453.803 .1014640
454.706 .0925700
455.608 .0848184
456.508 .0783757
457.408 .0739707
458.306 .0705552
459.204 .0677519
460.100 .0653726
460.995 .0633121
461.888 .0615015
462.781 .0598945
463.673 .0584559
464.563 .0571625
465.452 .0559950
466.340 .0549383
467.228 .0539809
468.114 .0531132
468.999 .0523271
469.882 .0516153
470.765 .0509710
471.647 .0503887
472.528 .0498645
473.407 .0493932
474.286 .0489713
475.163 .0485956
476.040 .0482620
476.915 .0479675
477.790 .0477088
478.663 .0474834
479.535 .0472886
480.407 .0471220
481.277 .0469812
482.147 .0468631
483.015 .0467650
483.883 .0466837
484.749 .0466168
485.615 .0465622
486.479 .0465183
487.343 .0464841
488.206 .0464598
489.067 .0464456
489.928 .0464426
490.788 .0464521
491.647 .0464755
492.505 .0465137
493.362 .0465675
494.218 .0466373
495.073 .0467235
495.928 .0469195
496.781 .0470532
497.634 .0472071
498.486 .0473829
499.337 .0475830
500.187 .0478096
501.036 .0480654
501.884 .0483527
502.731 .0486742
503.578 .0490322
504.424 .0492873
505.268 .0497109
506.113 .0501814
506.956 .0507040
507.798 .0512862
508.640 .0519351
509.480 .0526609
510.320 .0534751
511.160 .0543899
511.998 .0554200
512.836 .0565816
513.672 .0578906
514.508 .0593660
515.344 .0610279
516.178 .0628989
517.012 .0650059
517.845 .0673758
518.677 .0700321
519.508 .0729949
520.339 .0762762
521.169 .0798790
521.998 .0837798
522.826 .0879441
523.654 .0923172
524.481 .0968314
525.307 .1014090
526.133 .1059625
526.958 .1104022
527.782 .1146405
528.605 .1185944
529.428 .1221877
530.250 .1253508
531.072 .1280347
531.892 .1301949
532.712 .1318029
533.532 .1328386
534.350 .1332883
535.168 .1331480
535.986 .1324209
536.802 .1311122
537.618 .1292339
538.434 .1268040
539.249 .1238648
540.063 .1204673
540.876 .1166779
541.689 .1125717
542.501 .1082303
543.313 .1037429
544.124 .0991973
544.934 .0946767
545.744 .0902584
546.553 .0860093
547.361 .0819883
548.169 .0782322
548.976 .0747700
549.783 .0716123
550.589 .0687577
551.395 .0661927
552.200 .0638930
553.004 .0618303
553.808 .0599766
554.611 .0583049
555.414 .0567917
556.216 .0554152
557.018 .0541547
557.819 .0529939
558.619 .0519197
559.419 .0509206
560.218 .0499872
561.017 .0491108
561.815 .0482841
562.613 .0475005
563.410 .0467546
564.207 .0460405
565.003 .0453540
565.799 .0446916
566.594 .0440505
567.388 .0434288
568.182 .0428259
568.976 .0422420
569.769 .0416773
570.562 .0411329
571.354 .0406099
572.145 .0401085
572.936 .0396288
573.727 .0391701
574.517 .0387322
575.307 .0383142
576.096 .0379153
576.885 .0375351
577.673 .0371734
578.461 .0368304
579.248 .0365061
580.035 .0362003
580.821 .0359131
581.607 .0356440
582.392 .0353922
583.177 .0351572
583.962 .0349383
584.746 .0347346
585.529 .0345456
586.313 .0343705
587.095 .0342083
587.878 .0340583
588.660 .0339199
589.441 .0337921
590.222 .0336743
591.003 .0335659
591.783 .0334663
592.563 .0333749
593.342 .0332908
594.121 .0332133
594.899 .0331416
595.678 .0330749
596.455 .0330124
597.233 .0329532
598.009 .0328968
598.786 .0328426
599.562 .0327901
600.338 .0327391
601.113 .0326894
601.888 .0326178
602.663 .0325706
603.437 .0325245
604.211 .0324793
604.984 .0324350
605.757 .0323914
606.530 .0323486
607.302 .0323065
608.074 .0322653
608.845 .0322249
609.616 .0321855
610.387 .0321685
611.158 .0321311
611.928 .0320948
612.697 .0320599
613.467 .0320263
614.236 .0319941
615.004 .0319632
615.773 .0319336
616.541 .0319052
617.308 .0318780
618.076 .0318519
618.843 .0318268
619.609 .0318026
620.375 .0317792
621.141 .0317563
621.907 .0317338
622.672 .0317116
623.437 .0316896
624.202 .0316676
624.966 .0316457
625.730 .0316237
626.493 .0316016
627.257 .0315793
628.020 .0315566
628.782 .0315336
629.545 .0315101
630.307 .0314859
631.068 .0314612
631.830 .0314357
632.591 .0314096
633.352 .0313830
634.112 .0313558
634.872 .0313281
635.632 .0313000
636.392 .0312713
637.151 .0312423
637.910 .0312130
638.668 .0311834
639.427 .0311536
640.185 .0311237
640.943 .0310939
641.700 .0310641
642.457 .0310344
643.214 .0310048
643.971 .0309754
644.727 .0309463
645.483 .0309173
646.239 .0308886
646.994 .0308601
647.750 .0308320
648.505 .0308043
649.259 .0307769
650.014 .0307500
650.768 .0307233
651.521 .0306970
652.275 .0306709
653.028 .0306451
653.781 .0306196
654.534 .0305944
655.286 .0305696
656.039 .0305451
656.791 .0305211
657.542 .0304974
658.294 .0304740
659.045 .0304508
659.796 .0304279
660.546 .0304050
661.297 .0303822
662.047 .0303594
662.796 .0303367
663.546 .0303140
664.295 .0302913
665.044 .0302686
665.793 .0302460
666.542 .0302235
667.290 .0302012
668.038 .0301790
668.786 .0301569
669.533 .0301350
670.281 .0301133
671.028 .0300919
671.774 .0300709
672.521 .0300501
673.267 .0300298
674.013 .0300098
674.759 .0299903
675.505 .0299712
676.250 .0299528
676.995 .0299349
677.740 .0299177
678.484 .0299012
679.229 .0298853
679.973 .0298701
680.717 .0298553
681.460 .0298409
682.204 .0298269
682.947 .0298132
683.690 .0297996
684.433 .0297862
685.175 .0297729
685.917 .0297597
686.659 .0297466
687.401 .0297336
688.142 .0297207
688.884 .0297076
689.625 .0296944
690.365 .0296810
691.106 .0296672
691.846 .0296531
692.586 .0296385
693.326 .0296235
694.066 .0296081
694.805 .0295923
695.545 .0295762
696.284 .0295597
697.022 .0295431
697.761 .0295263
698.499 .0295093
699.237 .0294922
699.975 .0294751
700.713 .0294579
701.450 .0294407
702.187 .0294235
702.924 .0294064
703.661 .0293893
704.397 .0293723
705.133 .0293554
705.869 .0293386
706.605 .0293218
707.341 .0293052
708.076 .0292887
708.811 .0292722
709.546 .0292557
710.281 .0292392
711.015 .0292227
711.749 .0292062
712.483 .0291896
713.217 .0291730
713.950 .0291563
714.684 .0291397
715.417 .0291230
716.150 .0291063
716.882 .0290894
717.615 .0290724
718.347 .0290551
719.079 .0290375
719.811 .0290197
720.542 .0290016
721.273 .0289833
722.005 .0289647
722.735 .0289459
723.466 .0289270
724.196 .0289081
724.927 .0288891
725.656 .0288701
726.386 .0288511
727.116 .0288323
727.845 .0288136
728.574 .0287950
729.303 .0287766
730.031 .0287585
730.760 .0287405
731.488 .0287228
732.216 .0287054
732.944 .0286882
733.671 .0286713
734.398 .0286548
735.125 .0286387
735.852 .0286228
736.579 .0286073
737.305 .0285920
738.031 .0285768
738.757 .0285618
739.483 .0285468
740.208 .0285318
740.933 .0285168
741.658 .0285018
742.383 .0284869
743.108 .0284719
743.832 .0284570
744.556 .0284421
745.280 .0284272
746.004 .0284122
746.727 .0283970
747.450 .0283817
748.173 .0283661
748.896 .0283502
749.618 .0283339
750.340 .0283173
751.062 .0283002
751.784 .0282826
752.506 .0282647
753.227 .0282463
753.948 .0282275
754.669 .0282084
755.389 .0281891
756.110 .0281694
756.830 .0281496
757.550 .0281296
758.269 .0281094
758.989 .0280892
759.708 .0280688
760.427 .0280483
761.146 .0280277
761.864 .0280071
762.582 .0279865
763.300 .0279659
764.018 .0279455
764.736 .0279253
765.453 .0279054
766.170 .0278859
766.887 .0278668
767.603 .0278483
768.320 .0278304
769.036 .0278131
769.751 .0277965
770.467 .0277805
771.182 .0277652
771.897 .0277505
772.612 .0277365
773.327 .0277230
774.041 .0277102
774.755 .0276980
775.469 .0276864
776.183 .0276754
776.896 .0276651
777.609 .0276553
778.322 .0276462
779.035 .0276376
779.747 .0276295
780.459 .0276219
781.171 .0276148
781.882 .0276080
782.594 .0276018
783.305 .0275959
784.016 .0275905
784.726 .0275856
785.436 .0275812
786.147 .0275766
786.856 .0275732
787.566 .0275702
788.275 .0275675
788.984 .0275650
789.693 .0275626
790.401 .0275602
791.110 .0275577
791.818 .0275550
792.525 .0275521
793.233 .0275489
793.940 .0275455
794.647 .0275427
795.353 .0275388
796.060 .0275347
796.766 .0275304
797.472 .0275258
798.177 .0275209
798.883 .0275157
799.588 .0275102
800.292 .0275043
800.997 .0274980
801.701 .0274914
802.405 .0274843
803.109 .0274769
803.812 .0274692
804.515 .0274611
805.218 .0274527
805.921 .0274441
806.623 .0274351
807.325 .0274260
808.027 .0274167
808.728 .0274073
809.429 .0273978
810.130 .0273883
810.831 .0273787
811.531 .0273692
812.231 .0273596
812.931 .0273501
813.630 .0273407
814.330 .0273315
815.029 .0273224
815.727 .0273137
816.426 .0273052
817.124 .0272971
817.821 .0272894
818.519 .0272822
819.216 .0272753
819.913 .0272689
820.609 .0272629
821.306 .0272573
822.002 .0272522
822.697 .0272476
823.393 .0272436
824.088 .0272401
824.783 .0272373
825.477 .0272350
826.171 .0272333
826.865 .0272321
827.559 .0272313
828.252 .0272309
828.945 .0272308
829.638 .0272308
830.330 .0272309
831.023 .0272309
831.714 .0272308
832.406 .0272305
833.097 .0272298
833.788 .0272288
834.479 .0272274
835.169 .0272255
835.859 .0272230
836.548 .0272201
837.238 .0272166
837.927 .0272126
838.615 .0272080
839.304 .0272030
839.992 .0271974
840.680 .0271914
841.367 .0271848
842.054 .0271778
842.741 .0271702
843.428 .0271622
844.114 .0271536
844.800 .0271444
845.485 .0271348
846.170 .0271246
846.855 .0271139
847.540 .0271027
848.224 .0270909
848.908 .0270785
849.592 .0270655
850.275 .0270518
850.958 .0270373
851.641 .0270222
852.323 .0270064
853.005 .0269900
853.687 .0269730
854.368 .0269555
855.049 .0269375
855.730 .0269190
856.410 .0269000
857.090 .0268806
857.769 .0268607
858.449 .0268404
859.128 .0268196
859.806 .0267986
860.485 .0267773
861.163 .0267559
861.840 .0267344
862.518 .0267128
863.195 .0266913
863.871 .0266697
864.548 .0266483
865.224 .0266271
865.899 .0266061
866.574 .0265853
867.249 .0265650
867.924 .0265449
868.598 .0265253
869.272 .0265061
869.946 .0264871
870.619 .0264685
871.292 .0264502
871.964 .0264320
872.636 .0264141
873.308 .0263964
873.979 .0263789
874.651 .0263617
875.321 .0263446
875.992 .0263277
876.662 .0263109
877.331 .0262944
878.001 .0262779
878.670 .0262616
879.338 .0262455
880.007 .0262295
880.675 .0262137
881.342 .0261982
882.009 .0261829
882.676 .0261679
883.343 .0261534
884.009 .0261392
884.675 .0261255
885.340 .0261123
886.005 .0260995
886.670 .0260873
887.334 .0260755
887.998 .0260642
888.662 .0260534
889.325 .0260429
889.988 .0260328
890.650 .0260231
891.312 .0260136
891.974 .0260043
892.636 .0259952
893.297 .0259862
893.957 .0259772
894.618 .0259683
895.278 .0259592
895.937 .0259500
896.596 .0259406
897.255 .0259309
897.914 .0259209
898.572 .0259105
899.230 .0258997
899.887 .0258883
900.544 .0258763
901.201 .0258637
901.857 .0258417
902.513 .0258274
903.168 .0258123
903.823 .0257967
904.478 .0257803
905.132 .0257633
905.786 .0257456
906.440 .0257274
907.093 .0257085
907.746 .0256891
908.399 .0256692
909.051 .0256490
909.703 .0256286
910.354 .0256178
911.005 .0255974
911.656 .0255771
912.306 .0255569
912.956 .0255368
913.605 .0255170
914.254 .0254974
914.903 .0254780
915.551 .0254590
916.199 .0254402
916.847 .0254217
917.494 .0254035
918.141 .0253856
918.788 .0253680
919.434 .0253506
920.079 .0253335
920.725 .0253165
921.370 .0252997
922.014 .0252830
922.658 .0252665
923.302 .0252500
923.946 .0252337
924.589 .0252174
925.231 .0252013
925.873 .0251854
926.515 .0251695
927.157 .0251538
927.798 .0251381
928.439 .0251226
929.079 .0251072
929.719 .0250920
930.359 .0250770
930.998 .0250622
931.637 .0250477
932.275 .0250336
932.913 .0250199
933.551 .0250066
934.188 .0249938
934.825 .0249817
935.462 .0249701
936.098 .0249594
936.733 .0249493
937.369 .0249402
938.004 .0249319
938.638 .0249245
939.273 .0249182
939.907 .0249127
940.540 .0249082
941.173 .0249046
941.806 .0249019
942.438 .0248999
943.070 .0248986
943.702 .0248980
944.333 .0248980
944.964 .0248985
945.594 .0248995
946.224 .0249010
946.854 .0249027
947.483 .0249047
948.112 .0249068
948.741 .0249091
949.369 .0249113
949.996 .0249136
950.624 .0249158
951.251 .0249180
951.878 .0249200
952.504 .0249220
953.130 .0249239
953.755 .0249257
954.380 .0249274
955.005 .0249290
955.629 .0249306
956.253 .0249321
956.877 .0249336
957.500 .0249352
958.123 .0249369
958.746 .0249388
959.368 .0249409
959.990 .0249435
960.611 .0249463
961.232 .0249496
961.853 .0249532
962.473 .0249572
963.093 .0249615
963.712 .0249660
964.331 .0249708
964.950 .0249757
965.569 .0249808
966.187 .0249860
966.804 .0249913
967.422 .0249966
968.039 .0250019
968.655 .0250071
969.272 .0250121
969.887 .0250170
970.503 .0250216
971.118 .0250258
971.733 .0250297
972.347 .0250331
972.961 .0250361
973.575 .0250386
974.188 .0250406
974.801 .0250421
975.414 .0250432
976.026 .0250437
976.638 .0250438
977.250 .0250434
977.861 .0250425
978.472 .0250412
979.083 .0250395
979.693 .0250375
980.303 .0250351
980.912 .0250311
981.521 .0250284
982.130 .0250255
982.738 .0250226
983.346 .0250198
983.954 .0250170
984.562 .0250145
985.169 .0250123
985.775 .0250103
986.382 .0250087
986.988 .0250075
987.594 .0250067
988.199 .0250063
988.804 .0250062
989.409 .0250074
990.013 .0250080
990.617 .0250089
991.221 .0250102
991.824 .0250120
992.427 .0250141
993.030 .0250166
993.632 .0250193
994.234 .0250222
994.836 .0250253
995.438 .0250283
996.039 .0250314
996.640 .0250344
997.240 .0250375
997.840 .0250406
998.440 .0250437
999.040 .0250469
999.639 .0250501
1000.238 .0250533
1000.836 .0250566
1001.435 .0250598
1002.033 .0250630
1002.630 .0250662
1003.228 .0250694
1003.825 .0250725
1004.422 .0250757
1005.018 .0250789
1005.614 .0250821
1006.210 .0250854
1006.806 .0250886
1007.401 .0250917
1007.996 .0250947
1008.591 .0250976
1009.186 .0251002
1009.780 .0251027
1010.374 .0251051
1010.967 .0251073
1011.561 .0251095
1012.154 .0251116
1012.746 .0251137
1013.339 .0251158
1013.931 .0251179
1014.523 .0251199
1015.115 .0251219
1015.706 .0251238
1016.298 .0251258
1016.888 .0251279
1017.479 .0251301
1018.069 .0251324
1018.660 .0251349
1019.250 .0251375
1019.839 .0251403
1020.429 .0251430
1021.018 .0251457
1021.607 .0251483
1022.195 .0251508
1022.784 .0251533
1023.372 .0251558
1023.960 .0251585
1024.547 .0251613
1025.135 .0251643
1025.722 .0251675
1026.309 .0251708
1026.896 .0251742
1027.483 .0251777
1028.069 .0251810
1028.655 .0251843
1029.241 .0251874
1029.827 .0251905
1030.412 .0251936
1030.997 .0251967
1031.582 .0251999
1032.167 .0252030
1032.752 .0252061
1033.336 .0252090
1033.921 .0252116
1034.505 .0252138
1035.089 .0252156
1035.672 .0252168
1036.256 .0252176
1036.839 .0252180
1037.422 .0252180
1038.005 .0252177
1038.588 .0252171
1039.171 .0252161
1039.753 .0252147
1040.335 .0252128
1040.918 .0252102
1041.500 .0252069
1042.081 .0252029
1042.663 .0251983
1043.244 .0251931
1043.826 .0251875
1044.407 .0251816
1044.988 .0251755
1045.569 .0251692
1046.150 .0251627
1046.730 .0251558
1047.311 .0251486
1047.891 .0251409
1048.471 .0251328
1049.052 .0251242
1049.632 .0251153
1050.211 .0251060
1050.791 .0250966
1051.371 .0250871
1051.950 .0250776
1052.530 .0250679
1053.109 .0250580
1053.688 .0250477
1054.268 .0250371
1054.847 .0250261
1055.426 .0250146
1056.005 .0250027
1056.583 .0249905
1057.162 .0249782
1057.741 .0249659
1058.319 .0249537
1058.898 .0249416
1059.476 .0249296
1060.055 .0249179
1060.633 .0249062
1061.211 .0248947
1061.790 .0248833
1062.368 .0248722
1062.946 .0248613
1063.524 .0248509
1064.102 .0248409
1064.680 .0248315
1065.258 .0248225
1065.836 .0248140
1066.414 .0248059
1066.992 .0247981
1067.570 .0247905
1068.148 .0247830
1068.726 .0247756
1069.304 .0247683
1069.882 .0247611
1070.460 .0247539
1071.038 .0247469
1071.616 .0247400
1072.194 .0247331
1072.772 .0247263
1073.350 .0247193
1073.928 .0247121
1074.506 .0247048
1075.084 .0246972
1075.662 .0246893
1076.240 .0246813
1076.819 .0246730
1077.397 .0246647
1077.976 .0246562
1078.554 .0246478
1079.133 .0246393
1079.711 .0246310
1080.290 .0246227
1080.869 .0246146
1081.448 .0246065
1082.027 .0245985
1082.606 .0245906
1083.185 .0245828
1083.764 .0245750
1084.343 .0245673
1084.923 .0245598
1085.502 .0245525
1086.082 .0245456
1086.662 .0245392
1087.242 .0245336
1087.822 .0245287
1088.402 .0245246
1088.983 .0245215
1089.563 .0245192
1090.144 .0245177
1090.725 .0245170
1091.306 .0245170
1091.887 .0245176
1092.469 .0245186
1093.050 .0245200
1093.632 .0245219
1094.214 .0245243
1094.796 .0245270
1095.379 .0245303
1095.961 .0245341
1096.544 .0245385
1097.127 .0245434
1097.710 .0245487
1098.294 .0245543
1098.877 .0245603
1099.461 .0245664
1100.046 .0245728
1100.630 .0245795
1101.215 .0245867
1101.800 .0245945
1102.385 .0246033
1102.970 .0246130
1103.556 .0246239
1104.142 .0246360
1104.728 .0246491
1105.315 .0246633
1105.902 .0246783
1106.489 .0246943
1107.077 .0247113
1107.664 .0247295
1108.253 .0247491
1108.841 .0247705
1109.430 .0247938
1110.019 .0248193
1110.609 .0248469
1111.198 .0248765
1111.789 .0249079
1112.379 .0249406
1112.970 .0249743
1113.561 .0250087
1114.153 .0250434
1114.745 .0250785
1115.338 .0251142
1115.931 .0251507
1116.524 .0251881
1117.117 .0252267
1117.712 .0252665
1118.306 .0253075
1118.901 .0253494
1119.496 .0253922
1120.092 .0254355
1120.689 .0254792
1121.285 .0255234
1121.882 .0255684
1122.480 .0256147
1123.078 .0256627
1123.677 .0257128
1124.276 .0257654
1124.875 .0258203
1125.476 .0258772
1126.076 .0259359
1126.677 .0259959
1127.279 .0260568
1127.881 .0261179
1128.484 .0261793
1129.087 .0262044
1129.691 .0262665
1130.295 .0263293
1130.900 .0263929
1131.505 .0264573
1132.111 .0265225
1132.718 .0265884
1133.325 .0266543
1133.933 .0267197
1134.541 .0267850
1135.150 .0268501
1135.760 .0269200
1136.370 .0269743
1136.981 .0272031
1137.592 .0272685
1138.204 .0273319
1138.817 .0273900
1139.431 .0274443
1140.045 .0274973
1140.660 .0275491
1141.275 .0275806
1141.891 .0276027
1142.508 .0276409
1143.126 .0276812
1143.744 .0278596
1144.363 .0274672
1144.983 .0274399
