Measurement Sequence started on: 15-12-46-377
Integration time: 28
Scans to Average: 2 
>>>>>Begin Spectral Data<<<<<
432.689 .0000100
433.621 .0000100
434.552 .0000100
435.482 .0000100
436.410 .0000100
437.337 .0000100
438.262 .0270199
439.187 .0572221
440.110 .0948161
441.031 .1371846
441.952 .1101803
442.871 .1150577
443.789 .1195851
444.705 .1238354
445.621 .1278608
446.535 .1317034
447.447 .1339704
448.359 .1345155
449.269 .1329684
450.178 .1290906
451.086 .1229543
451.993 .1150266
452.898 .1060836
453.803 .0970095
454.706 .0885581
455.608 .0811992
456.508 .0750947
457.408 .0709450
458.306 .0677497
459.204 .0651516
460.100 .0629679
460.995 .0610972
461.888 .0594676
462.781 .0580283
463.673 .0567399
464.563 .0555756
465.452 .0545169
466.340 .0535480
467.228 .0526591
468.114 .0518419
468.999 .0510905
469.882 .0503984
470.765 .0497606
471.647 .0491714
472.528 .0486265
473.407 .0481210
474.286 .0476521
475.163 .0472181
476.040 .0468185
476.915 .0464530
477.790 .0461221
478.663 .0458259
479.535 .0455640
480.407 .0453341
481.277 .0451345
482.147 .0449625
483.015 .0448152
483.883 .0446902
484.749 .0445858
485.615 .0445004
486.479 .0444336
487.343 .0443848
488.206 .0443545
489.067 .0443425
489.928 .0443490
490.788 .0443742
491.647 .0444179
492.505 .0444802
493.362 .0445612
494.218 .0446612
495.073 .0447817
495.928 .0450429
496.781 .0452246
497.634 .0454331
498.486 .0456701
499.337 .0459379
500.187 .0462385
501.036 .0465744
501.884 .0469483
502.731 .0473632
503.578 .0478219
504.424 .0481482
505.268 .0486834
506.113 .0492709
506.956 .0499145
507.798 .0506189
508.640 .0513898
509.480 .0522369
510.320 .0531689
511.160 .0541968
511.998 .0553333
512.836 .0565955
513.672 .0579992
514.508 .0595629
515.344 .0613075
516.178 .0632539
517.012 .0654253
517.845 .0678430
518.677 .0705266
519.508 .0734922
520.339 .0767498
521.169 .0803041
521.998 .0841370
522.826 .0882199
523.654 .0925022
524.481 .0969235
525.307 .1014106
526.133 .1058765
526.958 .1102247
527.782 .1143639
528.605 .1182077
529.428 .1216768
530.250 .1247000
531.072 .1272295
531.892 .1292285
532.712 .1306742
533.532 .1315514
534.350 .1318548
535.168 .1315886
535.986 .1307609
536.802 .1293767
537.618 .1274453
538.434 .1249775
539.249 .1220066
540.063 .1185754
540.876 .1147466
541.689 .1105921
542.501 .1061945
543.313 .1016468
544.124 .0970464
544.934 .0924838
545.744 .0880397
546.553 .0837840
547.361 .0797739
548.169 .0760418
548.976 .0726076
549.783 .0694737
550.589 .0666358
551.395 .0640766
552.200 .0617716
553.004 .0596921
553.808 .0578163
554.611 .0561230
555.414 .0545940
556.216 .0532112
557.018 .0519565
557.819 .0508137
558.619 .0497664
559.419 .0488000
560.218 .0479019
561.017 .0470612
561.815 .0462703
562.613 .0455232
563.410 .0448162
564.207 .0441457
565.003 .0435101
565.799 .0429070
566.594 .0423339
567.388 .0417879
568.182 .0412658
568.976 .0407649
569.769 .0402833
570.562 .0398190
571.354 .0393711
572.145 .0389390
572.936 .0385225
573.727 .0381215
574.517 .0377363
575.307 .0373674
576.096 .0370145
576.885 .0366776
577.673 .0363561
578.461 .0360492
579.248 .0357562
580.035 .0354764
580.821 .0352091
581.607 .0349535
582.392 .0347091
583.177 .0344757
583.962 .0342535
584.746 .0340430
585.529 .0338442
586.313 .0336572
587.095 .0334822
587.878 .0333188
588.660 .0331665
589.441 .0330250
590.222 .0328938
591.003 .0327722
591.783 .0326595
592.563 .0325551
593.342 .0324580
594.121 .0323679
594.899 .0322840
595.678 .0322058
596.455 .0321326
597.233 .0320640
598.009 .0319993
598.786 .0319382
599.562 .0318802
600.338 .0318248
601.113 .0317717
601.888 .0316983
602.663 .0316500
603.437 .0316035
604.211 .0315587
604.984 .0315156
605.757 .0314742
606.530 .0314345
607.302 .0313968
608.074 .0313609
608.845 .0313272
609.616 .0312957
610.387 .0312852
611.158 .0312573
611.928 .0312318
612.697 .0312085
613.467 .0311875
614.236 .0311687
615.004 .0311518
615.773 .0311367
616.541 .0311234
617.308 .0311117
618.076 .0311013
618.843 .0310923
619.609 .0310842
620.375 .0310769
621.141 .0310702
621.907 .0310636
622.672 .0310570
623.437 .0310499
624.202 .0310422
624.966 .0310337
625.730 .0310240
626.493 .0310132
627.257 .0310011
628.020 .0309875
628.782 .0309725
629.545 .0309559
630.307 .0309376
631.068 .0309178
631.830 .0308964
632.591 .0308736
633.352 .0308495
634.112 .0308242
634.872 .0307979
635.632 .0307707
636.392 .0307426
637.151 .0307139
637.910 .0306846
638.668 .0306549
639.427 .0306249
640.185 .0305947
640.943 .0305644
641.700 .0305343
642.457 .0305045
643.214 .0304750
643.971 .0304459
644.727 .0304172
645.483 .0303888
646.239 .0303607
646.994 .0303328
647.750 .0303051
648.505 .0302776
649.259 .0302502
650.014 .0302227
650.768 .0301951
651.521 .0301675
652.275 .0301397
653.028 .0301117
653.781 .0300836
654.534 .0300553
655.286 .0300269
656.039 .0299984
656.791 .0299698
657.542 .0299414
658.294 .0299132
659.045 .0298852
659.796 .0298575
660.546 .0298302
661.297 .0298033
662.047 .0297769
662.796 .0297512
663.546 .0297261
664.295 .0297017
665.044 .0296781
665.793 .0296555
666.542 .0296339
667.290 .0296135
668.038 .0295942
668.786 .0295760
669.533 .0295591
670.281 .0295432
671.028 .0295284
671.774 .0295146
672.521 .0295019
673.267 .0294901
674.013 .0294794
674.759 .0294696
675.505 .0294606
676.250 .0294524
676.995 .0294450
677.740 .0294382
678.484 .0294319
679.229 .0294260
679.973 .0294206
680.717 .0294154
681.460 .0294106
682.204 .0294059
682.947 .0294013
683.690 .0293966
684.433 .0293917
685.175 .0293866
685.917 .0293811
686.659 .0293752
687.401 .0293689
688.142 .0293621
688.884 .0293550
689.625 .0293474
690.365 .0293394
691.106 .0293308
691.846 .0293216
692.586 .0293117
693.326 .0293011
694.066 .0292896
694.805 .0292774
695.545 .0292644
696.284 .0292506
697.022 .0292362
697.761 .0292211
698.499 .0292055
699.237 .0291892
699.975 .0291724
700.713 .0291550
701.450 .0291372
702.187 .0291190
702.924 .0291004
703.661 .0290814
704.397 .0290620
705.133 .0290421
705.869 .0290219
706.605 .0290012
707.341 .0289800
708.076 .0289584
708.811 .0289363
709.546 .0289139
710.281 .0288911
711.015 .0288681
711.749 .0288447
712.483 .0288211
713.217 .0287971
713.950 .0287727
714.684 .0287478
715.417 .0287225
716.150 .0286967
716.882 .0286704
717.615 .0286436
718.347 .0286165
719.079 .0285891
719.811 .0285614
720.542 .0285336
721.273 .0285056
722.005 .0284775
722.735 .0284494
723.466 .0284214
724.196 .0283935
724.927 .0283658
725.656 .0283385
726.386 .0283116
727.116 .0282853
727.845 .0282598
728.574 .0282350
729.303 .0282111
730.031 .0281882
730.760 .0281663
731.488 .0281454
732.216 .0281256
732.944 .0281068
733.671 .0280892
734.398 .0280726
735.125 .0280571
735.852 .0280426
736.579 .0280291
737.305 .0280166
738.031 .0280051
738.757 .0279945
739.483 .0279847
740.208 .0279758
740.933 .0279676
741.658 .0279601
742.383 .0279531
743.108 .0279467
743.832 .0279408
744.556 .0279353
745.280 .0279302
746.004 .0279254
746.727 .0279209
747.450 .0279167
748.173 .0279128
748.896 .0279091
749.618 .0279057
750.340 .0279024
751.062 .0278994
751.784 .0278967
752.506 .0278941
753.227 .0278917
753.948 .0278895
754.669 .0278874
755.389 .0278855
756.110 .0278837
756.830 .0278821
757.550 .0278805
758.269 .0278790
758.989 .0278776
759.708 .0278762
760.427 .0278747
761.146 .0278732
761.864 .0278715
762.582 .0278695
763.300 .0278673
764.018 .0278648
764.736 .0278621
765.453 .0278591
766.170 .0278558
766.887 .0278524
767.603 .0278487
768.320 .0278450
769.036 .0278411
769.751 .0278373
770.467 .0278333
771.182 .0278294
771.897 .0278255
772.612 .0278215
773.327 .0278177
774.041 .0278138
774.755 .0278099
775.469 .0278059
776.183 .0278018
776.896 .0277975
777.609 .0277929
778.322 .0277882
779.035 .0277832
779.747 .0277779
780.459 .0277723
781.171 .0277663
781.882 .0277599
782.594 .0277530
783.305 .0277454
784.016 .0277371
784.726 .0277280
785.436 .0277180
786.147 .0276992
786.856 .0276869
787.566 .0276737
788.275 .0276597
788.984 .0276447
789.693 .0276289
790.401 .0276123
791.110 .0275948
791.818 .0275765
792.525 .0275574
793.233 .0275375
793.940 .0275168
794.647 .0275049
795.353 .0274834
796.060 .0274612
796.766 .0274384
797.472 .0274151
798.177 .0273913
798.883 .0273670
799.588 .0273424
800.292 .0273173
800.997 .0272919
801.701 .0272662
802.405 .0272402
803.109 .0272139
803.812 .0271873
804.515 .0271603
805.218 .0271329
805.921 .0271053
806.623 .0270773
807.325 .0270491
808.027 .0270207
808.728 .0269922
809.429 .0269637
810.130 .0269351
810.831 .0269066
811.531 .0268782
812.231 .0268499
812.931 .0268218
813.630 .0267941
814.330 .0267667
815.029 .0267398
815.727 .0267135
816.426 .0266878
817.124 .0266628
817.821 .0266387
818.519 .0266154
819.216 .0265930
819.913 .0265717
820.609 .0265516
821.306 .0265326
822.002 .0265149
822.697 .0264985
823.393 .0264834
824.088 .0264696
824.783 .0264571
825.477 .0264457
826.171 .0264355
826.865 .0264264
827.559 .0264185
828.252 .0264117
828.945 .0264061
829.638 .0264015
830.330 .0263980
831.023 .0263954
831.714 .0263938
832.406 .0263930
833.097 .0263931
833.788 .0263938
834.479 .0263953
835.169 .0263974
835.859 .0264001
836.548 .0264034
837.238 .0264072
837.927 .0264114
838.615 .0264160
839.304 .0264210
839.992 .0264262
840.680 .0264317
841.367 .0264374
842.054 .0264433
842.741 .0264495
843.428 .0264559
844.114 .0264624
844.800 .0264689
845.485 .0264755
846.170 .0264821
846.855 .0264887
847.540 .0264952
848.224 .0265017
848.908 .0265080
849.592 .0265142
850.275 .0265203
850.958 .0265262
851.641 .0265320
852.323 .0265376
853.005 .0265429
853.687 .0265481
854.368 .0265529
855.049 .0265576
855.730 .0265620
856.410 .0265661
857.090 .0265700
857.769 .0265736
858.449 .0265768
859.128 .0265798
859.806 .0265825
860.485 .0265849
861.163 .0265871
861.840 .0265890
862.518 .0265906
863.195 .0265920
863.871 .0265929
864.548 .0265934
865.224 .0265934
865.899 .0265930
866.574 .0265920
867.249 .0265906
867.924 .0265887
868.598 .0265863
869.272 .0265836
869.946 .0265804
870.619 .0265767
871.292 .0265727
871.964 .0265682
872.636 .0265634
873.308 .0265583
873.979 .0265529
874.651 .0265472
875.321 .0265414
875.992 .0265354
876.662 .0265292
877.331 .0265228
878.001 .0265162
878.670 .0265095
879.338 .0265025
880.007 .0264954
880.675 .0264882
881.342 .0264808
882.009 .0264733
882.676 .0264655
883.343 .0264576
884.009 .0264495
884.675 .0264410
885.340 .0264323
886.005 .0264232
886.670 .0264138
887.334 .0264040
887.998 .0263938
888.662 .0263832
889.325 .0263722
889.988 .0263606
890.650 .0263484
891.312 .0263356
891.974 .0263222
892.636 .0263080
893.297 .0262931
893.957 .0262775
894.618 .0262612
895.278 .0262442
895.937 .0262266
896.596 .0262083
897.255 .0261895
897.914 .0261700
898.572 .0261498
899.230 .0261290
899.887 .0261074
900.544 .0260851
901.201 .0260621
901.857 .0260245
902.513 .0259996
903.168 .0259740
903.823 .0259477
904.478 .0259207
905.132 .0258930
905.786 .0258645
906.440 .0258353
907.093 .0258054
907.746 .0257750
908.399 .0257440
909.051 .0257126
909.703 .0256809
910.354 .0256640
911.005 .0256322
911.656 .0256004
912.306 .0255683
912.956 .0255362
913.605 .0255040
914.254 .0254718
914.903 .0254396
915.551 .0254074
916.199 .0253754
916.847 .0253437
917.494 .0253121
918.141 .0252807
918.788 .0252495
919.434 .0252185
920.079 .0251875
920.725 .0251565
921.370 .0251256
922.014 .0250948
922.658 .0250642
923.302 .0250338
923.946 .0250038
924.589 .0249743
925.231 .0249451
925.873 .0249164
926.515 .0248881
927.157 .0248601
927.798 .0248326
928.439 .0248056
929.079 .0247790
929.719 .0247529
930.359 .0247275
930.998 .0247028
931.637 .0246788
932.275 .0246557
932.913 .0246335
933.551 .0246122
934.188 .0245918
934.825 .0245723
935.462 .0245540
936.098 .0245367
936.733 .0245206
937.369 .0245057
938.004 .0244922
938.638 .0244798
939.273 .0244688
939.907 .0244590
940.540 .0244505
941.173 .0244430
941.806 .0244368
942.438 .0244315
943.070 .0244273
943.702 .0244241
944.333 .0244218
944.964 .0244204
945.594 .0244198
946.224 .0244198
946.854 .0244203
947.483 .0244214
948.112 .0244229
948.741 .0244249
949.369 .0244271
949.996 .0244298
950.624 .0244327
951.251 .0244360
951.878 .0244397
952.504 .0244436
953.130 .0244477
953.755 .0244521
954.380 .0244567
955.005 .0244615
955.629 .0244665
956.253 .0244717
956.877 .0244772
957.500 .0244830
958.123 .0244891
958.746 .0244956
959.368 .0245026
959.990 .0245100
960.611 .0245179
961.232 .0245263
961.853 .0245351
962.473 .0245445
963.093 .0245543
963.712 .0245647
964.331 .0245756
964.950 .0245871
965.569 .0245991
966.187 .0246116
966.804 .0246246
967.422 .0246380
968.039 .0246518
968.655 .0246659
969.272 .0246802
969.887 .0246948
970.503 .0247094
971.118 .0247241
971.733 .0247388
972.347 .0247534
972.961 .0247679
973.575 .0247822
974.188 .0247962
974.801 .0248098
975.414 .0248230
976.026 .0248356
976.638 .0248476
977.250 .0248590
977.861 .0248698
978.472 .0248797
979.083 .0248890
979.693 .0248975
980.303 .0249053
980.912 .0249132
981.521 .0249192
982.130 .0249245
982.738 .0249292
983.346 .0249333
983.954 .0249369
984.562 .0249401
985.169 .0249430
985.775 .0249457
986.382 .0249484
986.988 .0249510
987.594 .0249538
988.199 .0249567
988.804 .0249599
989.409 .0249627
990.013 .0249665
990.617 .0249706
991.221 .0249752
991.824 .0249801
992.427 .0249855
993.030 .0249913
993.632 .0249975
994.234 .0250039
994.836 .0250106
995.438 .0250175
996.039 .0250246
996.640 .0250318
997.240 .0250392
997.840 .0250468
998.440 .0250545
999.040 .0250622
999.639 .0250699
1000.238 .0250775
1000.836 .0250849
1001.435 .0250920
1002.033 .0250988
1002.630 .0251052
1003.228 .0251111
1003.825 .0251166
1004.422 .0251217
1005.018 .0251262
1005.614 .0251302
1006.210 .0251335
1006.806 .0251362
1007.401 .0251380
1007.996 .0251390
1008.591 .0251392
1009.186 .0251385
1009.780 .0251370
1010.374 .0251349
1010.967 .0251321
1011.561 .0251288
1012.154 .0251249
1012.746 .0251207
1013.339 .0251160
1013.931 .0251110
1014.523 .0251056
1015.115 .0251000
1015.706 .0250941
1016.298 .0250880
1016.888 .0250820
1017.479 .0250760
1018.069 .0250701
1018.660 .0250645
1019.250 .0250590
1019.839 .0250537
1020.429 .0250484
1021.018 .0250432
1021.607 .0250379
1022.195 .0250325
1022.784 .0250271
1023.372 .0250216
1023.960 .0250160
1024.547 .0250104
1025.135 .0250047
1025.722 .0249990
1026.309 .0249930
1026.896 .0249869
1027.483 .0249803
1028.069 .0249733
1028.655 .0249658
1029.241 .0249578
1029.827 .0249493
1030.412 .0249403
1030.997 .0249308
1031.582 .0249210
1032.167 .0249108
1032.752 .0249000
1033.336 .0248887
1033.921 .0248767
1034.505 .0248638
1035.089 .0248500
1035.672 .0248354
1036.256 .0248198
1036.839 .0248033
1037.422 .0247862
1038.005 .0247684
1038.588 .0247500
1039.171 .0247313
1039.753 .0247122
1040.335 .0246928
1040.918 .0246730
1041.500 .0246528
1042.081 .0246323
1042.663 .0246116
1043.244 .0245907
1043.826 .0245698
1044.407 .0245491
1044.988 .0245285
1045.569 .0245083
1046.150 .0244885
1046.730 .0244690
1047.311 .0244498
1047.891 .0244307
1048.471 .0244118
1049.052 .0243930
1049.632 .0243743
1050.211 .0243558
1050.791 .0243375
1051.371 .0243196
1051.950 .0243019
1052.530 .0242846
1053.109 .0242676
1053.688 .0242508
1054.268 .0242342
1054.847 .0242179
1055.426 .0242017
1056.005 .0241859
1056.583 .0241705
1057.162 .0241555
1057.741 .0241409
1058.319 .0241268
1058.898 .0241131
1059.476 .0240996
1060.055 .0240862
1060.633 .0240730
1061.211 .0240600
1061.790 .0240473
1062.368 .0240350
1062.946 .0240232
1063.524 .0240120
1064.102 .0240016
1064.680 .0239919
1065.258 .0239827
1065.836 .0239739
1066.414 .0239655
1066.992 .0239574
1067.570 .0239494
1068.148 .0239416
1068.726 .0239340
1069.304 .0239268
1069.882 .0239198
1070.460 .0239132
1071.038 .0239068
1071.616 .0239006
1072.194 .0238944
1072.772 .0238880
1073.350 .0238813
1073.928 .0238741
1074.506 .0238667
1075.084 .0238592
1075.662 .0238517
1076.240 .0238446
1076.819 .0238380
1077.397 .0238322
1077.976 .0238271
1078.554 .0238230
1079.133 .0238195
1079.711 .0238167
1080.290 .0238145
1080.869 .0238127
1081.448 .0238115
1082.027 .0238110
1082.606 .0238113
1083.185 .0238127
1083.764 .0238150
1084.343 .0238183
1084.923 .0238226
1085.502 .0238275
1086.082 .0238331
1086.662 .0238392
1087.242 .0238456
1087.822 .0238525
1088.402 .0238599
1088.983 .0238680
1089.563 .0238769
1090.144 .0238869
1090.725 .0238979
1091.306 .0239100
1091.887 .0239231
1092.469 .0239370
1093.050 .0239517
1093.632 .0239670
1094.214 .0239829
1094.796 .0239993
1095.379 .0240162
1095.961 .0240336
1096.544 .0240515
1097.127 .0240701
1097.710 .0240895
1098.294 .0241098
1098.877 .0241308
1099.461 .0241527
1100.046 .0241754
1100.630 .0241991
1101.215 .0242236
1101.800 .0242491
1102.385 .0242758
1102.970 .0243035
1103.556 .0243325
1104.142 .0243627
1104.728 .0243943
1105.315 .0244274
1105.902 .0244619
1106.489 .0244978
1107.077 .0245352
1107.664 .0245742
1108.253 .0246144
1108.841 .0246560
1109.430 .0246987
1110.019 .0247423
1110.609 .0247865
1111.198 .0248313
1111.789 .0248766
1112.379 .0249223
1112.970 .0249684
1113.561 .0250148
1114.153 .0250617
1114.745 .0251090
1115.338 .0251567
1115.931 .0252046
1116.524 .0252527
1117.117 .0253007
1117.712 .0253486
1118.306 .0253964
1118.901 .0254442
1119.496 .0254922
1120.092 .0255406
1120.689 .0255897
1121.285 .0256395
1121.882 .0256900
1122.480 .0257416
1123.078 .0257943
1123.677 .0258483
1124.276 .0259037
1124.875 .0259606
1125.476 .0260194
1126.076 .0260803
1126.677 .0261434
1127.279 .0262091
1127.881 .0262771
1128.484 .0263474
1129.087 .0263765
1129.691 .0264500
1130.295 .0265258
1130.900 .0266040
1131.505 .0266847
1132.111 .0267680
1132.718 .0268536
1133.325 .0269419
1133.933 .0270322
1134.541 .0271297
1135.150 .0272255
1135.760 .0273141
1136.370 .0274190
1136.981 .0275298
1137.592 .0276358
1138.204 .0277456
1138.817 .0278626
1139.431 .0279870
1140.045 .0281140
1140.660 .0282343
1141.275 .0283623
1141.891 .0284683
1142.508 .0287147
1143.126 .0287088
1143.744 .0285535
1144.363 .0290552
1144.983 .0286348
