Measurement Sequence started on: 15-12-46-377
Integration time: 28
Scans to Average: 2 
>>>>>Begin Spectral Data<<<<<
432.689 .0000100
433.621 .0000100
434.552 .0000100
435.482 .0000100
436.410 .0000100
437.337 .0000100
438.262 .0284915
439.187 .0603322
440.110 .1000012
441.031 .1447825
441.952 .1160635
442.871 .1211751
443.789 .1259206
444.705 .1303731
445.621 .1345853
446.535 .1385991
447.447 .1409460
448.359 .1414740
449.269 .1397926
450.178 .1356490
451.086 .1291251
451.993 .1207165
452.898 .1112452
453.803 .1016451
454.706 .0927133
455.608 .0849456
456.508 .0785125
457.408 .0741518
458.306 .0708064
459.204 .0681004
460.100 .0658433
460.995 .0639237
461.888 .0622697
462.781 .0608286
463.673 .0595598
464.563 .0584332
465.452 .0574260
466.340 .0565185
467.228 .0556967
468.114 .0549511
468.999 .0542734
469.882 .0536561
470.765 .0530926
471.647 .0525759
472.528 .0521003
473.407 .0516598
474.286 .0512502
475.163 .0508688
476.040 .0505143
476.915 .0501862
477.790 .0498848
478.663 .0496114
479.535 .0493666
480.407 .0491507
481.277 .0489631
482.147 .0488032
483.015 .0486695
483.883 .0485606
484.749 .0484756
485.615 .0484139
486.479 .0483753
487.343 .0483598
488.206 .0483678
489.067 .0483987
489.928 .0484528
490.788 .0485289
491.647 .0486260
492.505 .0487428
493.362 .0488782
494.218 .0490317
495.073 .0492026
495.928 .0495216
496.781 .0497397
497.634 .0499781
498.486 .0502376
499.337 .0505209
500.187 .0508305
501.036 .0511689
501.884 .0515391
502.731 .0519446
503.578 .0523886
504.424 .0526981
505.268 .0532150
506.113 .0537816
506.956 .0544028
507.798 .0550854
508.640 .0558381
509.480 .0566717
510.320 .0575984
511.160 .0586322
511.998 .0597888
512.836 .0610864
513.672 .0625407
514.508 .0641708
515.344 .0659977
516.178 .0680427
517.012 .0703281
517.845 .0728781
518.677 .0757175
519.508 .0788675
520.339 .0823422
521.169 .0861502
521.998 .0902731
522.826 .0946795
523.654 .0993136
524.481 .1041017
525.307 .1089591
526.133 .1137877
526.958 .1184817
527.782 .1229401
528.605 .1270706
529.428 .1307927
530.250 .1340338
531.072 .1367490
531.892 .1388999
532.712 .1404621
533.532 .1414228
534.350 .1417758
535.168 .1415216
535.986 .1406636
536.802 .1392048
537.618 .1371524
538.434 .1345175
539.249 .1313377
540.063 .1276608
540.876 .1235554
541.689 .1191051
542.501 .1144018
543.313 .1095458
544.124 .1046421
544.934 .0997876
545.744 .0950662
546.553 .0905471
547.361 .0862883
548.169 .0823214
548.976 .0786687
549.783 .0753353
550.589 .0723149
551.395 .0695911
552.200 .0671392
553.004 .0649294
553.808 .0629346
554.611 .0611305
555.414 .0594950
556.216 .0580058
557.018 .0566426
557.819 .0553888
558.619 .0542298
559.419 .0531532
560.218 .0521487
561.017 .0512071
561.815 .0503210
562.613 .0494845
563.410 .0486928
564.207 .0479415
565.003 .0472274
565.799 .0465472
566.594 .0458974
567.388 .0452754
568.182 .0446787
568.976 .0441050
569.769 .0435530
570.562 .0430225
571.354 .0425127
572.145 .0420230
572.936 .0415530
573.727 .0411022
574.517 .0406700
575.307 .0402559
576.096 .0398587
576.885 .0394777
577.673 .0391124
578.461 .0387621
579.248 .0384265
580.035 .0381060
580.821 .0378008
581.607 .0375110
582.392 .0372364
583.177 .0369773
583.962 .0367335
584.746 .0365046
585.529 .0362905
586.313 .0360905
587.095 .0359042
587.878 .0357311
588.660 .0355706
589.441 .0354226
590.222 .0352864
591.003 .0351619
591.783 .0350484
592.563 .0349451
593.342 .0348512
594.121 .0347658
594.899 .0346878
595.678 .0346162
596.455 .0345501
597.233 .0344884
598.009 .0344304
598.786 .0343755
599.562 .0343231
600.338 .0342729
601.113 .0342245
601.888 .0341577
602.663 .0341136
603.437 .0340712
604.211 .0340303
604.984 .0339909
605.757 .0339528
606.530 .0339159
607.302 .0338802
608.074 .0338455
608.845 .0338117
609.616 .0337789
610.387 .0337650
611.158 .0337335
611.928 .0337030
612.697 .0336734
613.467 .0336447
614.236 .0336169
615.004 .0335900
615.773 .0335638
616.541 .0335382
617.308 .0335130
618.076 .0334880
618.843 .0334629
619.609 .0334376
620.375 .0334119
621.141 .0333856
621.907 .0333586
622.672 .0333308
623.437 .0333020
624.202 .0332723
624.966 .0332415
625.730 .0332096
626.493 .0331765
627.257 .0331423
628.020 .0331069
628.782 .0330703
629.545 .0330326
630.307 .0329939
631.068 .0329541
631.830 .0329135
632.591 .0328721
633.352 .0328301
634.112 .0327877
634.872 .0327449
635.632 .0327019
636.392 .0326589
637.151 .0326161
637.910 .0325736
638.668 .0325314
639.427 .0324897
640.185 .0324486
640.943 .0324082
641.700 .0323685
642.457 .0323297
643.214 .0322919
643.971 .0322551
644.727 .0322194
645.483 .0321847
646.239 .0321512
646.994 .0321186
647.750 .0320871
648.505 .0320564
649.259 .0320264
650.014 .0319972
650.768 .0319687
651.521 .0319409
652.275 .0319137
653.028 .0318872
653.781 .0318613
654.534 .0318361
655.286 .0318114
656.039 .0317873
656.791 .0317637
657.542 .0317407
658.294 .0317181
659.045 .0316961
659.796 .0316747
660.546 .0316541
661.297 .0316341
662.047 .0316149
662.796 .0315966
663.546 .0315791
664.295 .0315624
665.044 .0315464
665.793 .0315312
666.542 .0315166
667.290 .0315025
668.038 .0314889
668.786 .0314758
669.533 .0314630
670.281 .0314506
671.028 .0314383
671.774 .0314263
672.521 .0314144
673.267 .0314026
674.013 .0313908
674.759 .0313791
675.505 .0313672
676.250 .0313552
676.995 .0313428
677.740 .0313301
678.484 .0313170
679.229 .0313033
679.973 .0312889
680.717 .0312740
681.460 .0312585
682.204 .0312423
682.947 .0312255
683.690 .0312081
684.433 .0311899
685.175 .0311711
685.917 .0311516
686.659 .0311313
687.401 .0311103
688.142 .0310885
688.884 .0310659
689.625 .0310426
690.365 .0310187
691.106 .0309941
691.846 .0309690
692.586 .0309433
693.326 .0309171
694.066 .0308902
694.805 .0308628
695.545 .0308348
696.284 .0308062
697.022 .0307770
697.761 .0307474
698.499 .0307173
699.237 .0306869
699.975 .0306563
700.713 .0306255
701.450 .0305946
702.187 .0305636
702.924 .0305326
703.661 .0305016
704.397 .0304707
705.133 .0304398
705.869 .0304090
706.605 .0303784
707.341 .0303480
708.076 .0303179
708.811 .0302880
709.546 .0302584
710.281 .0302291
711.015 .0302000
711.749 .0301711
712.483 .0301425
713.217 .0301140
713.950 .0300856
714.684 .0300574
715.417 .0300294
716.150 .0300015
716.882 .0299739
717.615 .0299466
718.347 .0299196
719.079 .0298930
719.811 .0298670
720.542 .0298415
721.273 .0298168
722.005 .0297928
722.735 .0297695
723.466 .0297471
724.196 .0297255
724.927 .0297049
725.656 .0296852
726.386 .0296665
727.116 .0296489
727.845 .0296325
728.574 .0296173
729.303 .0296033
730.031 .0295904
730.760 .0295788
731.488 .0295683
732.216 .0295589
732.944 .0295504
733.671 .0295429
734.398 .0295364
735.125 .0295307
735.852 .0295258
736.579 .0295219
737.305 .0295187
738.031 .0295162
738.757 .0295144
739.483 .0295131
740.208 .0295123
740.933 .0295118
741.658 .0295116
742.383 .0295117
743.108 .0295120
743.832 .0295124
744.556 .0295130
745.280 .0295137
746.004 .0295145
746.727 .0295154
747.450 .0295162
748.173 .0295168
748.896 .0295174
749.618 .0295178
750.340 .0295179
751.062 .0295179
751.784 .0295176
752.506 .0295169
753.227 .0295158
753.948 .0295143
754.669 .0295122
755.389 .0295094
756.110 .0295059
756.830 .0295017
757.550 .0294967
758.269 .0294910
758.989 .0294846
759.708 .0294774
760.427 .0294694
761.146 .0294607
761.864 .0294513
762.582 .0294411
763.300 .0294302
764.018 .0294186
764.736 .0294063
765.453 .0293935
766.170 .0293801
766.887 .0293662
767.603 .0293518
768.320 .0293369
769.036 .0293216
769.751 .0293059
770.467 .0292898
771.182 .0292733
771.897 .0292566
772.612 .0292396
773.327 .0292224
774.041 .0292050
774.755 .0291874
775.469 .0291696
776.183 .0291515
776.896 .0291331
777.609 .0291143
778.322 .0290953
779.035 .0290759
779.747 .0290563
780.459 .0290363
781.171 .0290160
781.882 .0289955
782.594 .0289745
783.305 .0289531
784.016 .0289313
784.726 .0289090
785.436 .0288862
786.147 .0288502
786.856 .0288262
787.566 .0288019
788.275 .0287771
788.984 .0287521
789.693 .0287267
790.401 .0287010
791.110 .0286750
791.818 .0286486
792.525 .0286219
793.233 .0285950
793.940 .0285678
794.647 .0285538
795.353 .0285266
796.060 .0284995
796.766 .0284725
797.472 .0284456
798.177 .0284189
798.883 .0283924
799.588 .0283661
800.292 .0283402
800.997 .0283145
801.701 .0282894
802.405 .0282646
803.109 .0282404
803.812 .0282168
804.515 .0281937
805.218 .0281712
805.921 .0281492
806.623 .0281278
807.325 .0281071
808.027 .0280870
808.728 .0280676
809.429 .0280490
810.130 .0280313
810.831 .0280144
811.531 .0279985
812.231 .0279836
812.931 .0279696
813.630 .0279567
814.330 .0279447
815.029 .0279339
815.727 .0279241
816.426 .0279154
817.124 .0279079
817.821 .0279016
818.519 .0278964
819.216 .0278924
819.913 .0278895
820.609 .0278876
821.306 .0278868
822.002 .0278870
822.697 .0278881
823.393 .0278901
824.088 .0278931
824.783 .0278970
825.477 .0279017
826.171 .0279072
826.865 .0279136
827.559 .0279206
828.252 .0279284
828.945 .0279368
829.638 .0279457
830.330 .0279553
831.023 .0279654
831.714 .0279758
832.406 .0279867
833.097 .0279979
833.788 .0280094
834.479 .0280210
835.169 .0280327
835.859 .0280445
836.548 .0280563
837.238 .0280681
837.927 .0280799
838.615 .0280918
839.304 .0281035
839.992 .0281152
840.680 .0281267
841.367 .0281379
842.054 .0281489
842.741 .0281594
843.428 .0281695
844.114 .0281791
844.800 .0281881
845.485 .0281965
846.170 .0282041
846.855 .0282110
847.540 .0282169
848.224 .0282220
848.908 .0282261
849.592 .0282292
850.275 .0282313
850.958 .0282325
851.641 .0282327
852.323 .0282321
853.005 .0282306
853.687 .0282282
854.368 .0282251
855.049 .0282211
855.730 .0282164
856.410 .0282109
857.090 .0282047
857.769 .0281979
858.449 .0281905
859.128 .0281826
859.806 .0281742
860.485 .0281653
861.163 .0281558
861.840 .0281459
862.518 .0281356
863.195 .0281247
863.871 .0281133
864.548 .0281014
865.224 .0280890
865.899 .0280759
866.574 .0280623
867.249 .0280480
867.924 .0280330
868.598 .0280172
869.272 .0280008
869.946 .0279836
870.619 .0279657
871.292 .0279471
871.964 .0279278
872.636 .0279079
873.308 .0278873
873.979 .0278662
874.651 .0278444
875.321 .0278221
875.992 .0277992
876.662 .0277759
877.331 .0277521
878.001 .0277278
878.670 .0277032
879.338 .0276782
880.007 .0276528
880.675 .0276271
881.342 .0276012
882.009 .0275750
882.676 .0275488
883.343 .0275224
884.009 .0274960
884.675 .0274696
885.340 .0274432
886.005 .0274168
886.670 .0273904
887.334 .0273639
887.998 .0273373
888.662 .0273105
889.325 .0272837
889.988 .0272568
890.650 .0272299
891.312 .0272030
891.974 .0271763
892.636 .0271496
893.297 .0271231
893.957 .0270966
894.618 .0270703
895.278 .0270440
895.937 .0270176
896.596 .0269913
897.255 .0269650
897.914 .0269387
898.572 .0269123
899.230 .0268860
899.887 .0268597
900.544 .0268334
901.201 .0268071
901.857 .0267676
902.513 .0267411
903.168 .0267145
903.823 .0266879
904.478 .0266613
905.132 .0266346
905.786 .0266078
906.440 .0265811
907.093 .0265544
907.746 .0265276
908.399 .0265009
909.051 .0264742
909.703 .0264478
910.354 .0264350
911.005 .0264092
911.656 .0263838
912.306 .0263589
912.956 .0263344
913.605 .0263105
914.254 .0262871
914.903 .0262642
915.551 .0262419
916.199 .0262201
916.847 .0261988
917.494 .0261781
918.141 .0261578
918.788 .0261381
919.434 .0261189
920.079 .0261002
920.725 .0260821
921.370 .0260645
922.014 .0260475
922.658 .0260310
923.302 .0260149
923.946 .0259994
924.589 .0259845
925.231 .0259700
925.873 .0259561
926.515 .0259426
927.157 .0259298
927.798 .0259174
928.439 .0259056
929.079 .0258945
929.719 .0258839
930.359 .0258740
930.998 .0258649
931.637 .0258565
932.275 .0258490
932.913 .0258424
933.551 .0258368
934.188 .0258322
934.825 .0258287
935.462 .0258263
936.098 .0258251
936.733 .0258251
937.369 .0258262
938.004 .0258285
938.638 .0258320
939.273 .0258366
939.907 .0258425
940.540 .0258496
941.173 .0258579
941.806 .0258672
942.438 .0258775
943.070 .0258887
943.702 .0259007
944.333 .0259133
944.964 .0259263
945.594 .0259397
946.224 .0259534
946.854 .0259674
947.483 .0259815
948.112 .0259958
948.741 .0260101
949.369 .0260245
949.996 .0260387
950.624 .0260529
951.251 .0260667
951.878 .0260803
952.504 .0260936
953.130 .0261065
953.755 .0261192
954.380 .0261316
955.005 .0261439
955.629 .0261561
956.253 .0261680
956.877 .0261799
957.500 .0261915
958.123 .0262029
958.746 .0262141
959.368 .0262252
959.990 .0262360
960.611 .0262467
961.232 .0262574
961.853 .0262680
962.473 .0262786
963.093 .0262891
963.712 .0262997
964.331 .0263102
964.950 .0263207
965.569 .0263311
966.187 .0263415
966.804 .0263518
967.422 .0263621
968.039 .0263721
968.655 .0263820
969.272 .0263916
969.887 .0264009
970.503 .0264099
971.118 .0264185
971.733 .0264267
972.347 .0264345
972.961 .0264417
973.575 .0264485
974.188 .0264546
974.801 .0264601
975.414 .0264649
976.026 .0264690
976.638 .0264723
977.250 .0264748
977.861 .0264767
978.472 .0264779
979.083 .0264783
979.693 .0264781
980.303 .0264772
980.912 .0264723
981.521 .0264693
982.130 .0264654
982.738 .0264607
983.346 .0264550
983.954 .0264487
984.562 .0264416
985.169 .0264340
985.775 .0264259
986.382 .0264173
986.988 .0264084
987.594 .0263991
988.199 .0263894
988.804 .0263793
989.409 .0263736
990.013 .0263633
990.617 .0263528
991.221 .0263421
991.824 .0263314
992.427 .0263207
993.030 .0263101
993.632 .0262996
994.234 .0262891
994.836 .0262786
995.438 .0262679
996.039 .0262571
996.640 .0262461
997.240 .0262348
997.840 .0262233
998.440 .0262117
999.040 .0261999
999.639 .0261880
1000.238 .0261759
1000.836 .0261635
1001.435 .0261508
1002.033 .0261378
1002.630 .0261243
1003.228 .0261103
1003.825 .0260957
1004.422 .0260807
1005.018 .0260651
1005.614 .0260490
1006.210 .0260324
1006.806 .0260152
1007.401 .0259975
1007.996 .0259792
1008.591 .0259603
1009.186 .0259408
1009.780 .0259207
1010.374 .0259002
1010.967 .0258792
1011.561 .0258578
1012.154 .0258363
1012.746 .0258145
1013.339 .0257927
1013.931 .0257708
1014.523 .0257489
1015.115 .0257271
1015.706 .0257053
1016.298 .0256837
1016.888 .0256623
1017.479 .0256412
1018.069 .0256203
1018.660 .0255998
1019.250 .0255797
1019.839 .0255599
1020.429 .0255406
1021.018 .0255216
1021.607 .0255030
1022.195 .0254848
1022.784 .0254668
1023.372 .0254492
1023.960 .0254318
1024.547 .0254147
1025.135 .0253979
1025.722 .0253812
1026.309 .0253647
1026.896 .0253483
1027.483 .0253318
1028.069 .0253153
1028.655 .0252987
1029.241 .0252820
1029.827 .0252652
1030.412 .0252484
1030.997 .0252314
1031.582 .0252145
1032.167 .0251976
1032.752 .0251808
1033.336 .0251641
1033.921 .0251475
1034.505 .0251310
1035.089 .0251146
1035.672 .0250984
1036.256 .0250822
1036.839 .0250663
1037.422 .0250504
1038.005 .0250347
1038.588 .0250192
1039.171 .0250039
1039.753 .0249888
1040.335 .0249738
1040.918 .0249589
1041.500 .0249441
1042.081 .0249293
1042.663 .0249146
1043.244 .0249001
1043.826 .0248857
1044.407 .0248715
1044.988 .0248577
1045.569 .0248442
1046.150 .0248312
1046.730 .0248186
1047.311 .0248064
1047.891 .0247945
1048.471 .0247829
1049.052 .0247714
1049.632 .0247601
1050.211 .0247490
1050.791 .0247381
1051.371 .0247275
1051.950 .0247170
1052.530 .0247068
1053.109 .0246969
1053.688 .0246872
1054.268 .0246777
1054.847 .0246685
1055.426 .0246594
1056.005 .0246508
1056.583 .0246426
1057.162 .0246350
1057.741 .0246281
1058.319 .0246220
1058.898 .0246169
1059.476 .0246126
1060.055 .0246093
1060.633 .0246068
1061.211 .0246052
1061.790 .0246044
1062.368 .0246043
1062.946 .0246050
1063.524 .0246064
1064.102 .0246086
1064.680 .0246115
1065.258 .0246151
1065.836 .0246192
1066.414 .0246238
1066.992 .0246288
1067.570 .0246342
1068.148 .0246399
1068.726 .0246462
1069.304 .0246529
1069.882 .0246603
1070.460 .0246684
1071.038 .0246771
1071.616 .0246865
1072.194 .0246965
1072.772 .0247068
1073.350 .0247173
1073.928 .0247280
1074.506 .0247388
1075.084 .0247498
1075.662 .0247612
1076.240 .0247730
1076.819 .0247855
1077.397 .0247987
1077.976 .0248127
1078.554 .0248277
1079.133 .0248436
1079.711 .0248602
1080.290 .0248776
1080.869 .0248958
1081.448 .0249149
1082.027 .0249348
1082.606 .0249558
1083.185 .0249781
1083.764 .0250016
1084.343 .0250264
1084.923 .0250523
1085.502 .0250794
1086.082 .0251072
1086.662 .0251356
1087.242 .0251643
1087.822 .0251932
1088.402 .0252221
1088.983 .0252510
1089.563 .0252801
1090.144 .0253094
1090.725 .0253390
1091.306 .0253691
1091.887 .0253996
1092.469 .0254306
1093.050 .0254618
1093.632 .0254930
1094.214 .0255242
1094.796 .0255550
1095.379 .0255854
1095.961 .0256153
1096.544 .0256447
1097.127 .0256737
1097.710 .0257024
1098.294 .0257308
1098.877 .0257589
1099.461 .0257869
1100.046 .0258147
1100.630 .0258424
1101.215 .0258698
1101.800 .0258972
1102.385 .0259246
1102.970 .0259522
1103.556 .0259802
1104.142 .0260089
1104.728 .0260386
1105.315 .0260694
1105.902 .0261016
1106.489 .0261352
1107.077 .0261704
1107.664 .0262071
1108.253 .0262453
1108.841 .0262847
1109.430 .0263253
1110.019 .0263669
1110.609 .0264094
1111.198 .0264529
1111.789 .0264973
1112.379 .0265426
1112.970 .0265891
1113.561 .0266366
1114.153 .0266854
1114.745 .0267357
1115.338 .0267876
1115.931 .0268414
1116.524 .0268972
1117.117 .0269549
1117.712 .0270147
1118.306 .0270764
1118.901 .0271401
1119.496 .0272055
1120.092 .0272726
1120.689 .0273413
1121.285 .0274113
1121.882 .0274829
1122.480 .0275559
1123.078 .0276304
1123.677 .0277063
1124.276 .0277835
1124.875 .0278620
1125.476 .0279418
1126.076 .0280228
1126.677 .0281050
1127.279 .0281885
1127.881 .0282737
1128.484 .0283607
1129.087 .0284011
1129.691 .0284917
1130.295 .0285850
1130.900 .0286816
1131.505 .0287816
1132.111 .0288850
1132.718 .0289916
1133.325 .0291016
1133.933 .0292158
1134.541 .0293285
1135.150 .0294475
1135.760 .0295659
1136.370 .0296965
1136.981 .0296990
1137.592 .0298178
1138.204 .0299483
1138.817 .0300963
1139.431 .0302503
1140.045 .0304158
1140.660 .0305827
1141.275 .0307600
1141.891 .0309700
1142.508 .0310194
1143.126 .0312923
1143.744 .0313708
1144.363 .0318057
1144.983 .0327139
