Measurement Sequence started on: 15-12-46-377
Integration time: 28
Scans to Average: 2 
>>>>>Begin Spectral Data<<<<<
432.689 .0000100
433.621 .0000100
434.552 .0000100
435.482 .0000100
436.410 .0000100
437.337 .0000100
438.262 .0259198
439.187 .0549495
440.110 .0910008
441.031 .1317061
441.952 .1056564
442.871 .1103508
443.789 .1147248
444.705 .1188484
445.621 .1227689
446.535 .1265231
447.447 .1287744
448.359 .1293773
449.269 .1279772
450.178 .1243413
451.086 .1185407
451.993 .1110267
452.898 .1025447
453.803 .0939427
454.706 .0859439
455.608 .0789977
456.508 .0732549
457.408 .0693831
458.306 .0664192
459.204 .0640136
460.100 .0619918
460.995 .0602537
461.888 .0587307
462.781 .0573781
463.673 .0561618
464.563 .0550576
465.452 .0540496
466.340 .0531254
467.228 .0522753
468.114 .0514926
468.999 .0507708
469.882 .0501044
470.765 .0494881
471.647 .0489185
472.528 .0483920
473.407 .0479061
474.286 .0474586
475.163 .0470484
476.040 .0466744
476.915 .0463356
477.790 .0460305
478.663 .0457583
479.535 .0455176
480.407 .0453063
481.277 .0451226
482.147 .0449652
483.015 .0448321
483.883 .0447228
484.749 .0446360
485.615 .0445717
486.479 .0445292
487.343 .0445083
488.206 .0445084
489.067 .0445291
489.928 .0445702
490.788 .0446313
491.647 .0447128
492.505 .0448152
493.362 .0449388
494.218 .0450845
495.073 .0452530
495.928 .0455887
496.781 .0458173
497.634 .0460700
498.486 .0463464
499.337 .0466470
500.187 .0469721
501.036 .0473227
501.884 .0477008
502.731 .0481100
503.578 .0485539
504.424 .0488499
505.268 .0493617
506.113 .0499207
506.956 .0505311
507.798 .0511984
508.640 .0519281
509.480 .0527273
510.320 .0536059
511.160 .0545759
511.998 .0556523
512.836 .0568521
513.672 .0581948
514.508 .0597015
515.344 .0613957
516.178 .0632987
517.012 .0654310
517.845 .0678126
518.677 .0704600
519.508 .0733880
520.339 .0766043
521.169 .0801142
521.998 .0838988
522.826 .0879333
523.654 .0921739
524.481 .0965602
525.307 .1010210
526.133 .1054685
526.958 .1098097
527.782 .1139504
528.605 .1177989
529.428 .1212754
530.250 .1243087
531.072 .1268535
531.892 .1288688
532.712 .1303291
533.532 .1312214
534.350 .1315416
535.168 .1312938
535.986 .1304849
536.802 .1291222
537.618 .1272173
538.434 .1247824
539.249 .1218531
540.063 .1184697
540.876 .1146883
541.689 .1105812
542.501 .1062293
543.313 .1017239
544.124 .0971590
544.934 .0926257
545.744 .0882097
546.553 .0839810
547.361 .0799979
548.169 .0762904
548.976 .0728820
549.783 .0697780
550.589 .0669723
551.395 .0644492
552.200 .0621852
553.004 .0601553
553.808 .0583346
554.611 .0566996
555.414 .0552281
556.216 .0538980
557.018 .0526889
557.819 .0515841
558.619 .0505672
559.419 .0496235
560.218 .0487435
561.017 .0479189
561.815 .0471436
562.613 .0464118
563.410 .0457178
564.207 .0450572
565.003 .0444252
565.799 .0438175
566.594 .0432301
567.388 .0426606
568.182 .0421077
568.976 .0415706
569.769 .0410494
570.562 .0405454
571.354 .0400591
572.145 .0395920
572.936 .0391447
573.727 .0387168
574.517 .0383077
575.307 .0379171
576.096 .0375435
576.885 .0371866
577.673 .0368455
578.461 .0365195
579.248 .0362079
580.035 .0359108
580.821 .0356278
581.607 .0353590
582.392 .0351048
583.177 .0348652
583.962 .0346399
584.746 .0344285
585.529 .0342304
586.313 .0340446
587.095 .0338704
587.878 .0337070
588.660 .0335534
589.441 .0334095
590.222 .0332748
591.003 .0331493
591.783 .0330328
592.563 .0329254
593.342 .0328263
594.121 .0327350
594.899 .0326507
595.678 .0325724
596.455 .0324992
597.233 .0324304
598.009 .0323652
598.786 .0323031
599.562 .0322437
600.338 .0321868
601.113 .0321322
601.888 .0320572
602.663 .0320078
603.437 .0319601
604.211 .0319142
604.984 .0318699
605.757 .0318270
606.530 .0317855
607.302 .0317454
608.074 .0317065
608.845 .0316689
609.616 .0316325
610.387 .0316175
611.158 .0315830
611.928 .0315500
612.697 .0315184
613.467 .0314884
614.236 .0314600
615.004 .0314333
615.773 .0314083
616.541 .0313848
617.308 .0313627
618.076 .0313419
618.843 .0313222
619.609 .0313035
620.375 .0312856
621.141 .0312685
621.907 .0312522
622.672 .0312364
623.437 .0312213
624.202 .0312065
624.966 .0311920
625.730 .0311777
626.493 .0311634
627.257 .0311489
628.020 .0311341
628.782 .0311189
629.545 .0311031
630.307 .0310867
631.068 .0310698
631.830 .0310522
632.591 .0310340
633.352 .0310152
634.112 .0309958
634.872 .0309760
635.632 .0309557
636.392 .0309350
637.151 .0309139
637.910 .0308924
638.668 .0308705
639.427 .0308482
640.185 .0308255
640.943 .0308025
641.700 .0307792
642.457 .0307557
643.214 .0307322
643.971 .0307088
644.727 .0306855
645.483 .0306624
646.239 .0306394
646.994 .0306166
647.750 .0305937
648.505 .0305708
649.259 .0305477
650.014 .0305244
650.768 .0305009
651.521 .0304770
652.275 .0304529
653.028 .0304285
653.781 .0304037
654.534 .0303787
655.286 .0303534
656.039 .0303280
656.791 .0303023
657.542 .0302767
658.294 .0302509
659.045 .0302252
659.796 .0301996
660.546 .0301741
661.297 .0301487
662.047 .0301235
662.796 .0300986
663.546 .0300739
664.295 .0300495
665.044 .0300255
665.793 .0300019
666.542 .0299787
667.290 .0299560
668.038 .0299336
668.786 .0299115
669.533 .0298896
670.281 .0298680
671.028 .0298467
671.774 .0298258
672.521 .0298052
673.267 .0297850
674.013 .0297654
674.759 .0297462
675.505 .0297276
676.250 .0297095
676.995 .0296918
677.740 .0296746
678.484 .0296579
679.229 .0296415
679.973 .0296256
680.717 .0296103
681.460 .0295954
682.204 .0295810
682.947 .0295669
683.690 .0295532
684.433 .0295398
685.175 .0295265
685.917 .0295133
686.659 .0295001
687.401 .0294869
688.142 .0294737
688.884 .0294603
689.625 .0294469
690.365 .0294333
691.106 .0294195
691.846 .0294055
692.586 .0293912
693.326 .0293766
694.066 .0293618
694.805 .0293467
695.545 .0293314
696.284 .0293158
697.022 .0292999
697.761 .0292838
698.499 .0292674
699.237 .0292509
699.975 .0292341
700.713 .0292173
701.450 .0292005
702.187 .0291837
702.924 .0291670
703.661 .0291505
704.397 .0291340
705.133 .0291177
705.869 .0291015
706.605 .0290853
707.341 .0290690
708.076 .0290527
708.811 .0290363
709.546 .0290199
710.281 .0290032
711.015 .0289865
711.749 .0289696
712.483 .0289524
713.217 .0289351
713.950 .0289175
714.684 .0288996
715.417 .0288814
716.150 .0288628
716.882 .0288439
717.615 .0288247
718.347 .0288051
719.079 .0287852
719.811 .0287649
720.542 .0287442
721.273 .0287233
722.005 .0287022
722.735 .0286809
723.466 .0286596
724.196 .0286383
724.927 .0286171
725.656 .0285961
726.386 .0285754
727.116 .0285550
727.845 .0285350
728.574 .0285153
729.303 .0284959
730.031 .0284769
730.760 .0284583
731.488 .0284402
732.216 .0284225
732.944 .0284053
733.671 .0283887
734.398 .0283727
735.125 .0283572
735.852 .0283424
736.579 .0283282
737.305 .0283146
738.031 .0283016
738.757 .0282890
739.483 .0282768
740.208 .0282650
740.933 .0282534
741.658 .0282421
742.383 .0282309
743.108 .0282199
743.832 .0282089
744.556 .0281980
745.280 .0281872
746.004 .0281765
746.727 .0281658
747.450 .0281551
748.173 .0281445
748.896 .0281338
749.618 .0281230
750.340 .0281122
751.062 .0281012
751.784 .0280900
752.506 .0280787
753.227 .0280672
753.948 .0280555
754.669 .0280438
755.389 .0280319
756.110 .0280201
756.830 .0280083
757.550 .0279965
758.269 .0279848
758.989 .0279731
759.708 .0279614
760.427 .0279497
761.146 .0279380
761.864 .0279265
762.582 .0279150
763.300 .0279037
764.018 .0278925
764.736 .0278815
765.453 .0278708
766.170 .0278602
766.887 .0278499
767.603 .0278398
768.320 .0278299
769.036 .0278203
769.751 .0278109
770.467 .0278019
771.182 .0277930
771.897 .0277844
772.612 .0277760
773.327 .0277678
774.041 .0277596
774.755 .0277515
775.469 .0277435
776.183 .0277356
776.896 .0277278
777.609 .0277202
778.322 .0277128
779.035 .0277054
779.747 .0276982
780.459 .0276911
781.171 .0276839
781.882 .0276768
782.594 .0276696
783.305 .0276622
784.016 .0276548
784.726 .0276473
785.436 .0276396
786.147 .0276276
786.856 .0276193
787.566 .0276108
788.275 .0276019
788.984 .0275928
789.693 .0275832
790.401 .0275734
791.110 .0275631
791.818 .0275524
792.525 .0275413
793.233 .0275297
793.940 .0275175
794.647 .0275099
795.353 .0274970
796.060 .0274836
796.766 .0274698
797.472 .0274554
798.177 .0274405
798.883 .0274251
799.588 .0274092
800.292 .0273929
800.997 .0273762
801.701 .0273591
802.405 .0273417
803.109 .0273241
803.812 .0273062
804.515 .0272882
805.218 .0272701
805.921 .0272518
806.623 .0272334
807.325 .0272149
808.027 .0271964
808.728 .0271778
809.429 .0271592
810.130 .0271407
810.831 .0271223
811.531 .0271041
812.231 .0270860
812.931 .0270681
813.630 .0270504
814.330 .0270330
815.029 .0270159
815.727 .0269991
816.426 .0269826
817.124 .0269667
817.821 .0269512
818.519 .0269363
819.216 .0269219
819.913 .0269081
820.609 .0268949
821.306 .0268822
822.002 .0268701
822.697 .0268587
823.393 .0268478
824.088 .0268377
824.783 .0268282
825.477 .0268194
826.171 .0268112
826.865 .0268037
827.559 .0267968
828.252 .0267904
828.945 .0267845
829.638 .0267790
830.330 .0267738
831.023 .0267690
831.714 .0267645
832.406 .0267603
833.097 .0267562
833.788 .0267522
834.479 .0267483
835.169 .0267445
835.859 .0267406
836.548 .0267367
837.238 .0267329
837.927 .0267289
838.615 .0267250
839.304 .0267211
839.992 .0267171
840.680 .0267130
841.367 .0267090
842.054 .0267048
842.741 .0267007
843.428 .0266965
844.114 .0266924
844.800 .0266882
845.485 .0266841
846.170 .0266799
846.855 .0266758
847.540 .0266715
848.224 .0266672
848.908 .0266629
849.592 .0266583
850.275 .0266537
850.958 .0266489
851.641 .0266439
852.323 .0266387
853.005 .0266332
853.687 .0266276
854.368 .0266216
855.049 .0266153
855.730 .0266087
856.410 .0266018
857.090 .0265946
857.769 .0265871
858.449 .0265793
859.128 .0265713
859.806 .0265631
860.485 .0265548
861.163 .0265462
861.840 .0265375
862.518 .0265286
863.195 .0265196
863.871 .0265106
864.548 .0265015
865.224 .0264925
865.899 .0264835
866.574 .0264746
867.249 .0264657
867.924 .0264570
868.598 .0264484
869.272 .0264398
869.946 .0264313
870.619 .0264228
871.292 .0264144
871.964 .0264060
872.636 .0263976
873.308 .0263893
873.979 .0263811
874.651 .0263729
875.321 .0263647
875.992 .0263566
876.662 .0263484
877.331 .0263402
878.001 .0263319
878.670 .0263235
879.338 .0263151
880.007 .0263067
880.675 .0262982
881.342 .0262897
882.009 .0262812
882.676 .0262728
883.343 .0262644
884.009 .0262560
884.675 .0262478
885.340 .0262396
886.005 .0262316
886.670 .0262237
887.334 .0262161
887.998 .0262086
888.662 .0262013
889.325 .0261942
889.988 .0261872
890.650 .0261803
891.312 .0261734
891.974 .0261665
892.636 .0261597
893.297 .0261527
893.957 .0261456
894.618 .0261384
895.278 .0261310
895.937 .0261233
896.596 .0261153
897.255 .0261068
897.914 .0260978
898.572 .0260883
899.230 .0260781
899.887 .0260673
900.544 .0260557
901.201 .0260434
901.857 .0260214
902.513 .0260070
903.168 .0259919
903.823 .0259760
904.478 .0259593
905.132 .0259419
905.786 .0259236
906.440 .0259045
907.093 .0258846
907.746 .0258640
908.399 .0258427
909.051 .0258208
909.703 .0257984
910.354 .0257860
911.005 .0257633
911.656 .0257404
912.306 .0257172
912.956 .0256939
913.605 .0256704
914.254 .0256469
914.903 .0256233
915.551 .0255997
916.199 .0255763
916.847 .0255530
917.494 .0255300
918.141 .0255073
918.788 .0254849
919.434 .0254628
920.079 .0254410
920.725 .0254194
921.370 .0253981
922.014 .0253770
922.658 .0253561
923.302 .0253355
923.946 .0253152
924.589 .0252952
925.231 .0252756
925.873 .0252562
926.515 .0252371
927.157 .0252182
927.798 .0251996
928.439 .0251811
929.079 .0251628
929.719 .0251447
930.359 .0251269
930.998 .0251094
931.637 .0250923
932.275 .0250757
932.913 .0250594
933.551 .0250436
934.188 .0250284
934.825 .0250136
935.462 .0249994
936.098 .0249857
936.733 .0249727
937.369 .0249603
938.004 .0249486
938.638 .0249376
939.273 .0249273
939.907 .0249178
940.540 .0249090
941.173 .0249010
941.806 .0248937
942.438 .0248870
943.070 .0248810
943.702 .0248755
944.333 .0248705
944.964 .0248660
945.594 .0248619
946.224 .0248581
946.854 .0248547
947.483 .0248515
948.112 .0248486
948.741 .0248459
949.369 .0248434
949.996 .0248409
950.624 .0248385
951.251 .0248360
951.878 .0248335
952.504 .0248308
953.130 .0248279
953.755 .0248250
954.380 .0248220
955.005 .0248191
955.629 .0248163
956.253 .0248135
956.877 .0248110
957.500 .0248085
958.123 .0248062
958.746 .0248040
959.368 .0248019
959.990 .0248000
960.611 .0247984
961.232 .0247970
961.853 .0247959
962.473 .0247953
963.093 .0247950
963.712 .0247952
964.331 .0247957
964.950 .0247964
965.569 .0247974
966.187 .0247985
966.804 .0247997
967.422 .0248010
968.039 .0248024
968.655 .0248039
969.272 .0248055
969.887 .0248073
970.503 .0248091
971.118 .0248110
971.733 .0248127
972.347 .0248143
972.961 .0248157
973.575 .0248168
974.188 .0248176
974.801 .0248183
975.414 .0248188
976.026 .0248191
976.638 .0248194
977.250 .0248195
977.861 .0248194
978.472 .0248190
979.083 .0248184
979.693 .0248173
980.303 .0248159
980.912 .0248129
981.521 .0248107
982.130 .0248083
982.738 .0248057
983.346 .0248031
983.954 .0248004
984.562 .0247976
985.169 .0247948
985.775 .0247920
986.382 .0247892
986.988 .0247863
987.594 .0247835
988.199 .0247807
988.804 .0247780
989.409 .0247768
990.013 .0247745
990.617 .0247724
991.221 .0247706
991.824 .0247691
992.427 .0247677
993.030 .0247665
993.632 .0247654
994.234 .0247644
994.836 .0247634
995.438 .0247626
996.039 .0247618
996.640 .0247612
997.240 .0247609
997.840 .0247608
998.440 .0247610
999.040 .0247615
999.639 .0247622
1000.238 .0247631
1000.836 .0247643
1001.435 .0247656
1002.033 .0247670
1002.630 .0247684
1003.228 .0247698
1003.825 .0247712
1004.422 .0247724
1005.018 .0247735
1005.614 .0247742
1006.210 .0247747
1006.806 .0247749
1007.401 .0247746
1007.996 .0247740
1008.591 .0247731
1009.186 .0247718
1009.780 .0247702
1010.374 .0247682
1010.967 .0247660
1011.561 .0247634
1012.154 .0247606
1012.746 .0247577
1013.339 .0247547
1013.931 .0247518
1014.523 .0247490
1015.115 .0247464
1015.706 .0247440
1016.298 .0247418
1016.888 .0247399
1017.479 .0247382
1018.069 .0247366
1018.660 .0247352
1019.250 .0247340
1019.839 .0247329
1020.429 .0247321
1021.018 .0247316
1021.607 .0247315
1022.195 .0247316
1022.784 .0247321
1023.372 .0247329
1023.960 .0247338
1024.547 .0247349
1025.135 .0247360
1025.722 .0247371
1026.309 .0247381
1026.896 .0247390
1027.483 .0247399
1028.069 .0247406
1028.655 .0247411
1029.241 .0247413
1029.827 .0247412
1030.412 .0247406
1030.997 .0247394
1031.582 .0247374
1032.167 .0247346
1032.752 .0247308
1033.336 .0247262
1033.921 .0247207
1034.505 .0247143
1035.089 .0247072
1035.672 .0246992
1036.256 .0246906
1036.839 .0246813
1037.422 .0246713
1038.005 .0246606
1038.588 .0246492
1039.171 .0246372
1039.753 .0246248
1040.335 .0246119
1040.918 .0245986
1041.500 .0245851
1042.081 .0245715
1042.663 .0245577
1043.244 .0245440
1043.826 .0245305
1044.407 .0245171
1044.988 .0245040
1045.569 .0244913
1046.150 .0244789
1046.730 .0244669
1047.311 .0244554
1047.891 .0244443
1048.471 .0244337
1049.052 .0244235
1049.632 .0244137
1050.211 .0244043
1050.791 .0243955
1051.371 .0243873
1051.950 .0243796
1052.530 .0243726
1053.109 .0243661
1053.688 .0243602
1054.268 .0243548
1054.847 .0243499
1055.426 .0243454
1056.005 .0243414
1056.583 .0243379
1057.162 .0243348
1057.741 .0243323
1058.319 .0243304
1058.898 .0243291
1059.476 .0243283
1060.055 .0243281
1060.633 .0243280
1061.211 .0243282
1061.790 .0243283
1062.368 .0243283
1062.946 .0243282
1063.524 .0243279
1064.102 .0243275
1064.680 .0243270
1065.258 .0243266
1065.836 .0243262
1066.414 .0243260
1066.992 .0243258
1067.570 .0243255
1068.148 .0243251
1068.726 .0243243
1069.304 .0243232
1069.882 .0243219
1070.460 .0243203
1071.038 .0243187
1071.616 .0243173
1072.194 .0243162
1072.772 .0243156
1073.350 .0243155
1073.928 .0243158
1074.506 .0243163
1075.084 .0243169
1075.662 .0243175
1076.240 .0243178
1076.819 .0243180
1077.397 .0243183
1077.976 .0243187
1078.554 .0243198
1079.133 .0243215
1079.711 .0243241
1080.290 .0243275
1080.869 .0243317
1081.448 .0243366
1082.027 .0243420
1082.606 .0243477
1083.185 .0243537
1083.764 .0243599
1084.343 .0243664
1084.923 .0243732
1085.502 .0243806
1086.082 .0243886
1086.662 .0243972
1087.242 .0244063
1087.822 .0244159
1088.402 .0244258
1088.983 .0244359
1089.563 .0244461
1090.144 .0244565
1090.725 .0244671
1091.306 .0244780
1091.887 .0244893
1092.469 .0245013
1093.050 .0245139
1093.632 .0245271
1094.214 .0245410
1094.796 .0245555
1095.379 .0245704
1095.961 .0245856
1096.544 .0246012
1097.127 .0246172
1097.710 .0246337
1098.294 .0246506
1098.877 .0246683
1099.461 .0246866
1100.046 .0247055
1100.630 .0247251
1101.215 .0247452
1101.800 .0247660
1102.385 .0247873
1102.970 .0248094
1103.556 .0248325
1104.142 .0248567
1104.728 .0248822
1105.315 .0249091
1105.902 .0249376
1106.489 .0249675
1107.077 .0249987
1107.664 .0250310
1108.253 .0250644
1108.841 .0250989
1109.430 .0251345
1110.019 .0251715
1110.609 .0252098
1111.198 .0252498
1111.789 .0252913
1112.379 .0253344
1112.970 .0253790
1113.561 .0254249
1114.153 .0254716
1114.745 .0255192
1115.338 .0255675
1115.931 .0256166
1116.524 .0256665
1117.117 .0257174
1117.712 .0257695
1118.306 .0258226
1118.901 .0258770
1119.496 .0259323
1120.092 .0259886
1120.689 .0260456
1121.285 .0261028
1121.882 .0261601
1122.480 .0262173
1123.078 .0262743
1123.677 .0263314
1124.276 .0263887
1124.875 .0264464
1125.476 .0265048
1126.076 .0265644
1126.677 .0266252
1127.279 .0266876
1127.881 .0267516
1128.484 .0268170
1129.087 .0268466
1129.691 .0269132
1130.295 .0269813
1130.900 .0270513
1131.505 .0271233
1132.111 .0271978
1132.718 .0272747
1133.325 .0273532
1133.933 .0274329
1134.541 .0275200
1135.150 .0276119
1135.760 .0276954
1136.370 .0277606
1136.981 .0278179
1137.592 .0279276
1138.204 .0280389
1138.817 .0281542
1139.431 .0282710
1140.045 .0283921
1140.660 .0285110
1141.275 .0286085
1141.891 .0286964
1142.508 .0289554
1143.126 .0291421
1143.744 .0289661
1144.363 .0285079
1144.983 .0287979
