Measurement Sequence started on: 15-12-46-377
Integration time: 28
Scans to Average: 2 
>>>>>Begin Spectral Data<<<<<
432.689 .0000100
433.621 .0000100
434.552 .0000100
435.482 .0000100
436.410 .0000100
437.337 .0000100
438.262 .0286959
439.187 .0608361
440.110 .1007032
441.031 .1457611
441.952 .1168372
442.871 .1219892
443.789 .1267763
444.705 .1312766
445.621 .1355443
446.535 .1396198
447.447 .1420219
448.359 .1425898
449.269 .1409354
450.178 .1367970
451.086 .1302554
451.993 .1218107
452.898 .1122911
453.803 .1026379
454.706 .0936535
455.608 .0858363
456.508 .0793582
457.408 .0749582
458.306 .0715717
459.204 .0688110
460.100 .0664867
460.995 .0644863
461.888 .0627343
462.781 .0611803
463.673 .0597873
464.563 .0585302
465.452 .0573919
466.340 .0563563
467.228 .0554150
468.114 .0545588
468.999 .0537796
469.882 .0530694
470.765 .0524208
471.647 .0518264
472.528 .0512817
473.407 .0507817
474.286 .0503251
475.163 .0499110
476.040 .0495385
476.915 .0492064
477.790 .0489135
478.663 .0486577
479.535 .0484360
480.407 .0482451
481.277 .0480817
482.147 .0479418
483.015 .0478229
483.883 .0477225
484.749 .0476395
485.615 .0475741
486.479 .0475267
487.343 .0474978
488.206 .0474894
489.067 .0475014
489.928 .0475343
490.788 .0475882
491.647 .0476635
492.505 .0477600
493.362 .0478780
494.218 .0480181
495.073 .0481815
495.928 .0485221
496.781 .0487499
497.634 .0490034
498.486 .0492828
499.337 .0495875
500.187 .0499172
501.036 .0502725
501.884 .0506536
502.731 .0510621
503.578 .0515009
504.424 .0517768
505.268 .0522730
506.113 .0528113
506.956 .0533961
507.798 .0540333
508.640 .0547296
509.480 .0554946
510.320 .0563408
511.160 .0572850
511.998 .0583442
512.836 .0595404
513.672 .0608969
514.508 .0624418
515.344 .0642007
516.178 .0662011
517.012 .0684708
517.845 .0710328
518.677 .0739074
519.508 .0771110
520.339 .0806522
521.169 .0845352
521.998 .0887368
522.826 .0932228
523.654 .0979383
524.481 .1028145
525.307 .1077655
526.133 .1126930
526.958 .1174918
527.782 .1220568
528.605 .1262865
529.428 .1300937
530.250 .1333998
531.072 .1361531
531.892 .1383116
532.712 .1398501
533.532 .1407546
534.350 .1410215
535.168 .1406588
535.986 .1396784
536.802 .1380914
537.618 .1359123
538.434 .1331567
539.249 .1298660
540.063 .1260894
540.876 .1218916
541.689 .1173517
542.501 .1125621
543.313 .1076229
544.124 .1026383
544.934 .0977083
545.744 .0929234
546.553 .0883595
547.361 .0840781
548.169 .0801123
548.976 .0764817
549.783 .0731897
550.589 .0702269
551.395 .0675718
552.200 .0651958
553.004 .0630662
553.808 .0611548
554.611 .0594356
555.414 .0578847
556.216 .0564786
557.018 .0551973
557.819 .0540253
558.619 .0529466
559.419 .0519482
560.218 .0510209
561.017 .0501562
561.815 .0493468
562.613 .0485867
563.410 .0478686
564.207 .0471867
565.003 .0465358
565.799 .0459108
566.594 .0453075
567.388 .0447230
568.182 .0441551
568.976 .0436026
569.769 .0430652
570.562 .0425430
571.354 .0420362
572.145 .0415455
572.936 .0410712
573.727 .0406131
574.517 .0401715
575.307 .0397468
576.096 .0393387
576.885 .0389474
577.673 .0385727
578.461 .0382143
579.248 .0378726
580.035 .0375477
580.821 .0372395
581.607 .0369479
582.392 .0366727
583.177 .0364136
583.962 .0361703
584.746 .0359424
585.529 .0357292
586.313 .0355303
587.095 .0353451
587.878 .0351725
588.660 .0350120
589.441 .0348629
590.222 .0347248
591.003 .0345970
591.783 .0344789
592.563 .0343699
593.342 .0342692
594.121 .0341760
594.899 .0340895
595.678 .0340089
596.455 .0339332
597.233 .0338617
598.009 .0337938
598.786 .0337288
599.562 .0336663
600.338 .0336057
601.113 .0335469
601.888 .0334618
602.663 .0334056
603.437 .0333503
604.211 .0332961
604.984 .0332427
605.757 .0331901
606.530 .0331383
607.302 .0330875
608.074 .0330376
608.845 .0329887
609.616 .0329411
610.387 .0329206
611.158 .0328756
611.928 .0328323
612.697 .0327908
613.467 .0327513
614.236 .0327138
615.004 .0326785
615.773 .0326453
616.541 .0326141
617.308 .0325849
618.076 .0325575
618.843 .0325319
619.609 .0325078
620.375 .0324850
621.141 .0324635
621.907 .0324430
622.672 .0324234
623.437 .0324044
624.202 .0323858
624.966 .0323674
625.730 .0323489
626.493 .0323299
627.257 .0323104
628.020 .0322900
628.782 .0322686
629.545 .0322461
630.307 .0322223
631.068 .0321972
631.830 .0321709
632.591 .0321434
633.352 .0321148
634.112 .0320852
634.872 .0320547
635.632 .0320235
636.392 .0319915
637.151 .0319590
637.910 .0319261
638.668 .0318928
639.427 .0318593
640.185 .0318259
640.943 .0317925
641.700 .0317596
642.457 .0317273
643.214 .0316956
643.971 .0316648
644.727 .0316350
645.483 .0316060
646.239 .0315779
646.994 .0315506
647.750 .0315241
648.505 .0314983
649.259 .0314732
650.014 .0314487
650.768 .0314249
651.521 .0314017
652.275 .0313791
653.028 .0313570
653.781 .0313355
654.534 .0313143
655.286 .0312934
656.039 .0312727
656.791 .0312520
657.542 .0312313
658.294 .0312104
659.045 .0311894
659.796 .0311681
660.546 .0311466
661.297 .0311248
662.047 .0311028
662.796 .0310805
663.546 .0310580
664.295 .0310353
665.044 .0310125
665.793 .0309896
666.542 .0309668
667.290 .0309441
668.038 .0309216
668.786 .0308991
669.533 .0308769
670.281 .0308547
671.028 .0308327
671.774 .0308108
672.521 .0307891
673.267 .0307677
674.013 .0307465
674.759 .0307257
675.505 .0307052
676.250 .0306851
676.995 .0306653
677.740 .0306456
678.484 .0306260
679.229 .0306065
679.973 .0305870
680.717 .0305674
681.460 .0305477
682.204 .0305278
682.947 .0305078
683.690 .0304876
684.433 .0304671
685.175 .0304462
685.917 .0304251
686.659 .0304035
687.401 .0303816
688.142 .0303594
688.884 .0303369
689.625 .0303141
690.365 .0302911
691.106 .0302680
691.846 .0302447
692.586 .0302214
693.326 .0301980
694.066 .0301748
694.805 .0301517
695.545 .0301289
696.284 .0301064
697.022 .0300843
697.761 .0300627
698.499 .0300415
699.237 .0300207
699.975 .0300004
700.713 .0299805
701.450 .0299610
702.187 .0299418
702.924 .0299230
703.661 .0299043
704.397 .0298860
705.133 .0298678
705.869 .0298498
706.605 .0298319
707.341 .0298141
708.076 .0297963
708.811 .0297785
709.546 .0297605
710.281 .0297423
711.015 .0297239
711.749 .0297052
712.483 .0296862
713.217 .0296670
713.950 .0296475
714.684 .0296278
715.417 .0296081
716.150 .0295882
716.882 .0295683
717.615 .0295484
718.347 .0295284
719.079 .0295084
719.811 .0294883
720.542 .0294683
721.273 .0294483
722.005 .0294285
722.735 .0294090
723.466 .0293898
724.196 .0293710
724.927 .0293527
725.656 .0293348
726.386 .0293175
727.116 .0293006
727.845 .0292840
728.574 .0292678
729.303 .0292520
730.031 .0292365
730.760 .0292214
731.488 .0292066
732.216 .0291922
732.944 .0291782
733.671 .0291646
734.398 .0291514
735.125 .0291386
735.852 .0291262
736.579 .0291141
737.305 .0291024
738.031 .0290909
738.757 .0290798
739.483 .0290689
740.208 .0290583
740.933 .0290478
741.658 .0290376
742.383 .0290274
743.108 .0290175
743.832 .0290078
744.556 .0289984
745.280 .0289891
746.004 .0289800
746.727 .0289710
747.450 .0289619
748.173 .0289528
748.896 .0289433
749.618 .0289336
750.340 .0289235
751.062 .0289131
751.784 .0289022
752.506 .0288909
753.227 .0288792
753.948 .0288670
754.669 .0288544
755.389 .0288412
756.110 .0288274
756.830 .0288131
757.550 .0287981
758.269 .0287825
758.989 .0287665
759.708 .0287500
760.427 .0287331
761.146 .0287158
761.864 .0286983
762.582 .0286807
763.300 .0286628
764.018 .0286450
764.736 .0286271
765.453 .0286094
766.170 .0285918
766.887 .0285744
767.603 .0285574
768.320 .0285407
769.036 .0285245
769.751 .0285088
770.467 .0284936
771.182 .0284791
771.897 .0284653
772.612 .0284521
773.327 .0284396
774.041 .0284277
774.755 .0284163
775.469 .0284055
776.183 .0283951
776.896 .0283851
777.609 .0283755
778.322 .0283662
779.035 .0283573
779.747 .0283487
780.459 .0283403
781.171 .0283320
781.882 .0283240
782.594 .0283159
783.305 .0283079
784.016 .0282999
784.726 .0282918
785.436 .0282837
786.147 .0282711
786.856 .0282628
787.566 .0282544
788.275 .0282459
788.984 .0282372
789.693 .0282284
790.401 .0282194
791.110 .0282102
791.818 .0282007
792.525 .0281910
793.233 .0281809
793.940 .0281705
794.647 .0281645
795.353 .0281536
796.060 .0281423
796.766 .0281307
797.472 .0281187
798.177 .0281063
798.883 .0280936
799.588 .0280805
800.292 .0280670
800.997 .0280530
801.701 .0280387
802.405 .0280239
803.109 .0280087
803.812 .0279931
804.515 .0279772
805.218 .0279608
805.921 .0279440
806.623 .0279269
807.325 .0279094
808.027 .0278917
808.728 .0278737
809.429 .0278555
810.130 .0278374
810.831 .0278193
811.531 .0278013
812.231 .0277835
812.931 .0277659
813.630 .0277485
814.330 .0277314
815.029 .0277147
815.727 .0276985
816.426 .0276828
817.124 .0276678
817.821 .0276536
818.519 .0276402
819.216 .0276276
819.913 .0276158
820.609 .0276048
821.306 .0275946
822.002 .0275851
822.697 .0275764
823.393 .0275685
824.088 .0275615
824.783 .0275552
825.477 .0275498
826.171 .0275451
826.865 .0275411
827.559 .0275376
828.252 .0275346
828.945 .0275319
829.638 .0275294
830.330 .0275272
831.023 .0275250
831.714 .0275230
832.406 .0275210
833.097 .0275189
833.788 .0275167
834.479 .0275143
835.169 .0275116
835.859 .0275087
836.548 .0275054
837.238 .0275018
837.927 .0274979
838.615 .0274938
839.304 .0274893
839.992 .0274846
840.680 .0274797
841.367 .0274745
842.054 .0274690
842.741 .0274634
843.428 .0274574
844.114 .0274512
844.800 .0274448
845.485 .0274380
846.170 .0274308
846.855 .0274233
847.540 .0274154
848.224 .0274072
848.908 .0273985
849.592 .0273894
850.275 .0273799
850.958 .0273699
851.641 .0273595
852.323 .0273485
853.005 .0273369
853.687 .0273248
854.368 .0273121
855.049 .0272989
855.730 .0272851
856.410 .0272710
857.090 .0272565
857.769 .0272416
858.449 .0272264
859.128 .0272108
859.806 .0271950
860.485 .0271790
861.163 .0271629
861.840 .0271468
862.518 .0271309
863.195 .0271153
863.871 .0271001
864.548 .0270853
865.224 .0270711
865.899 .0270574
866.574 .0270443
867.249 .0270318
867.924 .0270199
868.598 .0270087
869.272 .0269982
869.946 .0269885
870.619 .0269795
871.292 .0269713
871.964 .0269638
872.636 .0269570
873.308 .0269507
873.979 .0269448
874.651 .0269394
875.321 .0269343
875.992 .0269296
876.662 .0269251
877.331 .0269209
878.001 .0269169
878.670 .0269130
879.338 .0269091
880.007 .0269052
880.675 .0269013
881.342 .0268972
882.009 .0268930
882.676 .0268887
883.343 .0268843
884.009 .0268798
884.675 .0268754
885.340 .0268709
886.005 .0268665
886.670 .0268622
887.334 .0268579
887.998 .0268538
888.662 .0268497
889.325 .0268458
889.988 .0268421
890.650 .0268386
891.312 .0268353
891.974 .0268322
892.636 .0268293
893.297 .0268266
893.957 .0268240
894.618 .0268215
895.278 .0268189
895.937 .0268163
896.596 .0268135
897.255 .0268104
897.914 .0268071
898.572 .0268034
899.230 .0267993
899.887 .0267947
900.544 .0267895
901.201 .0267836
901.857 .0267710
902.513 .0267628
903.168 .0267539
903.823 .0267440
904.478 .0267333
905.132 .0267218
905.786 .0267094
906.440 .0266961
907.093 .0266820
907.746 .0266670
908.399 .0266511
909.051 .0266344
909.703 .0266169
910.354 .0266066
911.005 .0265884
911.656 .0265697
912.306 .0265506
912.956 .0265312
913.605 .0265117
914.254 .0264921
914.903 .0264723
915.551 .0264526
916.199 .0264329
916.847 .0264132
917.494 .0263934
918.141 .0263736
918.788 .0263538
919.434 .0263340
920.079 .0263141
920.725 .0262942
921.370 .0262742
922.014 .0262542
922.658 .0262341
923.302 .0262139
923.946 .0261935
924.589 .0261731
925.231 .0261525
925.873 .0261320
926.515 .0261113
927.157 .0260907
927.798 .0260700
928.439 .0260494
929.079 .0260288
929.719 .0260083
930.359 .0259879
930.998 .0259675
931.637 .0259471
932.275 .0259268
932.913 .0259065
933.551 .0258865
934.188 .0258667
934.825 .0258472
935.462 .0258282
936.098 .0258098
936.733 .0257919
937.369 .0257746
938.004 .0257580
938.638 .0257421
939.273 .0257267
939.907 .0257121
940.540 .0256980
941.173 .0256846
941.806 .0256719
942.438 .0256598
943.070 .0256484
943.702 .0256377
944.333 .0256275
944.964 .0256178
945.594 .0256084
946.224 .0255992
946.854 .0255901
947.483 .0255811
948.112 .0255719
948.741 .0255627
949.369 .0255533
949.996 .0255439
950.624 .0255344
951.251 .0255248
951.878 .0255152
952.504 .0255054
953.130 .0254956
953.755 .0254857
954.380 .0254757
955.005 .0254656
955.629 .0254554
956.253 .0254452
956.877 .0254351
957.500 .0254249
958.123 .0254149
958.746 .0254049
959.368 .0253950
959.990 .0253852
960.611 .0253756
961.232 .0253663
961.853 .0253571
962.473 .0253481
963.093 .0253393
963.712 .0253308
964.331 .0253224
964.950 .0253143
965.569 .0253064
966.187 .0252986
966.804 .0252911
967.422 .0252837
968.039 .0252765
968.655 .0252693
969.272 .0252622
969.887 .0252550
970.503 .0252478
971.118 .0252405
971.733 .0252331
972.347 .0252256
972.961 .0252180
973.575 .0252102
974.188 .0252022
974.801 .0251940
975.414 .0251856
976.026 .0251768
976.638 .0251677
977.250 .0251582
977.861 .0251484
978.472 .0251383
979.083 .0251279
979.693 .0251173
980.303 .0251064
980.912 .0250899
981.521 .0250788
982.130 .0250677
982.738 .0250567
983.346 .0250457
983.954 .0250350
984.562 .0250244
985.169 .0250141
985.775 .0250041
986.382 .0249944
986.988 .0249850
987.594 .0249759
988.199 .0249670
988.804 .0249584
989.409 .0249551
990.013 .0249471
990.617 .0249394
991.221 .0249321
991.824 .0249253
992.427 .0249190
993.030 .0249133
993.632 .0249081
994.234 .0249035
994.836 .0248995
995.438 .0248962
996.039 .0248935
996.640 .0248917
997.240 .0248906
997.840 .0248905
998.440 .0248912
999.040 .0248928
999.639 .0248952
1000.238 .0248984
1000.836 .0249021
1001.435 .0249064
1002.033 .0249110
1002.630 .0249159
1003.228 .0249211
1003.825 .0249264
1004.422 .0249319
1005.018 .0249375
1005.614 .0249433
1006.210 .0249491
1006.806 .0249549
1007.401 .0249607
1007.996 .0249664
1008.591 .0249720
1009.186 .0249775
1009.780 .0249830
1010.374 .0249884
1010.967 .0249938
1011.561 .0249992
1012.154 .0250047
1012.746 .0250102
1013.339 .0250156
1013.931 .0250211
1014.523 .0250265
1015.115 .0250318
1015.706 .0250371
1016.298 .0250423
1016.888 .0250476
1017.479 .0250530
1018.069 .0250587
1018.660 .0250646
1019.250 .0250708
1019.839 .0250773
1020.429 .0250843
1021.018 .0250917
1021.607 .0250996
1022.195 .0251081
1022.784 .0251172
1023.372 .0251269
1023.960 .0251373
1024.547 .0251483
1025.135 .0251600
1025.722 .0251723
1026.309 .0251852
1026.896 .0251984
1027.483 .0252118
1028.069 .0252254
1028.655 .0252392
1029.241 .0252529
1029.827 .0252666
1030.412 .0252802
1030.997 .0252937
1031.582 .0253070
1032.167 .0253201
1032.752 .0253329
1033.336 .0253455
1033.921 .0253576
1034.505 .0253693
1035.089 .0253806
1035.672 .0253913
1036.256 .0254015
1036.839 .0254113
1037.422 .0254206
1038.005 .0254294
1038.588 .0254378
1039.171 .0254456
1039.753 .0254529
1040.335 .0254596
1040.918 .0254658
1041.500 .0254712
1042.081 .0254761
1042.663 .0254804
1043.244 .0254842
1043.826 .0254876
1044.407 .0254906
1044.988 .0254935
1045.569 .0254961
1046.150 .0254985
1046.730 .0255008
1047.311 .0255031
1047.891 .0255055
1048.471 .0255079
1049.052 .0255105
1049.632 .0255132
1050.211 .0255163
1050.791 .0255197
1051.371 .0255236
1051.950 .0255279
1052.530 .0255325
1053.109 .0255375
1053.688 .0255427
1054.268 .0255480
1054.847 .0255533
1055.426 .0255587
1056.005 .0255640
1056.583 .0255692
1057.162 .0255744
1057.741 .0255795
1058.319 .0255846
1058.898 .0255897
1059.476 .0255947
1060.055 .0255996
1060.633 .0256043
1061.211 .0256087
1061.790 .0256127
1062.368 .0256165
1062.946 .0256200
1063.524 .0256232
1064.102 .0256261
1064.680 .0256287
1065.258 .0256310
1065.836 .0256329
1066.414 .0256345
1066.992 .0256357
1067.570 .0256365
1068.148 .0256369
1068.726 .0256369
1069.304 .0256366
1069.882 .0256361
1070.460 .0256355
1071.038 .0256348
1071.616 .0256340
1072.194 .0256333
1072.772 .0256327
1073.350 .0256321
1073.928 .0256318
1074.506 .0256317
1075.084 .0256320
1075.662 .0256327
1076.240 .0256340
1076.819 .0256358
1077.397 .0256381
1077.976 .0256408
1078.554 .0256439
1079.133 .0256473
1079.711 .0256508
1080.290 .0256545
1080.869 .0256582
1081.448 .0256620
1082.027 .0256659
1082.606 .0256698
1083.185 .0256735
1083.764 .0256772
1084.343 .0256806
1084.923 .0256838
1085.502 .0256866
1086.082 .0256892
1086.662 .0256915
1087.242 .0256939
1087.822 .0256965
1088.402 .0256994
1088.983 .0257028
1089.563 .0257067
1090.144 .0257110
1090.725 .0257158
1091.306 .0257210
1091.887 .0257264
1092.469 .0257321
1093.050 .0257382
1093.632 .0257445
1094.214 .0257514
1094.796 .0257589
1095.379 .0257669
1095.961 .0257755
1096.544 .0257847
1097.127 .0257943
1097.710 .0258042
1098.294 .0258145
1098.877 .0258250
1099.461 .0258357
1100.046 .0258468
1100.630 .0258584
1101.215 .0258705
1101.800 .0258834
1102.385 .0258971
1102.970 .0259117
1103.556 .0259272
1104.142 .0259435
1104.728 .0259606
1105.315 .0259784
1105.902 .0259968
1106.489 .0260160
1107.077 .0260360
1107.664 .0260568
1108.253 .0260785
1108.841 .0261012
1109.430 .0261249
1110.019 .0261496
1110.609 .0261750
1111.198 .0262012
1111.789 .0262280
1112.379 .0262552
1112.970 .0262829
1113.561 .0263111
1114.153 .0263397
1114.745 .0263691
1115.338 .0263992
1115.931 .0264305
1116.524 .0264631
1117.117 .0264970
1117.712 .0265324
1118.306 .0265695
1118.901 .0266079
1119.496 .0266478
1120.092 .0266891
1120.689 .0267318
1121.285 .0267759
1121.882 .0268213
1122.480 .0268683
1123.078 .0269169
1123.677 .0269673
1124.276 .0270193
1124.875 .0270729
1125.476 .0271279
1126.076 .0271840
1126.677 .0272411
1127.279 .0272988
1127.881 .0273574
1128.484 .0274171
1129.087 .0274425
1129.691 .0275048
1130.295 .0275696
1130.900 .0276372
1131.505 .0277083
1132.111 .0277834
1132.718 .0278628
1133.325 .0279475
1133.933 .0280388
1134.541 .0281310
1135.150 .0282251
1135.760 .0283351
1136.370 .0284645
1136.981 .0284010
1137.592 .0284899
1138.204 .0285880
1138.817 .0286977
1139.431 .0288241
1140.045 .0289611
1140.660 .0291190
1141.275 .0293053
1141.891 .0295312
1142.508 .0296092
1143.126 .0297169
1143.744 .0302218
1144.363 .0308199
1144.983 .0314581
