Measurement Sequence started on: 15-12-46-377
Integration time: 28
Scans to Average: 2 
>>>>>Begin Spectral Data<<<<<
432.689 .0000100
433.621 .0000100
434.552 .0000100
435.482 .0000100
436.410 .0000100
437.337 .0000100
438.262 .0268154
439.187 .0568190
440.110 .0941484
441.031 .1362477
441.952 .1096204
442.871 .1145552
443.789 .1191561
444.705 .1234922
445.621 .1276099
446.535 .1315443
447.447 .1339096
448.359 .1345596
449.269 .1331266
450.178 .1293739
451.086 .1233743
451.993 .1155950
452.898 .1068076
453.803 .0978887
454.706 .0895826
455.608 .0823524
456.508 .0763537
457.408 .0722783
458.306 .0691303
459.204 .0665554
460.100 .0643757
460.995 .0624961
461.888 .0608505
462.781 .0593958
463.673 .0580992
464.563 .0569380
465.452 .0558926
466.340 .0549477
467.228 .0540909
468.114 .0533137
468.999 .0526085
469.882 .0519695
470.765 .0513909
471.647 .0508687
472.528 .0503991
473.407 .0499786
474.286 .0496038
475.163 .0492729
476.040 .0489821
476.915 .0487294
477.790 .0485114
478.663 .0483257
479.535 .0481696
480.407 .0480414
481.277 .0479391
482.147 .0478604
483.015 .0478034
483.883 .0477664
484.749 .0477477
485.615 .0477460
486.479 .0477597
487.343 .0477880
488.206 .0478301
489.067 .0478857
489.928 .0479540
490.788 .0480350
491.647 .0481286
492.505 .0482351
493.362 .0483545
494.218 .0484877
495.073 .0486353
495.928 .0489117
496.781 .0490992
497.634 .0493034
498.486 .0495254
499.337 .0497666
500.187 .0500290
501.036 .0503152
501.884 .0506285
502.731 .0509727
503.578 .0513521
504.424 .0516178
505.268 .0520684
506.113 .0525693
506.956 .0531266
507.798 .0537473
508.640 .0544402
509.480 .0552172
510.320 .0560910
511.160 .0570764
511.998 .0581899
512.836 .0594507
513.672 .0608777
514.508 .0624933
515.344 .0643197
516.178 .0663784
517.012 .0686935
517.845 .0712881
518.677 .0741822
519.508 .0773904
520.339 .0809155
521.169 .0847540
521.998 .0888762
522.826 .0932393
523.654 .0977814
524.481 .1024299
525.307 .1071055
526.133 .1117178
526.958 .1161724
527.782 .1203781
528.605 .1242509
529.428 .1277148
530.250 .1307002
531.072 .1331600
531.892 .1350552
532.712 .1363619
533.532 .1370685
534.350 .1371719
535.168 .1366774
535.986 .1355946
536.802 .1339348
537.618 .1317157
538.434 .1289589
539.249 .1257071
540.063 .1220148
540.876 .1179528
541.689 .1136010
542.501 .1090433
543.313 .1043707
544.124 .0996752
544.934 .0950426
545.744 .0905478
546.553 .0862551
547.361 .0822191
548.169 .0784704
548.976 .0750297
549.783 .0719014
550.589 .0690788
551.395 .0665441
552.200 .0642706
553.004 .0622293
553.808 .0603930
554.611 .0587377
555.414 .0572407
556.216 .0558828
557.018 .0546460
557.819 .0535146
558.619 .0524738
559.419 .0515116
560.218 .0506187
561.017 .0497857
561.815 .0490050
562.613 .0482705
563.410 .0475768
564.207 .0469192
565.003 .0462938
565.799 .0456963
566.594 .0451225
567.388 .0445685
568.182 .0440302
568.976 .0435043
569.769 .0429886
570.562 .0424818
571.354 .0419843
572.145 .0414971
572.936 .0410219
573.727 .0405595
574.517 .0401113
575.307 .0396785
576.096 .0392611
576.885 .0388594
577.673 .0384734
578.461 .0381028
579.248 .0377478
580.035 .0374084
580.821 .0370848
581.607 .0367773
582.392 .0364863
583.177 .0362123
583.962 .0359552
584.746 .0357150
585.529 .0354912
586.313 .0352829
587.095 .0350893
587.878 .0349094
588.660 .0347420
589.441 .0345864
590.222 .0344418
591.003 .0343072
591.783 .0341820
592.563 .0340655
593.342 .0339570
594.121 .0338558
594.899 .0337615
595.678 .0336734
596.455 .0335910
597.233 .0335138
598.009 .0334413
598.786 .0333732
599.562 .0333089
600.338 .0332479
601.113 .0331898
601.888 .0331109
602.663 .0330584
603.437 .0330079
604.211 .0329593
604.984 .0329125
605.757 .0328673
606.530 .0328238
607.302 .0327819
608.074 .0327415
608.845 .0327027
609.616 .0326656
610.387 .0326503
611.158 .0326159
611.928 .0325830
612.697 .0325519
613.467 .0325224
614.236 .0324947
615.004 .0324688
615.773 .0324445
616.541 .0324219
617.308 .0324009
618.076 .0323812
618.843 .0323630
619.609 .0323461
620.375 .0323303
621.141 .0323156
621.907 .0323017
622.672 .0322885
623.437 .0322758
624.202 .0322634
624.966 .0322510
625.730 .0322385
626.493 .0322256
627.257 .0322120
628.020 .0321976
628.782 .0321824
629.545 .0321662
630.307 .0321489
631.068 .0321307
631.830 .0321114
632.591 .0320910
633.352 .0320697
634.112 .0320473
634.872 .0320240
635.632 .0319998
636.392 .0319746
637.151 .0319486
637.910 .0319218
638.668 .0318943
639.427 .0318662
640.185 .0318377
640.943 .0318090
641.700 .0317801
642.457 .0317513
643.214 .0317227
643.971 .0316943
644.727 .0316662
645.483 .0316382
646.239 .0316103
646.994 .0315824
647.750 .0315543
648.505 .0315260
649.259 .0314975
650.014 .0314685
650.768 .0314392
651.521 .0314094
652.275 .0313791
653.028 .0313483
653.781 .0313170
654.534 .0312850
655.286 .0312525
656.039 .0312193
656.791 .0311854
657.542 .0311510
658.294 .0311159
659.045 .0310803
659.796 .0310442
660.546 .0310077
661.297 .0309710
662.047 .0309341
662.796 .0308971
663.546 .0308603
664.295 .0308237
665.044 .0307875
665.793 .0307518
666.542 .0307168
667.290 .0306824
668.038 .0306489
668.786 .0306162
669.533 .0305843
670.281 .0305534
671.028 .0305234
671.774 .0304945
672.521 .0304666
673.267 .0304399
674.013 .0304143
674.759 .0303898
675.505 .0303663
676.250 .0303438
676.995 .0303222
677.740 .0303013
678.484 .0302810
679.229 .0302614
679.973 .0302424
680.717 .0302239
681.460 .0302059
682.204 .0301885
682.947 .0301717
683.690 .0301553
684.433 .0301394
685.175 .0301239
685.917 .0301087
686.659 .0300938
687.401 .0300791
688.142 .0300646
688.884 .0300503
689.625 .0300362
690.365 .0300221
691.106 .0300083
691.846 .0299945
692.586 .0299809
693.326 .0299675
694.066 .0299543
694.805 .0299412
695.545 .0299283
696.284 .0299157
697.022 .0299034
697.761 .0298912
698.499 .0298793
699.237 .0298676
699.975 .0298560
700.713 .0298448
701.450 .0298337
702.187 .0298229
702.924 .0298123
703.661 .0298019
704.397 .0297917
705.133 .0297816
705.869 .0297716
706.605 .0297616
707.341 .0297517
708.076 .0297417
708.811 .0297317
709.546 .0297216
710.281 .0297113
711.015 .0297009
711.749 .0296903
712.483 .0296795
713.217 .0296684
713.950 .0296569
714.684 .0296451
715.417 .0296328
716.150 .0296202
716.882 .0296071
717.615 .0295934
718.347 .0295793
719.079 .0295646
719.811 .0295493
720.542 .0295335
721.273 .0295173
722.005 .0295005
722.735 .0294834
723.466 .0294660
724.196 .0294483
724.927 .0294304
725.656 .0294124
726.386 .0293942
727.116 .0293760
727.845 .0293577
728.574 .0293394
729.303 .0293210
730.031 .0293027
730.760 .0292844
731.488 .0292663
732.216 .0292482
732.944 .0292302
733.671 .0292122
734.398 .0291942
735.125 .0291761
735.852 .0291580
736.579 .0291398
737.305 .0291215
738.031 .0291029
738.757 .0290843
739.483 .0290655
740.208 .0290465
740.933 .0290274
741.658 .0290080
742.383 .0289884
743.108 .0289684
743.832 .0289481
744.556 .0289274
745.280 .0289063
746.004 .0288848
746.727 .0288627
747.450 .0288402
748.173 .0288173
748.896 .0287939
749.618 .0287701
750.340 .0287460
751.062 .0287215
751.784 .0286968
752.506 .0286719
753.227 .0286468
753.948 .0286216
754.669 .0285963
755.389 .0285709
756.110 .0285455
756.830 .0285200
757.550 .0284946
758.269 .0284692
758.989 .0284440
759.708 .0284190
760.427 .0283942
761.146 .0283697
761.864 .0283455
762.582 .0283216
763.300 .0282980
764.018 .0282746
764.736 .0282514
765.453 .0282286
766.170 .0282059
766.887 .0281836
767.603 .0281617
768.320 .0281403
769.036 .0281194
769.751 .0280991
770.467 .0280795
771.182 .0280606
771.897 .0280423
772.612 .0280248
773.327 .0280081
774.041 .0279920
774.755 .0279767
775.469 .0279623
776.183 .0279488
776.896 .0279363
777.609 .0279250
778.322 .0279150
779.035 .0279062
779.747 .0278986
780.459 .0278922
781.171 .0278870
781.882 .0278828
782.594 .0278796
783.305 .0278772
784.016 .0278757
784.726 .0278747
785.436 .0278744
786.147 .0278759
786.856 .0278765
787.566 .0278775
788.275 .0278787
788.984 .0278801
789.693 .0278817
790.401 .0278833
791.110 .0278850
791.818 .0278867
792.525 .0278882
793.233 .0278895
793.940 .0278905
794.647 .0278899
795.353 .0278904
796.060 .0278906
796.766 .0278904
797.472 .0278898
798.177 .0278888
798.883 .0278874
799.588 .0278857
800.292 .0278835
800.997 .0278810
801.701 .0278781
802.405 .0278747
803.109 .0278709
803.812 .0278666
804.515 .0278619
805.218 .0278568
805.921 .0278513
806.623 .0278455
807.325 .0278394
808.027 .0278330
808.728 .0278263
809.429 .0278195
810.130 .0278124
810.831 .0278052
811.531 .0277979
812.231 .0277905
812.931 .0277830
813.630 .0277756
814.330 .0277682
815.029 .0277609
815.727 .0277538
816.426 .0277470
817.124 .0277404
817.821 .0277342
818.519 .0277285
819.216 .0277231
819.913 .0277183
820.609 .0277141
821.306 .0277104
822.002 .0277072
822.697 .0277046
823.393 .0277024
824.088 .0277007
824.783 .0276993
825.477 .0276983
826.171 .0276974
826.865 .0276967
827.559 .0276960
828.252 .0276953
828.945 .0276946
829.638 .0276938
830.330 .0276928
831.023 .0276916
831.714 .0276901
832.406 .0276883
833.097 .0276860
833.788 .0276834
834.479 .0276802
835.169 .0276764
835.859 .0276720
836.548 .0276669
837.238 .0276611
837.927 .0276546
838.615 .0276473
839.304 .0276391
839.992 .0276301
840.680 .0276202
841.367 .0276093
842.054 .0275976
842.741 .0275849
843.428 .0275712
844.114 .0275567
844.800 .0275413
845.485 .0275249
846.170 .0275075
846.855 .0274892
847.540 .0274698
848.224 .0274495
848.908 .0274282
849.592 .0274060
850.275 .0273829
850.958 .0273589
851.641 .0273342
852.323 .0273088
853.005 .0272827
853.687 .0272559
854.368 .0272285
855.049 .0272005
855.730 .0271719
856.410 .0271429
857.090 .0271135
857.769 .0270838
858.449 .0270540
859.128 .0270241
859.806 .0269941
860.485 .0269642
861.163 .0269344
861.840 .0269046
862.518 .0268749
863.195 .0268453
863.871 .0268159
864.548 .0267867
865.224 .0267577
865.899 .0267289
866.574 .0267004
867.249 .0266721
867.924 .0266441
868.598 .0266164
869.272 .0265890
869.946 .0265619
870.619 .0265351
871.292 .0265087
871.964 .0264828
872.636 .0264575
873.308 .0264327
873.979 .0264084
874.651 .0263848
875.321 .0263617
875.992 .0263392
876.662 .0263174
877.331 .0262962
878.001 .0262756
878.670 .0262557
879.338 .0262364
880.007 .0262179
880.675 .0262001
881.342 .0261830
882.009 .0261667
882.676 .0261511
883.343 .0261363
884.009 .0261224
884.675 .0261092
885.340 .0260968
886.005 .0260853
886.670 .0260746
887.334 .0260647
887.998 .0260556
888.662 .0260474
889.325 .0260399
889.988 .0260331
890.650 .0260269
891.312 .0260214
891.974 .0260163
892.636 .0260117
893.297 .0260075
893.957 .0260035
894.618 .0259999
895.278 .0259964
895.937 .0259929
896.596 .0259895
897.255 .0259860
897.914 .0259822
898.572 .0259782
899.230 .0259738
899.887 .0259689
900.544 .0259635
901.201 .0259577
901.857 .0259460
902.513 .0259386
903.168 .0259307
903.823 .0259223
904.478 .0259132
905.132 .0259036
905.786 .0258935
906.440 .0258829
907.093 .0258718
907.746 .0258604
908.399 .0258488
909.051 .0258370
909.703 .0258251
910.354 .0258193
911.005 .0258077
911.656 .0257962
912.306 .0257849
912.956 .0257739
913.605 .0257632
914.254 .0257529
914.903 .0257431
915.551 .0257337
916.199 .0257248
916.847 .0257164
917.494 .0257084
918.141 .0257008
918.788 .0256936
919.434 .0256867
920.079 .0256801
920.725 .0256738
921.370 .0256677
922.014 .0256617
922.658 .0256558
923.302 .0256500
923.946 .0256441
924.589 .0256381
925.231 .0256321
925.873 .0256259
926.515 .0256197
927.157 .0256134
927.798 .0256071
928.439 .0256009
929.079 .0255947
929.719 .0255885
930.359 .0255825
930.998 .0255766
931.637 .0255709
932.275 .0255655
932.913 .0255605
933.551 .0255560
934.188 .0255522
934.825 .0255491
935.462 .0255469
936.098 .0255454
936.733 .0255447
937.369 .0255449
938.004 .0255457
938.638 .0255473
939.273 .0255497
939.907 .0255529
940.540 .0255569
941.173 .0255616
941.806 .0255672
942.438 .0255735
943.070 .0255803
943.702 .0255877
944.333 .0255954
944.964 .0256035
945.594 .0256116
946.224 .0256198
946.854 .0256280
947.483 .0256362
948.112 .0256443
948.741 .0256522
949.369 .0256600
949.996 .0256675
950.624 .0256746
951.251 .0256814
951.878 .0256878
952.504 .0256938
953.130 .0256993
953.755 .0257045
954.380 .0257094
955.005 .0257140
955.629 .0257183
956.253 .0257224
956.877 .0257262
957.500 .0257298
958.123 .0257331
958.746 .0257362
959.368 .0257391
959.990 .0257418
960.611 .0257442
961.232 .0257464
961.853 .0257484
962.473 .0257501
963.093 .0257517
963.712 .0257529
964.331 .0257540
964.950 .0257548
965.569 .0257553
966.187 .0257556
966.804 .0257557
967.422 .0257554
968.039 .0257547
968.655 .0257537
969.272 .0257521
969.887 .0257501
970.503 .0257475
971.118 .0257443
971.733 .0257406
972.347 .0257362
972.961 .0257312
973.575 .0257256
974.188 .0257194
974.801 .0257125
975.414 .0257049
976.026 .0256967
976.638 .0256878
977.250 .0256783
977.861 .0256682
978.472 .0256575
979.083 .0256461
979.693 .0256343
980.303 .0256219
980.912 .0256009
981.521 .0255874
982.130 .0255734
982.738 .0255591
983.346 .0255444
983.954 .0255293
984.562 .0255140
985.169 .0254983
985.775 .0254824
986.382 .0254662
986.988 .0254500
987.594 .0254337
988.199 .0254173
988.804 .0254009
989.409 .0253930
990.013 .0253768
990.617 .0253607
991.221 .0253447
991.824 .0253287
992.427 .0253128
993.030 .0252969
993.632 .0252810
994.234 .0252652
994.836 .0252493
995.438 .0252336
996.039 .0252179
996.640 .0252023
997.240 .0251868
997.840 .0251714
998.440 .0251561
999.040 .0251410
999.639 .0251258
1000.238 .0251108
1000.836 .0250957
1001.435 .0250806
1002.033 .0250656
1002.630 .0250506
1003.228 .0250356
1003.825 .0250207
1004.422 .0250060
1005.018 .0249912
1005.614 .0249765
1006.210 .0249619
1006.806 .0249471
1007.401 .0249323
1007.996 .0249173
1008.591 .0249023
1009.186 .0248873
1009.780 .0248723
1010.374 .0248575
1010.967 .0248429
1011.561 .0248286
1012.154 .0248147
1012.746 .0248012
1013.339 .0247881
1013.931 .0247753
1014.523 .0247627
1015.115 .0247503
1015.706 .0247380
1016.298 .0247258
1016.888 .0247137
1017.479 .0247017
1018.069 .0246899
1018.660 .0246782
1019.250 .0246666
1019.839 .0246552
1020.429 .0246439
1021.018 .0246327
1021.607 .0246216
1022.195 .0246106
1022.784 .0245996
1023.372 .0245888
1023.960 .0245782
1024.547 .0245679
1025.135 .0245579
1025.722 .0245484
1026.309 .0245393
1026.896 .0245308
1027.483 .0245227
1028.069 .0245150
1028.655 .0245077
1029.241 .0245007
1029.827 .0244939
1030.412 .0244872
1030.997 .0244806
1031.582 .0244742
1032.167 .0244677
1032.752 .0244613
1033.336 .0244550
1033.921 .0244487
1034.505 .0244424
1035.089 .0244360
1035.672 .0244296
1036.256 .0244231
1036.839 .0244164
1037.422 .0244096
1038.005 .0244026
1038.588 .0243954
1039.171 .0243879
1039.753 .0243802
1040.335 .0243723
1040.918 .0243642
1041.500 .0243559
1042.081 .0243474
1042.663 .0243389
1043.244 .0243303
1043.826 .0243216
1044.407 .0243128
1044.988 .0243040
1045.569 .0242951
1046.150 .0242860
1046.730 .0242769
1047.311 .0242677
1047.891 .0242585
1048.471 .0242495
1049.052 .0242406
1049.632 .0242320
1050.211 .0242237
1050.791 .0242158
1051.371 .0242082
1051.950 .0242010
1052.530 .0241940
1053.109 .0241873
1053.688 .0241809
1054.268 .0241746
1054.847 .0241686
1055.426 .0241630
1056.005 .0241577
1056.583 .0241527
1057.162 .0241480
1057.741 .0241436
1058.319 .0241394
1058.898 .0241354
1059.476 .0241314
1060.055 .0241275
1060.633 .0241236
1061.211 .0241197
1061.790 .0241159
1062.368 .0241123
1062.946 .0241087
1063.524 .0241055
1064.102 .0241024
1064.680 .0240997
1065.258 .0240971
1065.836 .0240948
1066.414 .0240928
1066.992 .0240911
1067.570 .0240896
1068.148 .0240884
1068.726 .0240874
1069.304 .0240867
1069.882 .0240862
1070.460 .0240860
1071.038 .0240862
1071.616 .0240868
1072.194 .0240879
1072.772 .0240894
1073.350 .0240916
1073.928 .0240942
1074.506 .0240974
1075.084 .0241011
1075.662 .0241052
1076.240 .0241098
1076.819 .0241149
1077.397 .0241206
1077.976 .0241269
1078.554 .0241339
1079.133 .0241417
1079.711 .0241502
1080.290 .0241594
1080.869 .0241692
1081.448 .0241794
1082.027 .0241898
1082.606 .0242003
1083.185 .0242107
1083.764 .0242211
1084.343 .0242315
1084.923 .0242420
1085.502 .0242527
1086.082 .0242636
1086.662 .0242750
1087.242 .0242869
1087.822 .0242992
1088.402 .0243120
1088.983 .0243254
1089.563 .0243393
1090.144 .0243539
1090.725 .0243692
1091.306 .0243855
1091.887 .0244028
1092.469 .0244213
1093.050 .0244409
1093.632 .0244617
1094.214 .0244837
1094.796 .0245068
1095.379 .0245307
1095.961 .0245553
1096.544 .0245803
1097.127 .0246058
1097.710 .0246317
1098.294 .0246579
1098.877 .0246846
1099.461 .0247117
1100.046 .0247395
1100.630 .0247678
1101.215 .0247967
1101.800 .0248262
1102.385 .0248564
1102.970 .0248870
1103.556 .0249182
1104.142 .0249499
1104.728 .0249824
1105.315 .0250158
1105.902 .0250504
1106.489 .0250862
1107.077 .0251236
1107.664 .0251625
1108.253 .0252027
1108.841 .0252443
1109.430 .0252871
1110.019 .0253308
1110.609 .0253755
1111.198 .0254211
1111.789 .0254677
1112.379 .0255155
1112.970 .0255649
1113.561 .0256159
1114.153 .0256687
1114.745 .0257233
1115.338 .0257797
1115.931 .0258378
1116.524 .0258972
1117.117 .0259577
1117.712 .0260194
1118.306 .0260821
1118.901 .0261461
1119.496 .0262112
1120.092 .0262777
1120.689 .0263456
1121.285 .0264148
1121.882 .0264851
1122.480 .0265559
1123.078 .0266271
1123.677 .0266983
1124.276 .0267691
1124.875 .0268396
1125.476 .0269099
1126.076 .0269803
1126.677 .0270513
1127.279 .0271234
1127.881 .0271969
1128.484 .0272721
1129.087 .0273081
1129.691 .0273850
1130.295 .0274637
1130.900 .0275443
1131.505 .0276270
1132.111 .0277123
1132.718 .0278007
1133.325 .0278928
1133.933 .0279897
1134.541 .0280895
1135.150 .0281979
1135.760 .0283130
1136.370 .0284322
1136.981 .0283685
1137.592 .0285024
1138.204 .0286394
1138.817 .0287809
1139.431 .0289270
1140.045 .0290789
1140.660 .0292435
1141.275 .0294174
1141.891 .0296110
1142.508 .0297484
1143.126 .0300427
1143.744 .0302875
1144.363 .0304625
1144.983 .0308403
