Measurement Sequence started on: 15-12-46-377
Integration time: 28
Scans to Average: 2 
>>>>>Begin Spectral Data<<<<<
432.689 .0000100
433.621 .0000100
434.552 .0000100
435.482 .0000100
436.410 .0000100
437.337 .0000100
438.262 .0262618
439.187 .0555835
440.110 .0920103
441.031 .1330833
441.952 .1067314
442.871 .1114621
443.789 .1158567
444.705 .1199846
445.621 .1238960
446.535 .1276308
447.447 .1298355
448.359 .1303705
449.269 .1288801
450.178 .1251318
451.086 .1191987
451.993 .1115343
452.898 .1028909
453.803 .0941248
454.706 .0859630
455.608 .0788575
456.508 .0729625
457.408 .0689557
458.306 .0658638
459.204 .0633402
460.100 .0612124
460.995 .0593829
461.888 .0577839
462.781 .0563673
463.673 .0550948
464.563 .0539407
465.452 .0528856
466.340 .0519146
467.228 .0510189
468.114 .0501926
468.999 .0494317
469.882 .0487332
470.765 .0480942
471.647 .0475115
472.528 .0469823
473.407 .0465030
474.286 .0460714
475.163 .0456858
476.040 .0453447
476.915 .0450469
477.790 .0447917
478.663 .0445787
479.535 .0444071
480.407 .0442752
481.277 .0441806
482.147 .0441198
483.015 .0440893
483.883 .0440850
484.749 .0441026
485.615 .0441387
486.479 .0441906
487.343 .0442559
488.206 .0443334
489.067 .0444220
489.928 .0445209
490.788 .0446297
491.647 .0447479
492.505 .0448753
493.362 .0450116
494.218 .0451569
495.073 .0453116
495.928 .0455871
496.781 .0457769
497.634 .0459826
498.486 .0462068
499.337 .0464522
500.187 .0467209
501.036 .0470152
501.884 .0473375
502.731 .0476906
503.578 .0480770
504.424 .0483464
505.268 .0487963
506.113 .0492924
506.956 .0498408
507.798 .0504483
508.640 .0511225
509.480 .0518713
510.320 .0527045
511.160 .0536328
511.998 .0546687
512.836 .0558280
513.672 .0571273
514.508 .0585881
515.344 .0602337
516.178 .0620871
517.012 .0641736
517.845 .0665171
518.677 .0691374
519.508 .0720500
520.339 .0752621
521.169 .0787781
521.998 .0825774
522.826 .0866328
523.654 .0908978
524.481 .0953145
525.307 .0998110
526.133 .1043028
526.958 .1086968
527.782 .1129013
528.605 .1168228
529.428 .1203778
530.250 .1234884
531.072 .1261034
531.892 .1281775
532.712 .1296844
533.532 .1306085
534.350 .1309467
535.168 .1307015
535.986 .1298836
536.802 .1285028
537.618 .1265758
538.434 .1241174
539.249 .1211655
540.063 .1177606
540.876 .1139604
541.689 .1098308
542.501 .1054514
543.313 .1009090
544.124 .0962990
544.934 .0917118
545.744 .0872363
546.553 .0829488
547.361 .0789160
548.169 .0751752
548.976 .0717526
549.783 .0686519
550.589 .0658658
551.395 .0633707
552.200 .0611393
553.004 .0591404
553.808 .0573477
554.611 .0557360
555.414 .0542846
556.216 .0529731
557.018 .0517844
557.819 .0507021
558.619 .0497121
559.419 .0487993
560.218 .0479530
561.017 .0471618
561.815 .0464168
562.613 .0457110
563.410 .0450387
564.207 .0443945
565.003 .0437751
565.799 .0431775
566.594 .0426000
567.388 .0420413
568.182 .0415010
568.976 .0409786
569.769 .0404737
570.562 .0399853
571.354 .0395124
572.145 .0390542
572.936 .0386104
573.727 .0381799
574.517 .0377624
575.307 .0373581
576.096 .0369676
576.885 .0365915
577.673 .0362306
578.461 .0358856
579.248 .0355565
580.035 .0352431
580.821 .0349451
581.607 .0346618
582.392 .0343928
583.177 .0341377
583.962 .0338965
584.746 .0336694
585.529 .0334565
586.313 .0332579
587.095 .0330737
587.878 .0329035
588.660 .0327470
589.441 .0326034
590.222 .0324720
591.003 .0323522
591.783 .0322431
592.563 .0321439
593.342 .0320538
594.121 .0319721
594.899 .0318981
595.678 .0318309
596.455 .0317699
597.233 .0317142
598.009 .0316633
598.786 .0316166
599.562 .0315735
600.338 .0315334
601.113 .0314959
601.888 .0314459
602.663 .0314127
603.437 .0313808
604.211 .0313500
604.984 .0313201
605.757 .0312911
606.530 .0312630
607.302 .0312356
608.074 .0312090
608.845 .0311832
609.616 .0311583
610.387 .0311477
611.158 .0311244
611.928 .0311021
612.697 .0310809
613.467 .0310607
614.236 .0310415
615.004 .0310233
615.773 .0310060
616.541 .0309896
617.308 .0309740
618.076 .0309591
618.843 .0309448
619.609 .0309311
620.375 .0309178
621.141 .0309048
621.907 .0308922
622.672 .0308795
623.437 .0308667
624.202 .0308536
624.966 .0308400
625.730 .0308259
626.493 .0308111
627.257 .0307956
628.020 .0307791
628.782 .0307617
629.545 .0307433
630.307 .0307239
631.068 .0307035
631.830 .0306820
632.591 .0306595
633.352 .0306360
634.112 .0306115
634.872 .0305861
635.632 .0305597
636.392 .0305324
637.151 .0305044
637.910 .0304757
638.668 .0304464
639.427 .0304168
640.185 .0303871
640.943 .0303574
641.700 .0303278
642.457 .0302986
643.214 .0302696
643.971 .0302410
644.727 .0302128
645.483 .0301848
646.239 .0301572
646.994 .0301298
647.750 .0301027
648.505 .0300758
649.259 .0300492
650.014 .0300229
650.768 .0299967
651.521 .0299708
652.275 .0299450
653.028 .0299194
653.781 .0298939
654.534 .0298686
655.286 .0298435
656.039 .0298185
656.791 .0297938
657.542 .0297692
658.294 .0297449
659.045 .0297208
659.796 .0296970
660.546 .0296735
661.297 .0296504
662.047 .0296277
662.796 .0296055
663.546 .0295839
664.295 .0295627
665.044 .0295421
665.793 .0295221
666.542 .0295027
667.290 .0294840
668.038 .0294658
668.786 .0294483
669.533 .0294315
670.281 .0294153
671.028 .0293999
671.774 .0293853
672.521 .0293714
673.267 .0293583
674.013 .0293460
674.759 .0293345
675.505 .0293236
676.250 .0293133
676.995 .0293036
677.740 .0292943
678.484 .0292853
679.229 .0292766
679.973 .0292682
680.717 .0292600
681.460 .0292520
682.204 .0292442
682.947 .0292363
683.690 .0292284
684.433 .0292204
685.175 .0292121
685.917 .0292035
686.659 .0291946
687.401 .0291853
688.142 .0291755
688.884 .0291652
689.625 .0291544
690.365 .0291431
691.106 .0291312
691.846 .0291187
692.586 .0291056
693.326 .0290920
694.066 .0290779
694.805 .0290634
695.545 .0290485
696.284 .0290332
697.022 .0290175
697.761 .0290014
698.499 .0289848
699.237 .0289679
699.975 .0289506
700.713 .0289331
701.450 .0289154
702.187 .0288976
702.924 .0288799
703.661 .0288622
704.397 .0288446
705.133 .0288270
705.869 .0288095
706.605 .0287919
707.341 .0287742
708.076 .0287563
708.811 .0287383
709.546 .0287200
710.281 .0287015
711.015 .0286826
711.749 .0286634
712.483 .0286439
713.217 .0286240
713.950 .0286039
714.684 .0285835
715.417 .0285630
716.150 .0285422
716.882 .0285212
717.615 .0285000
718.347 .0284785
719.079 .0284566
719.811 .0284344
720.542 .0284118
721.273 .0283891
722.005 .0283663
722.735 .0283435
723.466 .0283209
724.196 .0282985
724.927 .0282765
725.656 .0282548
726.386 .0282334
727.116 .0282122
727.845 .0281914
728.574 .0281708
729.303 .0281504
730.031 .0281304
730.760 .0281107
731.488 .0280915
732.216 .0280728
732.944 .0280546
733.671 .0280370
734.398 .0280201
735.125 .0280038
735.852 .0279881
736.579 .0279731
737.305 .0279587
738.031 .0279448
738.757 .0279313
739.483 .0279183
740.208 .0279056
740.933 .0278933
741.658 .0278813
742.383 .0278697
743.108 .0278585
743.832 .0278477
744.556 .0278374
745.280 .0278276
746.004 .0278181
746.727 .0278090
747.450 .0278000
748.173 .0277911
748.896 .0277821
749.618 .0277730
750.340 .0277638
751.062 .0277545
751.784 .0277450
752.506 .0277356
753.227 .0277261
753.948 .0277168
754.669 .0277075
755.389 .0276982
756.110 .0276890
756.830 .0276797
757.550 .0276704
758.269 .0276610
758.989 .0276516
759.708 .0276422
760.427 .0276328
761.146 .0276234
761.864 .0276142
762.582 .0276051
763.300 .0275962
764.018 .0275874
764.736 .0275788
765.453 .0275705
766.170 .0275623
766.887 .0275544
767.603 .0275467
768.320 .0275393
769.036 .0275322
769.751 .0275254
770.467 .0275189
771.182 .0275127
771.897 .0275070
772.612 .0275016
773.327 .0274968
774.041 .0274923
774.755 .0274883
775.469 .0274848
776.183 .0274816
776.896 .0274787
777.609 .0274762
778.322 .0274740
779.035 .0274721
779.747 .0274704
780.459 .0274689
781.171 .0274675
781.882 .0274663
782.594 .0274651
783.305 .0274638
784.016 .0274625
784.726 .0274610
785.436 .0274593
786.147 .0274553
786.856 .0274527
787.566 .0274498
788.275 .0274465
788.984 .0274428
789.693 .0274385
790.401 .0274337
791.110 .0274284
791.818 .0274225
792.525 .0274161
793.233 .0274091
793.940 .0274014
794.647 .0273963
795.353 .0273877
796.060 .0273786
796.766 .0273687
797.472 .0273583
798.177 .0273472
798.883 .0273356
799.588 .0273234
800.292 .0273108
800.997 .0272976
801.701 .0272839
802.405 .0272695
803.109 .0272545
803.812 .0272388
804.515 .0272224
805.218 .0272053
805.921 .0271875
806.623 .0271690
807.325 .0271500
808.027 .0271305
808.728 .0271104
809.429 .0270898
810.130 .0270688
810.831 .0270474
811.531 .0270257
812.231 .0270037
812.931 .0269815
813.630 .0269593
814.330 .0269371
815.029 .0269150
815.727 .0268931
816.426 .0268715
817.124 .0268501
817.821 .0268290
818.519 .0268082
819.216 .0267879
819.913 .0267681
820.609 .0267488
821.306 .0267302
822.002 .0267123
822.697 .0266951
823.393 .0266785
824.088 .0266626
824.783 .0266472
825.477 .0266324
826.171 .0266181
826.865 .0266043
827.559 .0265910
828.252 .0265783
828.945 .0265662
829.638 .0265547
830.330 .0265437
831.023 .0265333
831.714 .0265233
832.406 .0265138
833.097 .0265045
833.788 .0264956
834.479 .0264869
835.169 .0264785
835.859 .0264703
836.548 .0264623
837.238 .0264545
837.927 .0264468
838.615 .0264392
839.304 .0264317
839.992 .0264241
840.680 .0264166
841.367 .0264090
842.054 .0264014
842.741 .0263938
843.428 .0263862
844.114 .0263786
844.800 .0263709
845.485 .0263631
846.170 .0263550
846.855 .0263467
847.540 .0263381
848.224 .0263292
848.908 .0263200
849.592 .0263106
850.275 .0263009
850.958 .0262912
851.641 .0262812
852.323 .0262712
853.005 .0262611
853.687 .0262509
854.368 .0262405
855.049 .0262301
855.730 .0262197
856.410 .0262092
857.090 .0261987
857.769 .0261883
858.449 .0261780
859.128 .0261679
859.806 .0261581
860.485 .0261485
861.163 .0261393
861.840 .0261304
862.518 .0261219
863.195 .0261138
863.871 .0261060
864.548 .0260986
865.224 .0260916
865.899 .0260849
866.574 .0260786
867.249 .0260726
867.924 .0260668
868.598 .0260614
869.272 .0260563
869.946 .0260515
870.619 .0260470
871.292 .0260427
871.964 .0260387
872.636 .0260351
873.308 .0260317
873.979 .0260287
874.651 .0260260
875.321 .0260237
875.992 .0260217
876.662 .0260200
877.331 .0260186
878.001 .0260175
878.670 .0260166
879.338 .0260161
880.007 .0260158
880.675 .0260159
881.342 .0260164
882.009 .0260172
882.676 .0260183
883.343 .0260198
884.009 .0260214
884.675 .0260234
885.340 .0260256
886.005 .0260281
886.670 .0260308
887.334 .0260339
887.998 .0260374
888.662 .0260412
889.325 .0260453
889.988 .0260496
890.650 .0260542
891.312 .0260589
891.974 .0260637
892.636 .0260685
893.297 .0260733
893.957 .0260782
894.618 .0260830
895.278 .0260877
895.937 .0260922
896.596 .0260963
897.255 .0260999
897.914 .0261030
898.572 .0261054
899.230 .0261069
899.887 .0261077
900.544 .0261075
901.201 .0261065
901.857 .0261007
902.513 .0260973
903.168 .0260929
903.823 .0260875
904.478 .0260811
905.132 .0260737
905.786 .0260653
906.440 .0260559
907.093 .0260456
907.746 .0260343
908.399 .0260223
909.051 .0260093
909.703 .0259956
910.354 .0259868
911.005 .0259722
911.656 .0259568
912.306 .0259408
912.956 .0259240
913.605 .0259067
914.254 .0258887
914.903 .0258703
915.551 .0258514
916.199 .0258322
916.847 .0258126
917.494 .0257928
918.141 .0257726
918.788 .0257520
919.434 .0257311
920.079 .0257098
920.725 .0256881
921.370 .0256660
922.014 .0256435
922.658 .0256206
923.302 .0255975
923.946 .0255742
924.589 .0255506
925.231 .0255269
925.873 .0255030
926.515 .0254789
927.157 .0254546
927.798 .0254302
928.439 .0254057
929.079 .0253812
929.719 .0253567
930.359 .0253325
930.998 .0253086
931.637 .0252850
932.275 .0252620
932.913 .0252394
933.551 .0252173
934.188 .0251958
934.825 .0251748
935.462 .0251545
936.098 .0251349
936.733 .0251159
937.369 .0250977
938.004 .0250801
938.638 .0250632
939.273 .0250469
939.907 .0250312
940.540 .0250160
941.173 .0250013
941.806 .0249870
942.438 .0249731
943.070 .0249596
943.702 .0249465
944.333 .0249335
944.964 .0249208
945.594 .0249082
946.224 .0248957
946.854 .0248831
947.483 .0248704
948.112 .0248575
948.741 .0248443
949.369 .0248309
949.996 .0248173
950.624 .0248033
951.251 .0247890
951.878 .0247744
952.504 .0247594
953.130 .0247442
953.755 .0247287
954.380 .0247131
955.005 .0246974
955.629 .0246817
956.253 .0246660
956.877 .0246505
957.500 .0246351
958.123 .0246199
958.746 .0246048
959.368 .0245900
959.990 .0245754
960.611 .0245612
961.232 .0245472
961.853 .0245337
962.473 .0245205
963.093 .0245077
963.712 .0244952
964.331 .0244832
964.950 .0244714
965.569 .0244599
966.187 .0244488
966.804 .0244379
967.422 .0244273
968.039 .0244170
968.655 .0244071
969.272 .0243975
969.887 .0243882
970.503 .0243793
971.118 .0243708
971.733 .0243625
972.347 .0243544
972.961 .0243465
973.575 .0243387
974.188 .0243310
974.801 .0243233
975.414 .0243155
976.026 .0243075
976.638 .0242993
977.250 .0242909
977.861 .0242823
978.472 .0242734
979.083 .0242642
979.693 .0242549
980.303 .0242454
980.912 .0242305
981.521 .0242208
982.130 .0242110
982.738 .0242013
983.346 .0241918
983.954 .0241824
984.562 .0241735
985.169 .0241649
985.775 .0241570
986.382 .0241495
986.988 .0241427
987.594 .0241365
988.199 .0241309
988.804 .0241258
989.409 .0241257
990.013 .0241216
990.617 .0241182
991.221 .0241153
991.824 .0241131
992.427 .0241116
993.030 .0241109
993.632 .0241109
994.234 .0241118
994.836 .0241133
995.438 .0241155
996.039 .0241184
996.640 .0241218
997.240 .0241257
997.840 .0241302
998.440 .0241354
999.040 .0241411
999.639 .0241476
1000.238 .0241546
1000.836 .0241623
1001.435 .0241704
1002.033 .0241789
1002.630 .0241876
1003.228 .0241963
1003.825 .0242050
1004.422 .0242136
1005.018 .0242220
1005.614 .0242303
1006.210 .0242386
1006.806 .0242468
1007.401 .0242549
1007.996 .0242630
1008.591 .0242710
1009.186 .0242789
1009.780 .0242866
1010.374 .0242943
1010.967 .0243019
1011.561 .0243096
1012.154 .0243175
1012.746 .0243256
1013.339 .0243340
1013.931 .0243429
1014.523 .0243522
1015.115 .0243619
1015.706 .0243720
1016.298 .0243825
1016.888 .0243934
1017.479 .0244047
1018.069 .0244165
1018.660 .0244287
1019.250 .0244414
1019.839 .0244546
1020.429 .0244683
1021.018 .0244824
1021.607 .0244968
1022.195 .0245114
1022.784 .0245264
1023.372 .0245414
1023.960 .0245566
1024.547 .0245720
1025.135 .0245875
1025.722 .0246031
1026.309 .0246188
1026.896 .0246345
1027.483 .0246501
1028.069 .0246654
1028.655 .0246804
1029.241 .0246950
1029.827 .0247091
1030.412 .0247227
1030.997 .0247359
1031.582 .0247486
1032.167 .0247610
1032.752 .0247730
1033.336 .0247846
1033.921 .0247958
1034.505 .0248065
1035.089 .0248167
1035.672 .0248264
1036.256 .0248354
1036.839 .0248440
1037.422 .0248520
1038.005 .0248597
1038.588 .0248671
1039.171 .0248742
1039.753 .0248812
1040.335 .0248880
1040.918 .0248947
1041.500 .0249013
1042.081 .0249078
1042.663 .0249141
1043.244 .0249204
1043.826 .0249268
1044.407 .0249333
1044.988 .0249400
1045.569 .0249472
1046.150 .0249547
1046.730 .0249627
1047.311 .0249710
1047.891 .0249796
1048.471 .0249883
1049.052 .0249972
1049.632 .0250060
1050.211 .0250148
1050.791 .0250234
1051.371 .0250317
1051.950 .0250397
1052.530 .0250475
1053.109 .0250549
1053.688 .0250619
1054.268 .0250685
1054.847 .0250745
1055.426 .0250800
1056.005 .0250849
1056.583 .0250892
1057.162 .0250931
1057.741 .0250965
1058.319 .0250994
1058.898 .0251019
1059.476 .0251041
1060.055 .0251059
1060.633 .0251074
1061.211 .0251086
1061.790 .0251093
1062.368 .0251096
1062.946 .0251093
1063.524 .0251084
1064.102 .0251070
1064.680 .0251050
1065.258 .0251025
1065.836 .0250995
1066.414 .0250961
1066.992 .0250924
1067.570 .0250884
1068.148 .0250843
1068.726 .0250801
1069.304 .0250758
1069.882 .0250716
1070.460 .0250674
1071.038 .0250634
1071.616 .0250595
1072.194 .0250559
1072.772 .0250526
1073.350 .0250496
1073.928 .0250471
1074.506 .0250449
1075.084 .0250431
1075.662 .0250417
1076.240 .0250404
1076.819 .0250394
1077.397 .0250384
1077.976 .0250375
1078.554 .0250365
1079.133 .0250355
1079.711 .0250345
1080.290 .0250335
1080.869 .0250326
1081.448 .0250319
1082.027 .0250313
1082.606 .0250310
1083.185 .0250310
1083.764 .0250312
1084.343 .0250318
1084.923 .0250325
1085.502 .0250334
1086.082 .0250344
1086.662 .0250356
1087.242 .0250369
1087.822 .0250385
1088.402 .0250403
1088.983 .0250423
1089.563 .0250445
1090.144 .0250469
1090.725 .0250494
1091.306 .0250520
1091.887 .0250546
1092.469 .0250572
1093.050 .0250598
1093.632 .0250625
1094.214 .0250654
1094.796 .0250686
1095.379 .0250721
1095.961 .0250760
1096.544 .0250803
1097.127 .0250848
1097.710 .0250896
1098.294 .0250946
1098.877 .0250995
1099.461 .0251043
1100.046 .0251091
1100.630 .0251139
1101.215 .0251186
1101.800 .0251235
1102.385 .0251286
1102.970 .0251339
1103.556 .0251393
1104.142 .0251449
1104.728 .0251506
1105.315 .0251565
1105.902 .0251624
1106.489 .0251686
1107.077 .0251751
1107.664 .0251823
1108.253 .0251902
1108.841 .0251992
1109.430 .0252096
1110.019 .0252213
1110.609 .0252345
1111.198 .0252489
1111.789 .0252646
1112.379 .0252812
1112.970 .0252988
1113.561 .0253174
1114.153 .0253369
1114.745 .0253573
1115.338 .0253790
1115.931 .0254021
1116.524 .0254266
1117.117 .0254526
1117.712 .0254801
1118.306 .0255089
1118.901 .0255387
1119.496 .0255695
1120.092 .0256015
1120.689 .0256347
1121.285 .0256695
1121.882 .0257064
1122.480 .0257455
1123.078 .0257872
1123.677 .0258314
1124.276 .0258779
1124.875 .0259266
1125.476 .0259770
1126.076 .0260286
1126.677 .0260813
1127.279 .0261352
1127.881 .0261904
1128.484 .0262475
1129.087 .0262708
1129.691 .0263312
1130.295 .0263949
1130.900 .0264621
1131.505 .0265332
1132.111 .0266088
1132.718 .0266894
1133.325 .0267759
1133.933 .0268691
1134.541 .0269626
1135.150 .0270704
1135.760 .0271861
1136.370 .0273210
1136.981 .0272092
1137.592 .0273211
1138.204 .0274460
1138.817 .0275796
1139.431 .0277224
1140.045 .0278810
1140.660 .0280564
1141.275 .0282610
1141.891 .0284963
1142.508 .0285461
1143.126 .0289937
1143.744 .0292571
1144.363 .0298344
1144.983 .0301968
