Measurement Sequence started on: 15-12-46-377
Integration time: 28
Scans to Average: 2 
>>>>>Begin Spectral Data<<<<<
432.689 .0000100
433.621 .0000100
434.552 .0000100
435.482 .0000100
436.410 .0000100
437.337 .0000100
438.262 .0309328
439.187 .0653213
440.110 .1080207
441.031 .1560878
441.952 .1240898
442.871 .1295060
443.789 .1345396
444.705 .1392667
445.621 .1437422
446.535 .1480089
447.447 .1504716
448.359 .1509738
449.269 .1490985
450.178 .1445802
451.086 .1375138
451.993 .1284396
452.898 .1182478
453.803 .1079438
454.706 .0983774
455.608 .0900731
456.508 .0831994
457.408 .0785473
458.306 .0749578
459.204 .0720226
460.100 .0695383
460.995 .0673919
461.888 .0655100
462.781 .0638413
463.673 .0623462
464.563 .0609968
465.452 .0597702
466.340 .0586503
467.228 .0576231
468.114 .0566802
468.999 .0558141
469.882 .0550189
470.765 .0542885
471.647 .0536189
472.528 .0530062
473.407 .0524475
474.286 .0519399
475.163 .0514820
476.040 .0510717
476.915 .0507075
477.790 .0503869
478.663 .0501071
479.535 .0498650
480.407 .0496574
481.277 .0494807
482.147 .0493319
483.015 .0492079
483.883 .0491069
484.749 .0490275
485.615 .0489694
486.479 .0489326
487.343 .0489171
488.206 .0489235
489.067 .0489514
489.928 .0490011
490.788 .0490724
491.647 .0491652
492.505 .0492799
493.362 .0494173
494.218 .0495782
495.073 .0497639
495.928 .0501399
496.781 .0503929
497.634 .0506722
498.486 .0509779
499.337 .0513096
500.187 .0516670
501.036 .0520501
501.884 .0524598
502.731 .0528977
503.578 .0533657
504.424 .0536590
505.268 .0541826
506.113 .0547473
506.956 .0553574
507.798 .0560200
508.640 .0567428
509.480 .0575358
510.320 .0584106
511.160 .0593817
511.998 .0604660
512.836 .0616849
513.672 .0630595
514.508 .0646156
515.344 .0663809
516.178 .0683836
517.012 .0706538
517.845 .0732216
518.677 .0761147
519.508 .0793581
520.339 .0829636
521.169 .0869383
521.998 .0912564
522.826 .0958782
523.654 .1007396
524.481 .1057624
525.307 .1108544
526.133 .1159129
526.958 .1208287
527.782 .1255009
528.605 .1298319
529.428 .1337413
530.250 .1371526
531.072 .1400170
531.892 .1422907
532.712 .1439453
533.532 .1449626
534.350 .1453349
535.168 .1450606
535.986 .1441459
536.802 .1425922
537.618 .1404126
538.434 .1376200
539.249 .1342608
540.063 .1303927
540.876 .1260927
541.689 .1214498
542.501 .1165630
543.313 .1115365
544.124 .1064779
544.934 .1014833
545.744 .0966402
546.553 .0920175
547.361 .0876749
548.169 .0836433
548.976 .0799447
549.783 .0765838
550.589 .0735531
551.395 .0708321
552.200 .0683941
553.004 .0662048
553.808 .0642361
554.611 .0624604
555.414 .0608545
556.216 .0593931
557.018 .0580537
557.819 .0568183
558.619 .0556705
559.419 .0545964
560.218 .0535864
561.017 .0526316
561.815 .0517256
562.613 .0508636
563.410 .0500402
564.207 .0492512
565.003 .0484935
565.799 .0477631
566.594 .0470568
567.388 .0463731
568.182 .0457105
568.976 .0450677
569.769 .0444447
570.562 .0438422
571.354 .0432604
572.145 .0427001
572.936 .0421622
573.727 .0416470
574.517 .0411547
575.307 .0406853
576.096 .0402379
576.885 .0398127
577.673 .0394094
578.461 .0390275
579.248 .0386666
580.035 .0383269
580.821 .0380077
581.607 .0377082
582.392 .0374279
583.177 .0371664
583.962 .0369228
584.746 .0366965
585.529 .0364864
586.313 .0362916
587.095 .0361111
587.878 .0359440
588.660 .0357893
589.441 .0356462
590.222 .0355141
591.003 .0353920
591.783 .0352794
592.563 .0351755
593.342 .0350794
594.121 .0349902
594.899 .0349067
595.678 .0348278
596.455 .0347525
597.233 .0346796
598.009 .0346087
598.786 .0345392
599.562 .0344707
600.338 .0344031
601.113 .0343362
601.888 .0342380
602.663 .0341734
603.437 .0341095
604.211 .0340463
604.984 .0339840
605.757 .0339225
606.530 .0338618
607.302 .0338022
608.074 .0337436
608.845 .0336863
609.616 .0336304
610.387 .0336062
611.158 .0335525
611.928 .0335003
612.697 .0334496
613.467 .0334005
614.236 .0333530
615.004 .0333073
615.773 .0332632
616.541 .0332207
617.308 .0331799
618.076 .0331406
618.843 .0331026
619.609 .0330656
620.375 .0330297
621.141 .0329946
621.907 .0329604
622.672 .0329271
623.437 .0328945
624.202 .0328628
624.966 .0328317
625.730 .0328013
626.493 .0327713
627.257 .0327418
628.020 .0327126
628.782 .0326837
629.545 .0326551
630.307 .0326268
631.068 .0325988
631.830 .0325712
632.591 .0325440
633.352 .0325172
634.112 .0324907
634.872 .0324645
635.632 .0324386
636.392 .0324130
637.151 .0323879
637.910 .0323633
638.668 .0323392
639.427 .0323158
640.185 .0322929
640.943 .0322707
641.700 .0322490
642.457 .0322280
643.214 .0322076
643.971 .0321878
644.727 .0321688
645.483 .0321504
646.239 .0321328
646.994 .0321158
647.750 .0320996
648.505 .0320840
649.259 .0320688
650.014 .0320540
650.768 .0320394
651.521 .0320248
652.275 .0320102
653.028 .0319955
653.781 .0319804
654.534 .0319649
655.286 .0319489
656.039 .0319323
656.791 .0319151
657.542 .0318971
658.294 .0318784
659.045 .0318588
659.796 .0318382
660.546 .0318166
661.297 .0317939
662.047 .0317700
662.796 .0317450
663.546 .0317187
664.295 .0316913
665.044 .0316627
665.793 .0316330
666.542 .0316024
667.290 .0315709
668.038 .0315387
668.786 .0315059
669.533 .0314726
670.281 .0314387
671.028 .0314045
671.774 .0313701
672.521 .0313355
673.267 .0313009
674.013 .0312664
674.759 .0312321
675.505 .0311982
676.250 .0311647
676.995 .0311317
677.740 .0310993
678.484 .0310675
679.229 .0310361
679.973 .0310053
680.717 .0309750
681.460 .0309450
682.204 .0309154
682.947 .0308861
683.690 .0308570
684.433 .0308282
685.175 .0307995
685.917 .0307710
686.659 .0307427
687.401 .0307145
688.142 .0306864
688.884 .0306584
689.625 .0306304
690.365 .0306023
691.106 .0305743
691.846 .0305462
692.586 .0305182
693.326 .0304902
694.066 .0304623
694.805 .0304347
695.545 .0304074
696.284 .0303804
697.022 .0303539
697.761 .0303279
698.499 .0303025
699.237 .0302775
699.975 .0302531
700.713 .0302292
701.450 .0302059
702.187 .0301831
702.924 .0301608
703.661 .0301392
704.397 .0301181
705.133 .0300976
705.869 .0300778
706.605 .0300586
707.341 .0300401
708.076 .0300221
708.811 .0300047
709.546 .0299877
710.281 .0299712
711.015 .0299551
711.749 .0299393
712.483 .0299240
713.217 .0299092
713.950 .0298948
714.684 .0298809
715.417 .0298675
716.150 .0298547
716.882 .0298423
717.615 .0298302
718.347 .0298186
719.079 .0298072
719.811 .0297961
720.542 .0297853
721.273 .0297747
722.005 .0297645
722.735 .0297545
723.466 .0297449
724.196 .0297356
724.927 .0297266
725.656 .0297179
726.386 .0297094
727.116 .0297010
727.845 .0296929
728.574 .0296849
729.303 .0296770
730.031 .0296693
730.760 .0296617
731.488 .0296542
732.216 .0296468
732.944 .0296395
733.671 .0296323
734.398 .0296252
735.125 .0296181
735.852 .0296112
736.579 .0296044
737.305 .0295978
738.031 .0295914
738.757 .0295851
739.483 .0295789
740.208 .0295729
740.933 .0295669
741.658 .0295609
742.383 .0295549
743.108 .0295489
743.832 .0295428
744.556 .0295366
745.280 .0295302
746.004 .0295234
746.727 .0295163
747.450 .0295086
748.173 .0295003
748.896 .0294913
749.618 .0294816
750.340 .0294711
751.062 .0294599
751.784 .0294477
752.506 .0294348
753.227 .0294209
753.948 .0294061
754.669 .0293904
755.389 .0293738
756.110 .0293562
756.830 .0293377
757.550 .0293184
758.269 .0292982
758.989 .0292772
759.708 .0292554
760.427 .0292330
761.146 .0292100
761.864 .0291864
762.582 .0291624
763.300 .0291379
764.018 .0291132
764.736 .0290882
765.453 .0290632
766.170 .0290382
766.887 .0290133
767.603 .0289886
768.320 .0289641
769.036 .0289399
769.751 .0289160
770.467 .0288925
771.182 .0288693
771.897 .0288466
772.612 .0288243
773.327 .0288026
774.041 .0287815
774.755 .0287609
775.469 .0287409
776.183 .0287215
776.896 .0287027
777.609 .0286844
778.322 .0286666
779.035 .0286493
779.747 .0286325
780.459 .0286162
781.171 .0286003
781.882 .0285847
782.594 .0285695
783.305 .0285545
784.016 .0285398
784.726 .0285253
785.436 .0285109
786.147 .0284895
786.856 .0284752
787.566 .0284609
788.275 .0284467
788.984 .0284324
789.693 .0284181
790.401 .0284037
791.110 .0283891
791.818 .0283745
792.525 .0283598
793.233 .0283451
793.940 .0283304
794.647 .0283229
795.353 .0283083
796.060 .0282937
796.766 .0282792
797.472 .0282646
798.177 .0282501
798.883 .0282355
799.588 .0282210
800.292 .0282065
800.997 .0281920
801.701 .0281777
802.405 .0281635
803.109 .0281493
803.812 .0281352
804.515 .0281212
805.218 .0281072
805.921 .0280933
806.623 .0280795
807.325 .0280658
808.027 .0280523
808.728 .0280390
809.429 .0280259
810.130 .0280131
810.831 .0280006
811.531 .0279883
812.231 .0279765
812.931 .0279650
813.630 .0279540
814.330 .0279436
815.029 .0279337
815.727 .0279246
816.426 .0279162
817.124 .0279086
817.821 .0279018
818.519 .0278960
819.216 .0278910
819.913 .0278869
820.609 .0278838
821.306 .0278817
822.002 .0278806
822.697 .0278805
823.393 .0278814
824.088 .0278833
824.783 .0278862
825.477 .0278901
826.171 .0278947
826.865 .0279001
827.559 .0279060
828.252 .0279126
828.945 .0279195
829.638 .0279269
830.330 .0279346
831.023 .0279426
831.714 .0279508
832.406 .0279590
833.097 .0279674
833.788 .0279757
834.479 .0279840
835.169 .0279921
835.859 .0280002
836.548 .0280080
837.238 .0280158
837.927 .0280234
838.615 .0280308
839.304 .0280381
839.992 .0280451
840.680 .0280517
841.367 .0280580
842.054 .0280638
842.741 .0280692
843.428 .0280741
844.114 .0280785
844.800 .0280824
845.485 .0280857
846.170 .0280885
846.855 .0280908
847.540 .0280923
848.224 .0280932
848.908 .0280933
849.592 .0280925
850.275 .0280909
850.958 .0280884
851.641 .0280851
852.323 .0280808
853.005 .0280756
853.687 .0280696
854.368 .0280627
855.049 .0280548
855.730 .0280461
856.410 .0280365
857.090 .0280260
857.769 .0280146
858.449 .0280023
859.128 .0279892
859.806 .0279753
860.485 .0279607
861.163 .0279454
861.840 .0279295
862.518 .0279131
863.195 .0278964
863.871 .0278792
864.548 .0278618
865.224 .0278443
865.899 .0278265
866.574 .0278087
867.249 .0277908
867.924 .0277728
868.598 .0277548
869.272 .0277367
869.946 .0277186
870.619 .0277004
871.292 .0276821
871.964 .0276637
872.636 .0276454
873.308 .0276270
873.979 .0276088
874.651 .0275907
875.321 .0275728
875.992 .0275552
876.662 .0275378
877.331 .0275208
878.001 .0275040
878.670 .0274875
879.338 .0274711
880.007 .0274551
880.675 .0274392
881.342 .0274237
882.009 .0274085
882.676 .0273938
883.343 .0273795
884.009 .0273656
884.675 .0273522
885.340 .0273393
886.005 .0273268
886.670 .0273146
887.334 .0273028
887.998 .0272913
888.662 .0272801
889.325 .0272690
889.988 .0272581
890.650 .0272474
891.312 .0272368
891.974 .0272262
892.636 .0272154
893.297 .0272044
893.957 .0271931
894.618 .0271813
895.278 .0271690
895.937 .0271560
896.596 .0271423
897.255 .0271278
897.914 .0271124
898.572 .0270961
899.230 .0270787
899.887 .0270603
900.544 .0270407
901.201 .0270200
901.857 .0269840
902.513 .0269604
903.168 .0269358
903.823 .0269103
904.478 .0268838
905.132 .0268566
905.786 .0268285
906.440 .0267998
907.093 .0267704
907.746 .0267405
908.399 .0267101
909.051 .0266794
909.703 .0266484
910.354 .0266332
911.005 .0266025
911.656 .0265719
912.306 .0265415
912.956 .0265114
913.605 .0264816
914.254 .0264523
914.903 .0264235
915.551 .0263952
916.199 .0263674
916.847 .0263402
917.494 .0263136
918.141 .0262874
918.788 .0262618
919.434 .0262367
920.079 .0262120
920.725 .0261876
921.370 .0261636
922.014 .0261397
922.658 .0261162
923.302 .0260927
923.946 .0260695
924.589 .0260464
925.231 .0260235
925.873 .0260006
926.515 .0259778
927.157 .0259551
927.798 .0259325
928.439 .0259101
929.079 .0258879
929.719 .0258660
930.359 .0258445
930.998 .0258235
931.637 .0258030
932.275 .0257832
932.913 .0257641
933.551 .0257458
934.188 .0257282
934.825 .0257116
935.462 .0256959
936.098 .0256812
936.733 .0256676
937.369 .0256551
938.004 .0256438
938.638 .0256335
939.273 .0256244
939.907 .0256164
940.540 .0256094
941.173 .0256035
941.806 .0255987
942.438 .0255949
943.070 .0255922
943.702 .0255904
944.333 .0255896
944.964 .0255897
945.594 .0255906
946.224 .0255921
946.854 .0255943
947.483 .0255970
948.112 .0256002
948.741 .0256038
949.369 .0256078
949.996 .0256121
950.624 .0256166
951.251 .0256212
951.878 .0256260
952.504 .0256308
953.130 .0256355
953.755 .0256403
954.380 .0256452
955.005 .0256501
955.629 .0256550
956.253 .0256601
956.877 .0256653
957.500 .0256706
958.123 .0256760
958.746 .0256815
959.368 .0256870
959.990 .0256927
960.611 .0256986
961.232 .0257046
961.853 .0257108
962.473 .0257173
963.093 .0257239
963.712 .0257307
964.331 .0257376
964.950 .0257446
965.569 .0257515
966.187 .0257584
966.804 .0257652
967.422 .0257718
968.039 .0257785
968.655 .0257850
969.272 .0257914
969.887 .0257978
970.503 .0258041
971.118 .0258103
971.733 .0258164
972.347 .0258225
972.961 .0258285
973.575 .0258346
974.188 .0258406
974.801 .0258466
975.414 .0258526
976.026 .0258585
976.638 .0258643
977.250 .0258699
977.861 .0258754
978.472 .0258805
979.083 .0258853
979.693 .0258899
980.303 .0258940
980.912 .0258991
981.521 .0259025
982.130 .0259056
982.738 .0259084
983.346 .0259110
983.954 .0259133
984.562 .0259154
985.169 .0259175
985.775 .0259196
986.382 .0259218
986.988 .0259242
987.594 .0259269
988.199 .0259299
988.804 .0259333
989.409 .0259357
990.013 .0259396
990.617 .0259438
991.221 .0259482
991.824 .0259528
992.427 .0259575
993.030 .0259623
993.632 .0259671
994.234 .0259720
994.836 .0259768
995.438 .0259816
996.039 .0259863
996.640 .0259909
997.240 .0259954
997.840 .0259998
998.440 .0260041
999.040 .0260084
999.639 .0260126
1000.238 .0260169
1000.836 .0260211
1001.435 .0260254
1002.033 .0260295
1002.630 .0260336
1003.228 .0260374
1003.825 .0260411
1004.422 .0260445
1005.018 .0260477
1005.614 .0260504
1006.210 .0260529
1006.806 .0260549
1007.401 .0260566
1007.996 .0260580
1008.591 .0260590
1009.186 .0260597
1009.780 .0260602
1010.374 .0260606
1010.967 .0260609
1011.561 .0260613
1012.154 .0260617
1012.746 .0260623
1013.339 .0260630
1013.931 .0260639
1014.523 .0260650
1015.115 .0260662
1015.706 .0260675
1016.298 .0260690
1016.888 .0260706
1017.479 .0260724
1018.069 .0260743
1018.660 .0260763
1019.250 .0260784
1019.839 .0260805
1020.429 .0260825
1021.018 .0260843
1021.607 .0260859
1022.195 .0260873
1022.784 .0260884
1023.372 .0260893
1023.960 .0260899
1024.547 .0260904
1025.135 .0260907
1025.722 .0260908
1026.309 .0260908
1026.896 .0260904
1027.483 .0260896
1028.069 .0260884
1028.655 .0260867
1029.241 .0260845
1029.827 .0260817
1030.412 .0260785
1030.997 .0260747
1031.582 .0260705
1032.167 .0260659
1032.752 .0260610
1033.336 .0260556
1033.921 .0260498
1034.505 .0260435
1035.089 .0260367
1035.672 .0260294
1036.256 .0260217
1036.839 .0260136
1037.422 .0260052
1038.005 .0259965
1038.588 .0259875
1039.171 .0259781
1039.753 .0259684
1040.335 .0259583
1040.918 .0259477
1041.500 .0259366
1042.081 .0259249
1042.663 .0259126
1043.244 .0258998
1043.826 .0258865
1044.407 .0258729
1044.988 .0258591
1045.569 .0258450
1046.150 .0258308
1046.730 .0258165
1047.311 .0258021
1047.891 .0257877
1048.471 .0257732
1049.052 .0257587
1049.632 .0257442
1050.211 .0257297
1050.791 .0257153
1051.371 .0257010
1051.950 .0256867
1052.530 .0256725
1053.109 .0256582
1053.688 .0256439
1054.268 .0256295
1054.847 .0256149
1055.426 .0256001
1056.005 .0255852
1056.583 .0255701
1057.162 .0255550
1057.741 .0255398
1058.319 .0255246
1058.898 .0255094
1059.476 .0254941
1060.055 .0254787
1060.633 .0254632
1061.211 .0254477
1061.790 .0254320
1062.368 .0254164
1062.946 .0254008
1063.524 .0253853
1064.102 .0253701
1064.680 .0253551
1065.258 .0253405
1065.836 .0253261
1066.414 .0253118
1066.992 .0252977
1067.570 .0252835
1068.148 .0252695
1068.726 .0252555
1069.304 .0252416
1069.882 .0252280
1070.460 .0252146
1071.038 .0252016
1071.616 .0251889
1072.194 .0251766
1072.772 .0251644
1073.350 .0251524
1073.928 .0251405
1074.506 .0251286
1075.084 .0251168
1075.662 .0251052
1076.240 .0250939
1076.819 .0250831
1077.397 .0250728
1077.976 .0250632
1078.554 .0250544
1079.133 .0250464
1079.711 .0250392
1080.290 .0250328
1080.869 .0250271
1081.448 .0250220
1082.027 .0250175
1082.606 .0250136
1083.185 .0250101
1083.764 .0250072
1084.343 .0250048
1084.923 .0250029
1085.502 .0250015
1086.082 .0250006
1086.662 .0250000
1087.242 .0249999
1087.822 .0250002
1088.402 .0250007
1088.983 .0250014
1089.563 .0250025
1090.144 .0250040
1090.725 .0250060
1091.306 .0250087
1091.887 .0250123
1092.469 .0250167
1093.050 .0250220
1093.632 .0250282
1094.214 .0250352
1094.796 .0250428
1095.379 .0250507
1095.961 .0250588
1096.544 .0250671
1097.127 .0250755
1097.710 .0250842
1098.294 .0250934
1098.877 .0251032
1099.461 .0251139
1100.046 .0251254
1100.630 .0251379
1101.215 .0251512
1101.800 .0251653
1102.385 .0251803
1102.970 .0251961
1103.556 .0252130
1104.142 .0252311
1104.728 .0252507
1105.315 .0252722
1105.902 .0252957
1106.489 .0253212
1107.077 .0253487
1107.664 .0253780
1108.253 .0254088
1108.841 .0254409
1109.430 .0254743
1110.019 .0255087
1110.609 .0255443
1111.198 .0255812
1111.789 .0256195
1112.379 .0256595
1112.970 .0257010
1113.561 .0257439
1114.153 .0257878
1114.745 .0258325
1115.338 .0258775
1115.931 .0259226
1116.524 .0259678
1117.117 .0260132
1117.712 .0260588
1118.306 .0261051
1118.901 .0261521
1119.496 .0261999
1120.092 .0262483
1120.689 .0262970
1121.285 .0263456
1121.882 .0263938
1122.480 .0264413
1123.078 .0264881
1123.677 .0265343
1124.276 .0265800
1124.875 .0266257
1125.476 .0266718
1126.076 .0267188
1126.677 .0267669
1127.279 .0268163
1127.881 .0268671
1128.484 .0269192
1129.087 .0269427
1129.691 .0269961
1130.295 .0270512
1130.900 .0271085
1131.505 .0271684
1132.111 .0272316
1132.718 .0272987
1133.325 .0273699
1133.933 .0274453
1134.541 .0275249
1135.150 .0276126
1135.760 .0277033
1136.370 .0277918
1136.981 .0277138
1137.592 .0278160
1138.204 .0279244
1138.817 .0280373
1139.431 .0281599
1140.045 .0282929
1140.660 .0284365
1141.275 .0285838
1141.891 .0287383
1142.508 .0288920
1143.126 .0291664
1143.744 .0292997
1144.363 .0292919
1144.983 .0295108
