Measurement Sequence started on: 15-12-46-377
Integration time: 28
Scans to Average: 2 
>>>>>Begin Spectral Data<<<<<
432.689 .0000100
433.621 .0000100
434.552 .0000100
435.482 .0000100
436.410 .0000100
437.337 .0000100
438.262 .0271728
439.187 .0575889
440.110 .0953077
441.031 .1377980
441.952 .1093052
442.871 .1140142
443.789 .1183862
444.705 .1224912
445.621 .1263762
446.535 .1300786
447.447 .1321963
448.359 .1325794
449.269 .1308632
450.178 .1268108
451.086 .1205066
451.993 .1124311
452.898 .1033733
453.803 .0942261
454.706 .0857461
455.608 .0783994
456.508 .0723386
457.408 .0682553
458.306 .0651334
459.204 .0626011
460.100 .0604752
460.995 .0586518
461.888 .0570634
462.781 .0556660
463.673 .0544255
464.563 .0533173
465.452 .0523231
466.340 .0514261
467.228 .0506146
468.114 .0498790
468.999 .0492109
469.882 .0486023
470.765 .0480463
471.647 .0475378
472.528 .0470729
473.407 .0466482
474.286 .0462625
475.163 .0459147
476.040 .0456036
476.915 .0453272
477.790 .0450831
478.663 .0448687
479.535 .0446811
480.407 .0445172
481.277 .0443741
482.147 .0442495
483.015 .0441416
483.883 .0440492
484.749 .0439723
485.615 .0439115
486.479 .0438671
487.343 .0438394
488.206 .0438285
489.067 .0438339
489.928 .0438553
490.788 .0438922
491.647 .0439452
492.505 .0440144
493.362 .0441010
494.218 .0442066
495.073 .0443330
495.928 .0446047
496.781 .0447897
497.634 .0449984
498.486 .0452307
499.337 .0454861
500.187 .0457648
501.036 .0460680
501.884 .0463969
502.731 .0467540
503.578 .0471425
504.424 .0474029
505.268 .0478524
506.113 .0483456
506.956 .0488868
507.798 .0494801
508.640 .0501311
509.480 .0508468
510.320 .0516348
511.160 .0525040
511.998 .0534657
512.836 .0545347
513.672 .0557248
514.508 .0570529
515.344 .0585345
516.178 .0601879
517.012 .0620298
517.845 .0640743
518.677 .0663349
519.508 .0688234
520.339 .0715453
521.169 .0745038
521.998 .0776844
522.826 .0810649
523.654 .0846066
524.481 .0882625
525.307 .0919771
526.133 .0956846
526.958 .0993108
527.782 .1027822
528.605 .1060268
529.428 .1089797
530.250 .1115769
531.072 .1137754
531.892 .1155390
532.712 .1168456
533.532 .1176792
534.350 .1180349
535.168 .1179174
535.986 .1173349
536.802 .1162929
537.618 .1148023
538.434 .1128721
539.249 .1105297
540.063 .1078073
540.876 .1047520
541.689 .1014190
542.501 .0978702
543.313 .0941733
544.124 .0904034
544.934 .0866335
545.744 .0829319
546.553 .0793577
547.361 .0759651
548.169 .0727863
548.976 .0698436
549.783 .0671453
550.589 .0646899
551.395 .0624665
552.200 .0604561
553.004 .0586360
553.808 .0569872
554.611 .0554918
555.414 .0541344
556.216 .0528987
557.018 .0517709
557.819 .0507370
558.619 .0497831
559.419 .0488975
560.218 .0480711
561.017 .0472943
561.815 .0465590
562.613 .0458588
563.410 .0451871
564.207 .0445384
565.003 .0439089
565.799 .0432954
566.594 .0426961
567.388 .0421109
568.182 .0415391
568.976 .0409810
569.769 .0404363
570.562 .0399059
571.354 .0393890
572.145 .0388866
572.936 .0383986
573.727 .0379251
574.517 .0374669
575.307 .0370252
576.096 .0366008
576.885 .0361952
577.673 .0358096
578.461 .0354448
579.248 .0351011
580.035 .0347786
580.821 .0344773
581.607 .0341968
582.392 .0339370
583.177 .0336978
583.962 .0334781
584.746 .0332775
585.529 .0330947
586.313 .0329284
587.095 .0327773
587.878 .0326398
588.660 .0325144
589.441 .0323996
590.222 .0322942
591.003 .0321973
591.783 .0321079
592.563 .0320254
593.342 .0319487
594.121 .0318770
594.899 .0318095
595.678 .0317454
596.455 .0316840
597.233 .0316249
598.009 .0315676
598.786 .0315118
599.562 .0314572
600.338 .0314036
601.113 .0313510
601.888 .0312751
602.663 .0312251
603.437 .0311762
604.211 .0311284
604.984 .0310818
605.757 .0310363
606.530 .0309921
607.302 .0309492
608.074 .0309077
608.845 .0308674
609.616 .0308286
610.387 .0308129
611.158 .0307763
611.928 .0307410
612.697 .0307074
613.467 .0306753
614.236 .0306448
615.004 .0306159
615.773 .0305886
616.541 .0305627
617.308 .0305384
618.076 .0305153
618.843 .0304935
619.609 .0304729
620.375 .0304533
621.141 .0304346
621.907 .0304167
622.672 .0303995
623.437 .0303831
624.202 .0303672
624.966 .0303518
625.730 .0303370
626.493 .0303226
627.257 .0303087
628.020 .0302953
628.782 .0302823
629.545 .0302698
630.307 .0302575
631.068 .0302454
631.830 .0302335
632.591 .0302216
633.352 .0302097
634.112 .0301977
634.872 .0301857
635.632 .0301736
636.392 .0301614
637.151 .0301491
637.910 .0301368
638.668 .0301244
639.427 .0301116
640.185 .0300986
640.943 .0300850
641.700 .0300711
642.457 .0300566
643.214 .0300415
643.971 .0300259
644.727 .0300098
645.483 .0299931
646.239 .0299758
646.994 .0299578
647.750 .0299390
648.505 .0299195
649.259 .0298992
650.014 .0298782
650.768 .0298564
651.521 .0298340
652.275 .0298109
653.028 .0297873
653.781 .0297632
654.534 .0297386
655.286 .0297134
656.039 .0296877
656.791 .0296614
657.542 .0296347
658.294 .0296074
659.045 .0295798
659.796 .0295517
660.546 .0295234
661.297 .0294947
662.047 .0294659
662.796 .0294369
663.546 .0294077
664.295 .0293784
665.044 .0293492
665.793 .0293202
666.542 .0292915
667.290 .0292630
668.038 .0292351
668.786 .0292076
669.533 .0291806
670.281 .0291541
671.028 .0291283
671.774 .0291032
672.521 .0290789
673.267 .0290554
674.013 .0290328
674.759 .0290113
675.505 .0289907
676.250 .0289712
676.995 .0289526
677.740 .0289350
678.484 .0289181
679.229 .0289020
679.973 .0288867
680.717 .0288721
681.460 .0288583
682.204 .0288451
682.947 .0288327
683.690 .0288209
684.433 .0288097
685.175 .0287991
685.917 .0287891
686.659 .0287794
687.401 .0287702
688.142 .0287613
688.884 .0287527
689.625 .0287444
690.365 .0287363
691.106 .0287285
691.846 .0287208
692.586 .0287133
693.326 .0287061
694.066 .0286990
694.805 .0286921
695.545 .0286855
696.284 .0286791
697.022 .0286730
697.761 .0286671
698.499 .0286613
699.237 .0286558
699.975 .0286503
700.713 .0286449
701.450 .0286396
702.187 .0286343
702.924 .0286288
703.661 .0286232
704.397 .0286174
705.133 .0286113
705.869 .0286048
706.605 .0285978
707.341 .0285903
708.076 .0285821
708.811 .0285734
709.546 .0285639
710.281 .0285537
711.015 .0285428
711.749 .0285312
712.483 .0285188
713.217 .0285056
713.950 .0284916
714.684 .0284767
715.417 .0284610
716.150 .0284444
716.882 .0284270
717.615 .0284086
718.347 .0283895
719.079 .0283694
719.811 .0283486
720.542 .0283269
721.273 .0283045
722.005 .0282815
722.735 .0282579
723.466 .0282339
724.196 .0282096
724.927 .0281852
725.656 .0281607
726.386 .0281362
727.116 .0281118
727.845 .0280876
728.574 .0280635
729.303 .0280396
730.031 .0280159
730.760 .0279924
731.488 .0279693
732.216 .0279465
732.944 .0279241
733.671 .0279022
734.398 .0278807
735.125 .0278596
735.852 .0278390
736.579 .0278187
737.305 .0277986
738.031 .0277788
738.757 .0277590
739.483 .0277394
740.208 .0277198
740.933 .0277004
741.658 .0276810
742.383 .0276617
743.108 .0276425
743.832 .0276234
744.556 .0276045
745.280 .0275857
746.004 .0275670
746.727 .0275484
747.450 .0275298
748.173 .0275113
748.896 .0274928
749.618 .0274744
750.340 .0274561
751.062 .0274380
751.784 .0274200
752.506 .0274024
753.227 .0273851
753.948 .0273682
754.669 .0273518
755.389 .0273360
756.110 .0273207
756.830 .0273060
757.550 .0272918
758.269 .0272782
758.989 .0272651
759.708 .0272526
760.427 .0272406
761.146 .0272293
761.864 .0272186
762.582 .0272087
763.300 .0271995
764.018 .0271911
764.736 .0271836
765.453 .0271768
766.170 .0271708
766.887 .0271657
767.603 .0271613
768.320 .0271578
769.036 .0271550
769.751 .0271531
770.467 .0271520
771.182 .0271518
771.897 .0271522
772.612 .0271535
773.327 .0271554
774.041 .0271579
774.755 .0271610
775.469 .0271646
776.183 .0271687
776.896 .0271731
777.609 .0271778
778.322 .0271827
779.035 .0271879
779.747 .0271932
780.459 .0271985
781.171 .0272039
781.882 .0272093
782.594 .0272145
783.305 .0272196
784.016 .0272245
784.726 .0272291
785.436 .0272333
786.147 .0272384
786.856 .0272416
787.566 .0272444
788.275 .0272468
788.984 .0272486
789.693 .0272499
790.401 .0272506
791.110 .0272506
791.818 .0272500
792.525 .0272487
793.233 .0272466
793.940 .0272438
794.647 .0272403
795.353 .0272363
796.060 .0272315
796.766 .0272257
797.472 .0272191
798.177 .0272116
798.883 .0272030
799.588 .0271933
800.292 .0271825
800.997 .0271707
801.701 .0271577
802.405 .0271436
803.109 .0271285
803.812 .0271123
804.515 .0270951
805.218 .0270768
805.921 .0270575
806.623 .0270371
807.325 .0270158
808.027 .0269935
808.728 .0269703
809.429 .0269463
810.130 .0269216
810.831 .0268962
811.531 .0268702
812.231 .0268436
812.931 .0268165
813.630 .0267890
814.330 .0267613
815.029 .0267334
815.727 .0267054
816.426 .0266775
817.124 .0266498
817.821 .0266223
818.519 .0265950
819.216 .0265681
819.913 .0265415
820.609 .0265153
821.306 .0264895
822.002 .0264642
822.697 .0264394
823.393 .0264152
824.088 .0263916
824.783 .0263687
825.477 .0263464
826.171 .0263248
826.865 .0263037
827.559 .0262831
828.252 .0262630
828.945 .0262434
829.638 .0262242
830.330 .0262054
831.023 .0261870
831.714 .0261691
832.406 .0261516
833.097 .0261346
833.788 .0261180
834.479 .0261018
835.169 .0260861
835.859 .0260709
836.548 .0260561
837.238 .0260418
837.927 .0260280
838.615 .0260146
839.304 .0260017
839.992 .0259891
840.680 .0259769
841.367 .0259650
842.054 .0259534
842.741 .0259421
843.428 .0259313
844.114 .0259208
844.800 .0259106
845.485 .0259009
846.170 .0258916
846.855 .0258825
847.540 .0258738
848.224 .0258652
848.908 .0258568
849.592 .0258486
850.275 .0258405
850.958 .0258327
851.641 .0258251
852.323 .0258178
853.005 .0258108
853.687 .0258041
854.368 .0257976
855.049 .0257913
855.730 .0257854
856.410 .0257797
857.090 .0257743
857.769 .0257693
858.449 .0257647
859.128 .0257605
859.806 .0257568
860.485 .0257536
861.163 .0257509
861.840 .0257488
862.518 .0257473
863.195 .0257465
863.871 .0257464
864.548 .0257470
865.224 .0257483
865.899 .0257505
866.574 .0257534
867.249 .0257571
867.924 .0257615
868.598 .0257665
869.272 .0257722
869.946 .0257785
870.619 .0257853
871.292 .0257927
871.964 .0258006
872.636 .0258089
873.308 .0258178
873.979 .0258271
874.651 .0258368
875.321 .0258469
875.992 .0258573
876.662 .0258679
877.331 .0258787
878.001 .0258897
878.670 .0259007
879.338 .0259118
880.007 .0259230
880.675 .0259341
881.342 .0259452
882.009 .0259562
882.676 .0259670
883.343 .0259776
884.009 .0259880
884.675 .0259981
885.340 .0260078
886.005 .0260170
886.670 .0260257
887.334 .0260338
887.998 .0260413
888.662 .0260481
889.325 .0260543
889.988 .0260597
890.650 .0260645
891.312 .0260685
891.974 .0260719
892.636 .0260745
893.297 .0260765
893.957 .0260778
894.618 .0260784
895.278 .0260784
895.937 .0260775
896.596 .0260759
897.255 .0260735
897.914 .0260702
898.572 .0260660
899.230 .0260608
899.887 .0260547
900.544 .0260477
901.201 .0260397
901.857 .0260242
902.513 .0260138
903.168 .0260025
903.823 .0259901
904.478 .0259766
905.132 .0259621
905.786 .0259465
906.440 .0259299
907.093 .0259122
907.746 .0258936
908.399 .0258740
909.051 .0258535
909.703 .0258321
910.354 .0258187
911.005 .0257962
911.656 .0257729
912.306 .0257487
912.956 .0257237
913.605 .0256979
914.254 .0256713
914.903 .0256440
915.551 .0256159
916.199 .0255871
916.847 .0255577
917.494 .0255277
918.141 .0254970
918.788 .0254658
919.434 .0254341
920.079 .0254019
920.725 .0253692
921.370 .0253361
922.014 .0253026
922.658 .0252688
923.302 .0252346
923.946 .0252002
924.589 .0251655
925.231 .0251307
925.873 .0250956
926.515 .0250604
927.157 .0250251
927.798 .0249898
928.439 .0249546
929.079 .0249194
929.719 .0248844
930.359 .0248497
930.998 .0248151
931.637 .0247810
932.275 .0247472
932.913 .0247140
933.551 .0246813
934.188 .0246493
934.825 .0246179
935.462 .0245873
936.098 .0245575
936.733 .0245283
937.369 .0245000
938.004 .0244723
938.638 .0244455
939.273 .0244193
939.907 .0243940
940.540 .0243694
941.173 .0243455
941.806 .0243225
942.438 .0243002
943.070 .0242787
943.702 .0242578
944.333 .0242376
944.964 .0242180
945.594 .0241990
946.224 .0241805
946.854 .0241624
947.483 .0241447
948.112 .0241275
948.741 .0241106
949.369 .0240940
949.996 .0240778
950.624 .0240618
951.251 .0240461
951.878 .0240307
952.504 .0240156
953.130 .0240007
953.755 .0239862
954.380 .0239720
955.005 .0239581
955.629 .0239447
956.253 .0239317
956.877 .0239194
957.500 .0239076
958.123 .0238965
958.746 .0238862
959.368 .0238766
959.990 .0238678
960.611 .0238597
961.232 .0238525
961.853 .0238460
962.473 .0238402
963.093 .0238351
963.712 .0238308
964.331 .0238272
964.950 .0238244
965.569 .0238223
966.187 .0238210
966.804 .0238205
967.422 .0238208
968.039 .0238217
968.655 .0238232
969.272 .0238253
969.887 .0238279
970.503 .0238310
971.118 .0238345
971.733 .0238384
972.347 .0238427
972.961 .0238474
973.575 .0238523
974.188 .0238574
974.801 .0238626
975.414 .0238678
976.026 .0238729
976.638 .0238778
977.250 .0238826
977.861 .0238872
978.472 .0238916
979.083 .0238959
979.693 .0239001
980.303 .0239043
980.912 .0239102
981.521 .0239146
982.130 .0239193
982.738 .0239241
983.346 .0239294
983.954 .0239350
984.562 .0239411
985.169 .0239477
985.775 .0239549
986.382 .0239627
986.988 .0239711
987.594 .0239801
988.199 .0239898
988.804 .0240002
989.409 .0240081
990.013 .0240196
990.617 .0240317
991.221 .0240446
991.824 .0240582
992.427 .0240724
993.030 .0240872
993.632 .0241026
994.234 .0241185
994.836 .0241348
995.438 .0241516
996.039 .0241689
996.640 .0241866
997.240 .0242047
997.840 .0242233
998.440 .0242422
999.040 .0242614
999.639 .0242807
1000.238 .0243002
1000.836 .0243196
1001.435 .0243388
1002.033 .0243578
1002.630 .0243766
1003.228 .0243950
1003.825 .0244131
1004.422 .0244309
1005.018 .0244483
1005.614 .0244654
1006.210 .0244822
1006.806 .0244986
1007.401 .0245147
1007.996 .0245304
1008.591 .0245458
1009.186 .0245610
1009.780 .0245761
1010.374 .0245910
1010.967 .0246059
1011.561 .0246208
1012.154 .0246357
1012.746 .0246505
1013.339 .0246653
1013.931 .0246800
1014.523 .0246945
1015.115 .0247090
1015.706 .0247232
1016.298 .0247374
1016.888 .0247514
1017.479 .0247653
1018.069 .0247791
1018.660 .0247927
1019.250 .0248062
1019.839 .0248195
1020.429 .0248326
1021.018 .0248454
1021.607 .0248581
1022.195 .0248705
1022.784 .0248828
1023.372 .0248949
1023.960 .0249067
1024.547 .0249184
1025.135 .0249298
1025.722 .0249410
1026.309 .0249518
1026.896 .0249624
1027.483 .0249725
1028.069 .0249823
1028.655 .0249917
1029.241 .0250007
1029.827 .0250092
1030.412 .0250172
1030.997 .0250247
1031.582 .0250315
1032.167 .0250377
1032.752 .0250432
1033.336 .0250480
1033.921 .0250520
1034.505 .0250552
1035.089 .0250575
1035.672 .0250588
1036.256 .0250591
1036.839 .0250582
1037.422 .0250561
1038.005 .0250528
1038.588 .0250483
1039.171 .0250425
1039.753 .0250355
1040.335 .0250275
1040.918 .0250186
1041.500 .0250089
1042.081 .0249985
1042.663 .0249876
1043.244 .0249762
1043.826 .0249644
1044.407 .0249522
1044.988 .0249396
1045.569 .0249267
1046.150 .0249136
1046.730 .0249003
1047.311 .0248868
1047.891 .0248733
1048.471 .0248598
1049.052 .0248462
1049.632 .0248327
1050.211 .0248190
1050.791 .0248052
1051.371 .0247912
1051.950 .0247769
1052.530 .0247625
1053.109 .0247479
1053.688 .0247334
1054.268 .0247190
1054.847 .0247051
1055.426 .0246916
1056.005 .0246788
1056.583 .0246664
1057.162 .0246545
1057.741 .0246429
1058.319 .0246312
1058.898 .0246194
1059.476 .0246072
1060.055 .0245945
1060.633 .0245812
1061.211 .0245675
1061.790 .0245533
1062.368 .0245385
1062.946 .0245234
1063.524 .0245077
1064.102 .0244914
1064.680 .0244745
1065.258 .0244568
1065.836 .0244383
1066.414 .0244191
1066.992 .0243993
1067.570 .0243791
1068.148 .0243588
1068.726 .0243386
1069.304 .0243186
1069.882 .0242991
1070.460 .0242800
1071.038 .0242613
1071.616 .0242429
1072.194 .0242246
1072.772 .0242063
1073.350 .0241879
1073.928 .0241694
1074.506 .0241509
1075.084 .0241324
1075.662 .0241140
1076.240 .0240959
1076.819 .0240781
1077.397 .0240607
1077.976 .0240438
1078.554 .0240273
1079.133 .0240112
1079.711 .0239956
1080.290 .0239806
1080.869 .0239661
1081.448 .0239523
1082.027 .0239392
1082.606 .0239268
1083.185 .0239152
1083.764 .0239042
1084.343 .0238939
1084.923 .0238841
1085.502 .0238748
1086.082 .0238660
1086.662 .0238577
1087.242 .0238500
1087.822 .0238429
1088.402 .0238365
1088.983 .0238309
1089.563 .0238261
1090.144 .0238223
1090.725 .0238194
1091.306 .0238175
1091.887 .0238166
1092.469 .0238166
1093.050 .0238179
1093.632 .0238204
1094.214 .0238240
1094.796 .0238288
1095.379 .0238345
1095.961 .0238411
1096.544 .0238483
1097.127 .0238561
1097.710 .0238643
1098.294 .0238727
1098.877 .0238815
1099.461 .0238906
1100.046 .0239002
1100.630 .0239105
1101.215 .0239215
1101.800 .0239334
1102.385 .0239461
1102.970 .0239596
1103.556 .0239737
1104.142 .0239886
1104.728 .0240040
1105.315 .0240200
1105.902 .0240365
1106.489 .0240538
1107.077 .0240718
1107.664 .0240909
1108.253 .0241112
1108.841 .0241328
1109.430 .0241558
1110.019 .0241803
1110.609 .0242061
1111.198 .0242335
1111.789 .0242624
1112.379 .0242929
1112.970 .0243251
1113.561 .0243592
1114.153 .0243953
1114.745 .0244336
1115.338 .0244741
1115.931 .0245171
1116.524 .0245624
1117.117 .0246099
1117.712 .0246595
1118.306 .0247109
1118.901 .0247640
1119.496 .0248187
1120.092 .0248747
1120.689 .0249320
1121.285 .0249905
1121.882 .0250502
1122.480 .0251111
1123.078 .0251732
1123.677 .0252367
1124.276 .0253016
1124.875 .0253681
1125.476 .0254362
1126.076 .0255060
1126.677 .0255773
1127.279 .0256500
1127.881 .0257239
1128.484 .0257988
1129.087 .0258339
1129.691 .0259098
1130.295 .0259864
1130.900 .0260636
1131.505 .0261416
1132.111 .0262201
1132.718 .0262989
1133.325 .0263779
1133.933 .0264570
1134.541 .0265405
1135.150 .0266176
1135.760 .0266912
1136.370 .0267680
1136.981 .0269198
1137.592 .0270090
1138.204 .0270982
1138.817 .0271861
1139.431 .0272757
1140.045 .0273592
1140.660 .0274389
1141.275 .0275151
1141.891 .0275928
1142.508 .0277858
1143.126 .0276776
1143.744 .0276487
1144.363 .0278081
1144.983 .0280730
