Measurement Sequence started on: 15-12-46-377
Integration time: 28
Scans to Average: 2 
>>>>>Begin Spectral Data<<<<<
432.689 .0000100
433.621 .0000100
434.552 .0000100
435.482 .0000100
436.410 .0000100
437.337 .0000100
438.262 .0265449
439.187 .0561083
440.110 .0928143
441.031 .1341045
441.952 .1068370
442.871 .1115647
443.789 .1159791
444.705 .1201466
445.621 .1241132
446.535 .1279134
447.447 .1301772
448.359 .1307653
449.269 .1293192
450.178 .1256106
451.086 .1197191
451.993 .1121093
452.898 .1035450
453.803 .0948880
454.706 .0868682
455.608 .0799325
456.508 .0742240
457.408 .0704161
458.306 .0675124
459.204 .0651580
460.100 .0631746
460.995 .0614661
461.888 .0599681
462.781 .0586377
463.673 .0574430
464.563 .0563599
465.452 .0553716
466.340 .0544627
467.228 .0536225
468.114 .0528430
468.999 .0521180
469.882 .0514430
470.765 .0508149
471.647 .0502321
472.528 .0496936
473.407 .0491987
474.286 .0487469
475.163 .0483381
476.040 .0479711
476.915 .0476449
477.790 .0473572
478.663 .0471059
479.535 .0468892
480.407 .0467043
481.277 .0465490
482.147 .0464212
483.015 .0463187
483.883 .0462400
484.749 .0461831
485.615 .0461462
486.479 .0461278
487.343 .0461261
488.206 .0461400
489.067 .0461681
489.928 .0462101
490.788 .0462654
491.647 .0463339
492.505 .0464160
493.362 .0465126
494.218 .0466245
495.073 .0467540
495.928 .0470163
496.781 .0471976
497.634 .0474009
498.486 .0476272
499.337 .0478791
500.187 .0481584
501.036 .0484679
501.884 .0488106
502.731 .0491914
503.578 .0496140
504.424 .0499185
505.268 .0504213
506.113 .0509797
506.956 .0515979
507.798 .0522815
508.640 .0530366
509.480 .0538716
510.320 .0547959
511.160 .0558219
511.998 .0569640
512.836 .0582386
513.672 .0596622
514.508 .0612539
515.344 .0630355
516.178 .0650271
517.012 .0672502
517.845 .0697252
518.677 .0724722
519.508 .0755095
520.339 .0788465
521.169 .0824857
521.998 .0864055
522.826 .0905710
523.654 .0949275
524.481 .0994056
525.307 .1039255
526.133 .1083947
526.958 .1127195
527.782 .1168081
528.605 .1205749
529.428 .1239431
530.250 .1268480
531.072 .1292476
531.892 .1311059
532.712 .1324002
533.532 .1331199
534.350 .1332651
535.168 .1328443
535.986 .1318648
536.802 .1303345
537.618 .1282649
538.434 .1256719
539.249 .1225904
540.063 .1190663
540.876 .1151618
541.689 .1109527
542.501 .1065249
543.313 .1019729
544.124 .0973905
544.934 .0928675
545.744 .0884838
546.553 .0843066
547.361 .0803887
548.169 .0767582
548.976 .0734341
549.783 .0704194
550.589 .0677049
551.395 .0652686
552.200 .0630812
553.004 .0611138
553.808 .0593391
554.611 .0577331
555.414 .0562743
556.216 .0549450
557.018 .0537293
557.819 .0526142
558.619 .0515875
559.419 .0506372
560.218 .0497539
561.017 .0489281
561.815 .0481515
562.613 .0474171
563.410 .0467185
564.207 .0460511
565.003 .0454117
565.799 .0447973
566.594 .0442048
567.388 .0436326
568.182 .0430792
568.976 .0425429
569.769 .0420226
570.562 .0415173
571.354 .0410262
572.145 .0405489
572.936 .0400854
573.727 .0396357
574.517 .0392002
575.307 .0387798
576.096 .0383746
576.885 .0379856
577.673 .0376131
578.461 .0372572
579.248 .0369179
580.035 .0365952
580.821 .0362886
581.607 .0359978
582.392 .0357229
583.177 .0354639
583.962 .0352206
584.746 .0349931
585.529 .0347812
586.313 .0345844
587.095 .0344022
587.878 .0342337
588.660 .0340780
589.441 .0339344
590.222 .0338019
591.003 .0336797
591.783 .0335671
592.563 .0334635
593.342 .0333681
594.121 .0332802
594.899 .0331991
595.678 .0331238
596.455 .0330537
597.233 .0329881
598.009 .0329262
598.786 .0328674
599.562 .0328111
600.338 .0327570
601.113 .0327047
601.888 .0326313
602.663 .0325827
603.437 .0325353
604.211 .0324892
604.984 .0324440
605.757 .0323998
606.530 .0323566
607.302 .0323143
608.074 .0322730
608.845 .0322326
609.616 .0321931
610.387 .0321757
611.158 .0321380
611.928 .0321015
612.697 .0320663
613.467 .0320324
614.236 .0319998
615.004 .0319684
615.773 .0319383
616.541 .0319095
617.308 .0318818
618.076 .0318552
618.843 .0318296
619.609 .0318048
620.375 .0317807
621.141 .0317571
621.907 .0317339
622.672 .0317110
623.437 .0316883
624.202 .0316657
624.966 .0316431
625.730 .0316202
626.493 .0315971
627.257 .0315736
628.020 .0315494
628.782 .0315247
629.545 .0314992
630.307 .0314729
631.068 .0314458
631.830 .0314180
632.591 .0313896
633.352 .0313607
634.112 .0313313
634.872 .0313016
635.632 .0312716
636.392 .0312414
637.151 .0312111
637.910 .0311809
638.668 .0311508
639.427 .0311210
640.185 .0310915
640.943 .0310625
641.700 .0310341
642.457 .0310063
643.214 .0309794
643.971 .0309532
644.727 .0309279
645.483 .0309036
646.239 .0308801
646.994 .0308574
647.750 .0308356
648.505 .0308145
649.259 .0307941
650.014 .0307742
650.768 .0307547
651.521 .0307356
652.275 .0307167
653.028 .0306979
653.781 .0306793
654.534 .0306609
655.286 .0306426
656.039 .0306245
656.791 .0306066
657.542 .0305888
658.294 .0305711
659.045 .0305534
659.796 .0305357
660.546 .0305179
661.297 .0304998
662.047 .0304815
662.796 .0304630
663.546 .0304444
664.295 .0304256
665.044 .0304068
665.793 .0303880
666.542 .0303692
667.290 .0303506
668.038 .0303320
668.786 .0303136
669.533 .0302952
670.281 .0302768
671.028 .0302583
671.774 .0302398
672.521 .0302212
673.267 .0302025
674.013 .0301837
674.759 .0301648
675.505 .0301459
676.250 .0301270
676.995 .0301081
677.740 .0300892
678.484 .0300704
679.229 .0300516
679.973 .0300327
680.717 .0300139
681.460 .0299949
682.204 .0299758
682.947 .0299565
683.690 .0299369
684.433 .0299172
685.175 .0298972
685.917 .0298770
686.659 .0298566
687.401 .0298360
688.142 .0298153
688.884 .0297943
689.625 .0297732
690.365 .0297519
691.106 .0297303
691.846 .0297085
692.586 .0296865
693.326 .0296642
694.066 .0296418
694.805 .0296194
695.545 .0295969
696.284 .0295745
697.022 .0295521
697.761 .0295300
698.499 .0295081
699.237 .0294864
699.975 .0294649
700.713 .0294436
701.450 .0294224
702.187 .0294014
702.924 .0293805
703.661 .0293596
704.397 .0293388
705.133 .0293179
705.869 .0292970
706.605 .0292761
707.341 .0292552
708.076 .0292342
708.811 .0292133
709.546 .0291924
710.281 .0291715
711.015 .0291506
711.749 .0291297
712.483 .0291088
713.217 .0290880
713.950 .0290670
714.684 .0290461
715.417 .0290251
716.150 .0290042
716.882 .0289832
717.615 .0289624
718.347 .0289417
719.079 .0289212
719.811 .0289008
720.542 .0288807
721.273 .0288608
722.005 .0288413
722.735 .0288221
723.466 .0288033
724.196 .0287849
724.927 .0287669
725.656 .0287494
726.386 .0287324
727.116 .0287159
727.845 .0286998
728.574 .0286843
729.303 .0286692
730.031 .0286546
730.760 .0286404
731.488 .0286266
732.216 .0286133
732.944 .0286004
733.671 .0285878
734.398 .0285756
735.125 .0285638
735.852 .0285525
736.579 .0285415
737.305 .0285309
738.031 .0285207
738.757 .0285109
739.483 .0285015
740.208 .0284924
740.933 .0284838
741.658 .0284756
742.383 .0284677
743.108 .0284602
743.832 .0284531
744.556 .0284463
745.280 .0284397
746.004 .0284333
746.727 .0284271
747.450 .0284208
748.173 .0284146
748.896 .0284082
749.618 .0284016
750.340 .0283949
751.062 .0283879
751.784 .0283806
752.506 .0283730
753.227 .0283649
753.948 .0283565
754.669 .0283477
755.389 .0283384
756.110 .0283286
756.830 .0283183
757.550 .0283075
758.269 .0282961
758.989 .0282841
759.708 .0282716
760.427 .0282586
761.146 .0282451
761.864 .0282312
762.582 .0282171
763.300 .0282028
764.018 .0281884
764.736 .0281740
765.453 .0281596
766.170 .0281454
766.887 .0281311
767.603 .0281170
768.320 .0281031
769.036 .0280893
769.751 .0280758
770.467 .0280626
771.182 .0280497
771.897 .0280374
772.612 .0280256
773.327 .0280142
774.041 .0280033
774.755 .0279929
775.469 .0279828
776.183 .0279730
776.896 .0279635
777.609 .0279541
778.322 .0279449
779.035 .0279357
779.747 .0279266
780.459 .0279175
781.171 .0279084
781.882 .0278992
782.594 .0278901
783.305 .0278809
784.016 .0278717
784.726 .0278623
785.436 .0278527
786.147 .0278374
786.856 .0278270
787.566 .0278164
788.275 .0278053
788.984 .0277939
789.693 .0277820
790.401 .0277698
791.110 .0277571
791.818 .0277441
792.525 .0277307
793.233 .0277170
793.940 .0277029
794.647 .0276948
795.353 .0276803
796.060 .0276654
796.766 .0276503
797.472 .0276348
798.177 .0276190
798.883 .0276028
799.588 .0275861
800.292 .0275691
800.997 .0275516
801.701 .0275337
802.405 .0275154
803.109 .0274968
803.812 .0274778
804.515 .0274585
805.218 .0274388
805.921 .0274188
806.623 .0273984
807.325 .0273776
808.027 .0273565
808.728 .0273352
809.429 .0273137
810.130 .0272921
810.831 .0272705
811.531 .0272491
812.231 .0272280
812.931 .0272071
813.630 .0271867
814.330 .0271666
815.029 .0271470
815.727 .0271279
816.426 .0271093
817.124 .0270914
817.821 .0270740
818.519 .0270573
819.216 .0270413
819.913 .0270260
820.609 .0270114
821.306 .0269976
822.002 .0269845
822.697 .0269723
823.393 .0269608
824.088 .0269502
824.783 .0269405
825.477 .0269316
826.171 .0269234
826.865 .0269158
827.559 .0269089
828.252 .0269025
828.945 .0268966
829.638 .0268910
830.330 .0268857
831.023 .0268808
831.714 .0268760
832.406 .0268715
833.097 .0268671
833.788 .0268628
834.479 .0268587
835.169 .0268545
835.859 .0268504
836.548 .0268463
837.238 .0268422
837.927 .0268381
838.615 .0268341
839.304 .0268299
839.992 .0268258
840.680 .0268217
841.367 .0268175
842.054 .0268133
842.741 .0268091
843.428 .0268049
844.114 .0268007
844.800 .0267964
845.485 .0267921
846.170 .0267876
846.855 .0267830
847.540 .0267782
848.224 .0267731
848.908 .0267677
849.592 .0267621
850.275 .0267563
850.958 .0267502
851.641 .0267441
852.323 .0267377
853.005 .0267314
853.687 .0267249
854.368 .0267185
855.049 .0267120
855.730 .0267056
856.410 .0266992
857.090 .0266928
857.769 .0266864
858.449 .0266799
859.128 .0266735
859.806 .0266670
860.485 .0266605
861.163 .0266541
861.840 .0266478
862.518 .0266416
863.195 .0266356
863.871 .0266298
864.548 .0266243
865.224 .0266189
865.899 .0266136
866.574 .0266085
867.249 .0266035
867.924 .0265986
868.598 .0265938
869.272 .0265892
869.946 .0265848
870.619 .0265804
871.292 .0265762
871.964 .0265720
872.636 .0265679
873.308 .0265637
873.979 .0265596
874.651 .0265555
875.321 .0265515
875.992 .0265476
876.662 .0265439
877.331 .0265402
878.001 .0265367
878.670 .0265332
879.338 .0265298
880.007 .0265264
880.675 .0265230
881.342 .0265198
882.009 .0265166
882.676 .0265137
883.343 .0265110
884.009 .0265086
884.675 .0265064
885.340 .0265044
886.005 .0265025
886.670 .0265007
887.334 .0264989
887.998 .0264972
888.662 .0264954
889.325 .0264937
889.988 .0264919
890.650 .0264901
891.312 .0264883
891.974 .0264863
892.636 .0264842
893.297 .0264818
893.957 .0264791
894.618 .0264762
895.278 .0264728
895.937 .0264691
896.596 .0264650
897.255 .0264603
897.914 .0264550
898.572 .0264489
899.230 .0264421
899.887 .0264343
900.544 .0264256
901.201 .0264159
901.857 .0263973
902.513 .0263851
903.168 .0263719
903.823 .0263578
904.478 .0263428
905.132 .0263269
905.786 .0263101
906.440 .0262925
907.093 .0262741
907.746 .0262550
908.399 .0262352
909.051 .0262148
909.703 .0261940
910.354 .0261823
911.005 .0261612
911.656 .0261398
912.306 .0261182
912.956 .0260964
913.605 .0260745
914.254 .0260525
914.903 .0260305
915.551 .0260085
916.199 .0259864
916.847 .0259642
917.494 .0259421
918.141 .0259198
918.788 .0258975
919.434 .0258752
920.079 .0258527
920.725 .0258301
921.370 .0258073
922.014 .0257843
922.658 .0257611
923.302 .0257375
923.946 .0257136
924.589 .0256893
925.231 .0256647
925.873 .0256397
926.515 .0256144
927.157 .0255888
927.798 .0255630
928.439 .0255369
929.079 .0255105
929.719 .0254840
930.359 .0254573
930.998 .0254305
931.637 .0254036
932.275 .0253768
932.913 .0253501
933.551 .0253237
934.188 .0252977
934.825 .0252721
935.462 .0252471
936.098 .0252226
936.733 .0251987
937.369 .0251754
938.004 .0251526
938.638 .0251305
939.273 .0251089
939.907 .0250881
940.540 .0250680
941.173 .0250486
941.806 .0250300
942.438 .0250121
943.070 .0249949
943.702 .0249784
944.333 .0249624
944.964 .0249469
945.594 .0249318
946.224 .0249170
946.854 .0249026
947.483 .0248885
948.112 .0248747
948.741 .0248611
949.369 .0248479
949.996 .0248349
950.624 .0248220
951.251 .0248094
951.878 .0247969
952.504 .0247845
953.130 .0247722
953.755 .0247601
954.380 .0247481
955.005 .0247364
955.629 .0247249
956.253 .0247138
956.877 .0247030
957.500 .0246926
958.123 .0246826
958.746 .0246730
959.368 .0246639
959.990 .0246552
960.611 .0246468
961.232 .0246389
961.853 .0246313
962.473 .0246241
963.093 .0246172
963.712 .0246106
964.331 .0246044
964.950 .0245984
965.569 .0245928
966.187 .0245873
966.804 .0245821
967.422 .0245770
968.039 .0245720
968.655 .0245671
969.272 .0245623
969.887 .0245575
970.503 .0245529
971.118 .0245483
971.733 .0245439
972.347 .0245395
972.961 .0245352
973.575 .0245309
974.188 .0245265
974.801 .0245222
975.414 .0245178
976.026 .0245133
976.638 .0245087
977.250 .0245041
977.861 .0244994
978.472 .0244946
979.083 .0244898
979.693 .0244849
980.303 .0244801
980.912 .0244729
981.521 .0244683
982.130 .0244639
982.738 .0244598
983.346 .0244560
983.954 .0244526
984.562 .0244496
985.169 .0244469
985.775 .0244447
986.382 .0244431
986.988 .0244420
987.594 .0244417
988.199 .0244420
988.804 .0244431
989.409 .0244459
990.013 .0244482
990.617 .0244510
991.221 .0244543
991.824 .0244581
992.427 .0244623
993.030 .0244668
993.632 .0244716
994.234 .0244768
994.836 .0244823
995.438 .0244882
996.039 .0244945
996.640 .0245013
997.240 .0245084
997.840 .0245158
998.440 .0245234
999.040 .0245312
999.639 .0245392
1000.238 .0245473
1000.836 .0245555
1001.435 .0245640
1002.033 .0245727
1002.630 .0245817
1003.228 .0245911
1003.825 .0246006
1004.422 .0246102
1005.018 .0246198
1005.614 .0246293
1006.210 .0246384
1006.806 .0246473
1007.401 .0246560
1007.996 .0246646
1008.591 .0246731
1009.186 .0246819
1009.780 .0246908
1010.374 .0247002
1010.967 .0247098
1011.561 .0247197
1012.154 .0247299
1012.746 .0247403
1013.339 .0247509
1013.931 .0247617
1014.523 .0247728
1015.115 .0247844
1015.706 .0247965
1016.298 .0248092
1016.888 .0248225
1017.479 .0248364
1018.069 .0248508
1018.660 .0248656
1019.250 .0248807
1019.839 .0248960
1020.429 .0249114
1021.018 .0249270
1021.607 .0249427
1022.195 .0249585
1022.784 .0249746
1023.372 .0249910
1023.960 .0250076
1024.547 .0250244
1025.135 .0250414
1025.722 .0250585
1026.309 .0250757
1026.896 .0250928
1027.483 .0251096
1028.069 .0251262
1028.655 .0251425
1029.241 .0251583
1029.827 .0251736
1030.412 .0251885
1030.997 .0252029
1031.582 .0252167
1032.167 .0252300
1032.752 .0252428
1033.336 .0252550
1033.921 .0252665
1034.505 .0252774
1035.089 .0252876
1035.672 .0252970
1036.256 .0253055
1036.839 .0253133
1037.422 .0253202
1038.005 .0253264
1038.588 .0253319
1039.171 .0253366
1039.753 .0253406
1040.335 .0253440
1040.918 .0253465
1041.500 .0253483
1042.081 .0253494
1042.663 .0253497
1043.244 .0253493
1043.826 .0253482
1044.407 .0253467
1044.988 .0253447
1045.569 .0253424
1046.150 .0253399
1046.730 .0253372
1047.311 .0253345
1047.891 .0253316
1048.471 .0253287
1049.052 .0253257
1049.632 .0253227
1050.211 .0253197
1050.791 .0253167
1051.371 .0253137
1051.950 .0253107
1052.530 .0253079
1053.109 .0253051
1053.688 .0253024
1054.268 .0252998
1054.847 .0252973
1055.426 .0252948
1056.005 .0252924
1056.583 .0252900
1057.162 .0252877
1057.741 .0252853
1058.319 .0252828
1058.898 .0252802
1059.476 .0252773
1060.055 .0252739
1060.633 .0252700
1061.211 .0252657
1061.790 .0252609
1062.368 .0252556
1062.946 .0252500
1063.524 .0252440
1064.102 .0252377
1064.680 .0252312
1065.258 .0252243
1065.836 .0252172
1066.414 .0252099
1066.992 .0252022
1067.570 .0251943
1068.148 .0251863
1068.726 .0251784
1069.304 .0251707
1069.882 .0251632
1070.460 .0251561
1071.038 .0251493
1071.616 .0251429
1072.194 .0251367
1072.772 .0251306
1073.350 .0251245
1073.928 .0251182
1074.506 .0251117
1075.084 .0251050
1075.662 .0250983
1076.240 .0250916
1076.819 .0250850
1077.397 .0250788
1077.976 .0250728
1078.554 .0250672
1079.133 .0250620
1079.711 .0250573
1080.290 .0250530
1080.869 .0250491
1081.448 .0250455
1082.027 .0250422
1082.606 .0250391
1083.185 .0250361
1083.764 .0250331
1084.343 .0250301
1084.923 .0250270
1085.502 .0250238
1086.082 .0250205
1086.662 .0250170
1087.242 .0250135
1087.822 .0250099
1088.402 .0250062
1088.983 .0250023
1089.563 .0249984
1090.144 .0249942
1090.725 .0249901
1091.306 .0249860
1091.887 .0249819
1092.469 .0249778
1093.050 .0249741
1093.632 .0249706
1094.214 .0249675
1094.796 .0249648
1095.379 .0249627
1095.961 .0249611
1096.544 .0249601
1097.127 .0249598
1097.710 .0249603
1098.294 .0249617
1098.877 .0249643
1099.461 .0249682
1100.046 .0249737
1100.630 .0249808
1101.215 .0249898
1101.800 .0250006
1102.385 .0250132
1102.970 .0250276
1103.556 .0250436
1104.142 .0250612
1104.728 .0250803
1105.315 .0251010
1105.902 .0251231
1106.489 .0251469
1107.077 .0251722
1107.664 .0251991
1108.253 .0252274
1108.841 .0252570
1109.430 .0252877
1110.019 .0253192
1110.609 .0253516
1111.198 .0253846
1111.789 .0254184
1112.379 .0254529
1112.970 .0254881
1113.561 .0255240
1114.153 .0255604
1114.745 .0255972
1115.338 .0256340
1115.931 .0256702
1116.524 .0257057
1117.117 .0257400
1117.712 .0257731
1118.306 .0258046
1118.901 .0258347
1119.496 .0258634
1120.092 .0258909
1120.689 .0259171
1121.285 .0259424
1121.882 .0259669
1122.480 .0259907
1123.078 .0260143
1123.677 .0260382
1124.276 .0260628
1124.875 .0260887
1125.476 .0261169
1126.076 .0261481
1126.677 .0261825
1127.279 .0262205
1127.881 .0262623
1128.484 .0263079
1129.087 .0263225
1129.691 .0263726
1130.295 .0264261
1130.900 .0264834
1131.505 .0265449
1132.111 .0266111
1132.718 .0266821
1133.325 .0267584
1133.933 .0268409
1134.541 .0269351
1135.150 .0270307
1135.760 .0271224
1136.370 .0272227
1136.981 .0271984
1137.592 .0273257
1138.204 .0274530
1138.817 .0275908
1139.431 .0277437
1140.045 .0279037
1140.660 .0280635
1141.275 .0282290
1141.891 .0284179
1142.508 .0287534
1143.126 .0288018
1143.744 .0287012
1144.363 .0289526
1144.983 .0297517
