Measurement Sequence started on: 15-12-46-377
Integration time: 28
Scans to Average: 2 
>>>>>Begin Spectral Data<<<<<
432.689 .0000100
433.621 .0000100
434.552 .0000100
435.482 .0000100
436.410 .0000100
437.337 .0000100
438.262 .0263384
439.187 .0557165
440.110 .0923177
441.031 .1336082
441.952 .1076578
442.871 .1125162
443.789 .1170455
444.705 .1213119
445.621 .1253614
446.535 .1292300
447.447 .1315562
448.359 .1321999
449.269 .1307970
450.178 .1271131
451.086 .1212209
451.993 .1135755
452.898 .1049323
453.803 .0961497
454.706 .0879573
455.608 .0808108
456.508 .0748644
457.408 .0707998
458.306 .0676400
459.204 .0650422
460.100 .0628336
460.995 .0609194
461.888 .0592359
462.781 .0577401
463.673 .0563984
464.563 .0551886
465.452 .0540921
466.340 .0530947
467.228 .0521857
468.114 .0513571
468.999 .0506014
469.882 .0499125
470.765 .0492854
471.647 .0487164
472.528 .0482017
473.407 .0477376
474.286 .0473200
475.163 .0469456
476.040 .0466107
476.915 .0463120
477.790 .0460464
478.663 .0458124
479.535 .0456080
480.407 .0454316
481.277 .0452817
482.147 .0451568
483.015 .0450552
483.883 .0449750
484.749 .0449141
485.615 .0448715
486.479 .0448459
487.343 .0448365
488.206 .0448433
489.067 .0448674
489.928 .0449098
490.788 .0449721
491.647 .0450556
492.505 .0451616
493.362 .0452907
494.218 .0454436
495.073 .0456207
495.928 .0459819
496.781 .0462252
497.634 .0464944
498.486 .0467899
499.337 .0471124
500.187 .0474633
501.036 .0478440
501.884 .0482568
502.731 .0487036
503.578 .0491873
504.424 .0495006
505.268 .0500481
506.113 .0506404
506.956 .0512810
507.798 .0519740
508.640 .0527258
509.480 .0535446
510.320 .0544410
511.160 .0554276
511.998 .0565205
512.836 .0577365
513.672 .0590921
514.508 .0606060
515.344 .0622971
516.178 .0641845
517.012 .0662873
517.845 .0686242
518.677 .0712148
519.508 .0740748
520.339 .0772141
521.169 .0806390
521.998 .0843297
522.826 .0882565
523.654 .0923684
524.481 .0966019
525.307 .1008843
526.133 .1051326
526.958 .1092594
527.782 .1131810
528.605 .1168198
529.428 .1201050
530.250 .1229692
531.072 .1253691
531.892 .1272624
532.712 .1286206
533.532 .1294238
534.350 .1296643
535.168 .1293436
535.986 .1284689
536.802 .1270490
537.618 .1250988
538.434 .1226331
539.249 .1196922
540.063 .1163225
540.876 .1125886
541.689 .1085632
542.501 .1043260
543.313 .0999610
544.124 .0955563
544.934 .0911910
545.744 .0869360
546.553 .0828515
547.361 .0789933
548.169 .0753911
548.976 .0720729
549.783 .0690510
550.589 .0663281
551.395 .0638938
552.200 .0617281
553.004 .0598027
553.808 .0580906
554.611 .0565633
555.414 .0551950
556.216 .0539600
557.018 .0528373
557.819 .0518074
558.619 .0508557
559.419 .0499702
560.218 .0491418
561.017 .0483606
561.815 .0476203
562.613 .0469144
563.410 .0462366
564.207 .0455812
565.003 .0449443
565.799 .0443219
566.594 .0437117
567.388 .0431124
568.182 .0425236
568.976 .0419461
569.769 .0413810
570.562 .0408295
571.354 .0402934
572.145 .0397750
572.936 .0392756
573.727 .0387960
574.517 .0383374
575.307 .0379003
576.096 .0374839
576.885 .0370886
577.673 .0367143
578.461 .0363610
579.248 .0360288
580.035 .0357177
580.821 .0354274
581.607 .0351577
582.392 .0349080
583.177 .0346774
583.962 .0344649
584.746 .0342690
585.529 .0340878
586.313 .0339197
587.095 .0337634
587.878 .0336177
588.660 .0334817
589.441 .0333549
590.222 .0332370
591.003 .0331277
591.783 .0330267
592.563 .0329337
593.342 .0328481
594.121 .0327694
594.899 .0326968
595.678 .0326292
596.455 .0325660
597.233 .0325065
598.009 .0324502
598.786 .0323966
599.562 .0323456
600.338 .0322969
601.113 .0322504
601.888 .0321879
602.663 .0321464
603.437 .0321069
604.211 .0320693
604.984 .0320334
605.757 .0319989
606.530 .0319653
607.302 .0319326
608.074 .0319006
608.845 .0318690
609.616 .0318379
610.387 .0318237
611.158 .0317934
611.928 .0317637
612.697 .0317347
613.467 .0317066
614.236 .0316792
615.004 .0316527
615.773 .0316269
616.541 .0316017
617.308 .0315769
618.076 .0315525
618.843 .0315284
619.609 .0315045
620.375 .0314808
621.141 .0314573
621.907 .0314339
622.672 .0314106
623.437 .0313874
624.202 .0313642
624.966 .0313410
625.730 .0313178
626.493 .0312945
627.257 .0312711
628.020 .0312475
628.782 .0312235
629.545 .0311991
630.307 .0311741
631.068 .0311484
631.830 .0311222
632.591 .0310953
633.352 .0310679
634.112 .0310402
634.872 .0310123
635.632 .0309844
636.392 .0309565
637.151 .0309287
637.910 .0309010
638.668 .0308733
639.427 .0308456
640.185 .0308180
640.943 .0307903
641.700 .0307627
642.457 .0307352
643.214 .0307079
643.971 .0306809
644.727 .0306543
645.483 .0306281
646.239 .0306023
646.994 .0305769
647.750 .0305520
648.505 .0305274
649.259 .0305031
650.014 .0304791
650.768 .0304554
651.521 .0304317
652.275 .0304082
653.028 .0303848
653.781 .0303613
654.534 .0303379
655.286 .0303146
656.039 .0302914
656.791 .0302682
657.542 .0302451
658.294 .0302221
659.045 .0301991
659.796 .0301761
660.546 .0301532
661.297 .0301302
662.047 .0301074
662.796 .0300847
663.546 .0300622
664.295 .0300399
665.044 .0300180
665.793 .0299966
666.542 .0299758
667.290 .0299555
668.038 .0299357
668.786 .0299166
669.533 .0298979
670.281 .0298797
671.028 .0298620
671.774 .0298447
672.521 .0298278
673.267 .0298114
674.013 .0297956
674.759 .0297803
675.505 .0297657
676.250 .0297516
676.995 .0297381
677.740 .0297252
678.484 .0297125
679.229 .0297002
679.973 .0296880
680.717 .0296759
681.460 .0296638
682.204 .0296517
682.947 .0296396
683.690 .0296274
684.433 .0296150
685.175 .0296026
685.917 .0295900
686.659 .0295772
687.401 .0295641
688.142 .0295506
688.884 .0295368
689.625 .0295226
690.365 .0295079
691.106 .0294927
691.846 .0294771
692.586 .0294610
693.326 .0294444
694.066 .0294275
694.805 .0294102
695.545 .0293927
696.284 .0293749
697.022 .0293570
697.761 .0293389
698.499 .0293207
699.237 .0293024
699.975 .0292838
700.713 .0292651
701.450 .0292462
702.187 .0292271
702.924 .0292077
703.661 .0291882
704.397 .0291686
705.133 .0291487
705.869 .0291286
706.605 .0291084
707.341 .0290879
708.076 .0290673
708.811 .0290465
709.546 .0290255
710.281 .0290044
711.015 .0289832
711.749 .0289618
712.483 .0289403
713.217 .0289186
713.950 .0288967
714.684 .0288747
715.417 .0288525
716.150 .0288302
716.882 .0288077
717.615 .0287851
718.347 .0287624
719.079 .0287396
719.811 .0287169
720.542 .0286942
721.273 .0286717
722.005 .0286492
722.735 .0286269
723.466 .0286049
724.196 .0285830
724.927 .0285615
725.656 .0285401
726.386 .0285191
727.116 .0284985
727.845 .0284782
728.574 .0284583
729.303 .0284389
730.031 .0284200
730.760 .0284016
731.488 .0283836
732.216 .0283662
732.944 .0283492
733.671 .0283326
734.398 .0283166
735.125 .0283009
735.852 .0282857
736.579 .0282709
737.305 .0282566
738.031 .0282426
738.757 .0282292
739.483 .0282162
740.208 .0282037
740.933 .0281916
741.658 .0281800
742.383 .0281687
743.108 .0281577
743.832 .0281470
744.556 .0281365
745.280 .0281262
746.004 .0281160
746.727 .0281058
747.450 .0280957
748.173 .0280856
748.896 .0280756
749.618 .0280657
750.340 .0280558
751.062 .0280461
751.784 .0280364
752.506 .0280267
753.227 .0280171
753.948 .0280076
754.669 .0279980
755.389 .0279885
756.110 .0279790
756.830 .0279695
757.550 .0279600
758.269 .0279505
758.989 .0279410
759.708 .0279314
760.427 .0279217
761.146 .0279120
761.864 .0279022
762.582 .0278923
763.300 .0278824
764.018 .0278726
764.736 .0278629
765.453 .0278533
766.170 .0278439
766.887 .0278347
767.603 .0278257
768.320 .0278169
769.036 .0278083
769.751 .0278000
770.467 .0277919
771.182 .0277842
771.897 .0277769
772.612 .0277700
773.327 .0277635
774.041 .0277574
774.755 .0277517
775.469 .0277463
776.183 .0277413
776.896 .0277366
777.609 .0277322
778.322 .0277282
779.035 .0277245
779.747 .0277211
780.459 .0277179
781.171 .0277150
781.882 .0277122
782.594 .0277096
783.305 .0277070
784.016 .0277043
784.726 .0277015
785.436 .0276985
786.147 .0276930
786.856 .0276893
787.566 .0276855
788.275 .0276813
788.984 .0276768
789.693 .0276719
790.401 .0276666
791.110 .0276607
791.818 .0276545
792.525 .0276477
793.233 .0276405
793.940 .0276328
794.647 .0276277
795.353 .0276194
796.060 .0276108
796.766 .0276017
797.472 .0275922
798.177 .0275822
798.883 .0275717
799.588 .0275606
800.292 .0275491
800.997 .0275371
801.701 .0275247
802.405 .0275119
803.109 .0274987
803.812 .0274851
804.515 .0274710
805.218 .0274565
805.921 .0274415
806.623 .0274259
807.325 .0274099
808.027 .0273934
808.728 .0273764
809.429 .0273591
810.130 .0273413
810.831 .0273231
811.531 .0273045
812.231 .0272856
812.931 .0272663
813.630 .0272468
814.330 .0272269
815.029 .0272069
815.727 .0271868
816.426 .0271667
817.124 .0271466
817.821 .0271265
818.519 .0271066
819.216 .0270868
819.913 .0270671
820.609 .0270476
821.306 .0270284
822.002 .0270095
822.697 .0269909
823.393 .0269727
824.088 .0269549
824.783 .0269375
825.477 .0269205
826.171 .0269039
826.865 .0268875
827.559 .0268716
828.252 .0268559
828.945 .0268405
829.638 .0268253
830.330 .0268104
831.023 .0267957
831.714 .0267812
832.406 .0267668
833.097 .0267525
833.788 .0267384
834.479 .0267243
835.169 .0267103
835.859 .0266964
836.548 .0266825
837.238 .0266686
837.927 .0266547
838.615 .0266407
839.304 .0266266
839.992 .0266124
840.680 .0265981
841.367 .0265837
842.054 .0265691
842.741 .0265546
843.428 .0265400
844.114 .0265253
844.800 .0265106
845.485 .0264958
846.170 .0264809
846.855 .0264659
847.540 .0264507
848.224 .0264353
848.908 .0264197
849.592 .0264038
850.275 .0263878
850.958 .0263715
851.641 .0263551
852.323 .0263385
853.005 .0263218
853.687 .0263050
854.368 .0262882
855.049 .0262714
855.730 .0262545
856.410 .0262376
857.090 .0262208
857.769 .0262040
858.449 .0261872
859.128 .0261705
859.806 .0261539
860.485 .0261375
861.163 .0261214
861.840 .0261056
862.518 .0260903
863.195 .0260755
863.871 .0260613
864.548 .0260476
865.224 .0260345
865.899 .0260220
866.574 .0260100
867.249 .0259984
867.924 .0259874
868.598 .0259768
869.272 .0259667
869.946 .0259573
870.619 .0259484
871.292 .0259402
871.964 .0259326
872.636 .0259257
873.308 .0259194
873.979 .0259138
874.651 .0259088
875.321 .0259045
875.992 .0259009
876.662 .0258980
877.331 .0258958
878.001 .0258943
878.670 .0258934
879.338 .0258931
880.007 .0258933
880.675 .0258941
881.342 .0258955
882.009 .0258975
882.676 .0259001
883.343 .0259035
884.009 .0259076
884.675 .0259124
885.340 .0259178
886.005 .0259238
886.670 .0259301
887.334 .0259368
887.998 .0259438
888.662 .0259511
889.325 .0259587
889.988 .0259666
890.650 .0259748
891.312 .0259832
891.974 .0259918
892.636 .0260005
893.297 .0260091
893.957 .0260175
894.618 .0260257
895.278 .0260335
895.937 .0260408
896.596 .0260476
897.255 .0260539
897.914 .0260595
898.572 .0260643
899.230 .0260684
899.887 .0260716
900.544 .0260740
901.201 .0260755
901.857 .0260739
902.513 .0260733
903.168 .0260719
903.823 .0260698
904.478 .0260669
905.132 .0260634
905.786 .0260592
906.440 .0260544
907.093 .0260489
907.746 .0260427
908.399 .0260361
909.051 .0260289
909.703 .0260213
910.354 .0260171
911.005 .0260094
911.656 .0260014
912.306 .0259933
912.956 .0259851
913.605 .0259768
914.254 .0259684
914.903 .0259600
915.551 .0259516
916.199 .0259432
916.847 .0259347
917.494 .0259262
918.141 .0259177
918.788 .0259091
919.434 .0259005
920.079 .0258916
920.725 .0258827
921.370 .0258734
922.014 .0258639
922.658 .0258541
923.302 .0258439
923.946 .0258333
924.589 .0258222
925.231 .0258106
925.873 .0257985
926.515 .0257860
927.157 .0257730
927.798 .0257596
928.439 .0257458
929.079 .0257316
929.719 .0257172
930.359 .0257026
930.998 .0256877
931.637 .0256727
932.275 .0256577
932.913 .0256426
933.551 .0256276
934.188 .0256128
934.825 .0255982
935.462 .0255840
936.098 .0255700
936.733 .0255564
937.369 .0255430
938.004 .0255300
938.638 .0255172
939.273 .0255048
939.907 .0254927
940.540 .0254808
941.173 .0254694
941.806 .0254583
942.438 .0254475
943.070 .0254369
943.702 .0254266
944.333 .0254162
944.964 .0254058
945.594 .0253952
946.224 .0253842
946.854 .0253730
947.483 .0253613
948.112 .0253493
948.741 .0253369
949.369 .0253241
949.996 .0253108
950.624 .0252971
951.251 .0252829
951.878 .0252680
952.504 .0252525
953.130 .0252363
953.755 .0252195
954.380 .0252022
955.005 .0251845
955.629 .0251664
956.253 .0251479
956.877 .0251293
957.500 .0251103
958.123 .0250912
958.746 .0250718
959.368 .0250522
959.990 .0250326
960.611 .0250129
961.232 .0249934
961.853 .0249742
962.473 .0249552
963.093 .0249365
963.712 .0249181
964.331 .0248999
964.950 .0248819
965.569 .0248641
966.187 .0248463
966.804 .0248285
967.422 .0248108
968.039 .0247932
968.655 .0247755
969.272 .0247579
969.887 .0247403
970.503 .0247227
971.118 .0247048
971.733 .0246868
972.347 .0246686
972.961 .0246501
973.575 .0246314
974.188 .0246124
974.801 .0245933
975.414 .0245741
976.026 .0245547
976.638 .0245352
977.250 .0245155
977.861 .0244956
978.472 .0244754
979.083 .0244551
979.693 .0244344
980.303 .0244136
980.912 .0243821
981.521 .0243611
982.130 .0243400
982.738 .0243189
983.346 .0242978
983.954 .0242768
984.562 .0242559
985.169 .0242352
985.775 .0242146
986.382 .0241944
986.988 .0241746
987.594 .0241553
988.199 .0241364
988.804 .0241181
989.409 .0241101
990.013 .0240926
990.617 .0240756
991.221 .0240590
991.824 .0240430
992.427 .0240273
993.030 .0240121
993.632 .0239974
994.234 .0239830
994.836 .0239692
995.438 .0239557
996.039 .0239427
996.640 .0239301
997.240 .0239180
997.840 .0239064
998.440 .0238953
999.040 .0238849
999.639 .0238750
1000.238 .0238658
1000.836 .0238574
1001.435 .0238495
1002.033 .0238424
1002.630 .0238358
1003.228 .0238297
1003.825 .0238242
1004.422 .0238190
1005.018 .0238143
1005.614 .0238100
1006.210 .0238062
1006.806 .0238029
1007.401 .0238000
1007.996 .0237977
1008.591 .0237958
1009.186 .0237944
1009.780 .0237933
1010.374 .0237926
1010.967 .0237922
1011.561 .0237921
1012.154 .0237923
1012.746 .0237928
1013.339 .0237937
1013.931 .0237950
1014.523 .0237967
1015.115 .0237988
1015.706 .0238012
1016.298 .0238039
1016.888 .0238069
1017.479 .0238102
1018.069 .0238138
1018.660 .0238177
1019.250 .0238218
1019.839 .0238264
1020.429 .0238313
1021.018 .0238367
1021.607 .0238424
1022.195 .0238485
1022.784 .0238550
1023.372 .0238619
1023.960 .0238691
1024.547 .0238765
1025.135 .0238844
1025.722 .0238925
1026.309 .0239008
1026.896 .0239093
1027.483 .0239181
1028.069 .0239270
1028.655 .0239361
1029.241 .0239453
1029.827 .0239546
1030.412 .0239641
1030.997 .0239737
1031.582 .0239835
1032.167 .0239935
1032.752 .0240037
1033.336 .0240140
1033.921 .0240245
1034.505 .0240350
1035.089 .0240455
1035.672 .0240560
1036.256 .0240665
1036.839 .0240769
1037.422 .0240872
1038.005 .0240975
1038.588 .0241078
1039.171 .0241181
1039.753 .0241284
1040.335 .0241386
1040.918 .0241488
1041.500 .0241587
1042.081 .0241686
1042.663 .0241784
1043.244 .0241882
1043.826 .0241981
1044.407 .0242083
1044.988 .0242187
1045.569 .0242295
1046.150 .0242407
1046.730 .0242522
1047.311 .0242639
1047.891 .0242758
1048.471 .0242877
1049.052 .0242996
1049.632 .0243115
1050.211 .0243233
1050.791 .0243353
1051.371 .0243472
1051.950 .0243592
1052.530 .0243713
1053.109 .0243834
1053.688 .0243955
1054.268 .0244076
1054.847 .0244198
1055.426 .0244320
1056.005 .0244443
1056.583 .0244567
1057.162 .0244693
1057.741 .0244823
1058.319 .0244956
1058.898 .0245093
1059.476 .0245235
1060.055 .0245381
1060.633 .0245531
1061.211 .0245683
1061.790 .0245837
1062.368 .0245991
1062.946 .0246143
1063.524 .0246293
1064.102 .0246439
1064.680 .0246581
1065.258 .0246720
1065.836 .0246857
1066.414 .0246992
1066.992 .0247125
1067.570 .0247258
1068.148 .0247389
1068.726 .0247519
1069.304 .0247648
1069.882 .0247774
1070.460 .0247897
1071.038 .0248017
1071.616 .0248135
1072.194 .0248250
1072.772 .0248363
1073.350 .0248476
1073.928 .0248589
1074.506 .0248699
1075.084 .0248807
1075.662 .0248911
1076.240 .0249010
1076.819 .0249102
1077.397 .0249189
1077.976 .0249271
1078.554 .0249349
1079.133 .0249426
1079.711 .0249504
1080.290 .0249586
1080.869 .0249674
1081.448 .0249768
1082.027 .0249870
1082.606 .0249978
1083.185 .0250092
1083.764 .0250211
1084.343 .0250336
1084.923 .0250465
1085.502 .0250599
1086.082 .0250740
1086.662 .0250888
1087.242 .0251044
1087.822 .0251208
1088.402 .0251381
1088.983 .0251561
1089.563 .0251749
1090.144 .0251943
1090.725 .0252143
1091.306 .0252349
1091.887 .0252561
1092.469 .0252779
1093.050 .0253005
1093.632 .0253239
1094.214 .0253480
1094.796 .0253730
1095.379 .0253986
1095.961 .0254248
1096.544 .0254514
1097.127 .0254782
1097.710 .0255050
1098.294 .0255315
1098.877 .0255578
1099.461 .0255836
1100.046 .0256092
1100.630 .0256347
1101.215 .0256601
1101.800 .0256857
1102.385 .0257116
1102.970 .0257377
1103.556 .0257641
1104.142 .0257907
1104.728 .0258174
1105.315 .0258443
1105.902 .0258712
1106.489 .0258982
1107.077 .0259254
1107.664 .0259529
1108.253 .0259810
1108.841 .0260096
1109.430 .0260385
1110.019 .0260675
1110.609 .0260964
1111.198 .0261249
1111.789 .0261530
1112.379 .0261809
1112.970 .0262084
1113.561 .0262361
1114.153 .0262641
1114.745 .0262928
1115.338 .0263225
1115.931 .0263535
1116.524 .0263856
1117.117 .0264189
1117.712 .0264530
1118.306 .0264882
1118.901 .0265243
1119.496 .0265615
1120.092 .0266001
1120.689 .0266401
1121.285 .0266817
1121.882 .0267248
1122.480 .0267695
1123.078 .0268157
1123.677 .0268635
1124.276 .0269130
1124.875 .0269643
1125.476 .0270174
1126.076 .0270730
1126.677 .0271311
1127.279 .0271924
1127.881 .0272570
1128.484 .0273252
1129.087 .0273518
1129.691 .0274252
1130.295 .0275022
1130.900 .0275827
1131.505 .0276669
1132.111 .0277550
1132.718 .0278471
1133.325 .0279438
1133.933 .0280464
1134.541 .0281560
1135.150 .0282689
1135.760 .0283760
1136.370 .0285054
1136.981 .0285378
1137.592 .0286589
1138.204 .0287786
1138.817 .0289081
1139.431 .0290485
1140.045 .0291987
1140.660 .0293548
1141.275 .0295318
1141.891 .0297420
1142.508 .0299833
1143.126 .0301235
1143.744 .0300110
1144.363 .0306940
1144.983 .0314668
