Measurement Sequence started on: 15-12-46-377
Integration time: 28
Scans to Average: 2 
>>>>>Begin Spectral Data<<<<<
432.689 .0000100
433.621 .0000100
434.552 .0000100
435.482 .0000100
436.410 .0000100
437.337 .0000100
438.262 .0253746
439.187 .0536815
440.110 .0889110
441.031 .1286687
441.952 .1033412
442.871 .1079451
443.789 .1122325
444.705 .1162724
445.621 .1201117
446.535 .1237858
447.447 .1259843
448.359 .1265728
449.269 .1252021
450.178 .1216455
451.086 .1159708
451.993 .1086169
452.898 .1003118
453.803 .0918820
454.706 .0840311
455.608 .0771979
456.508 .0715307
457.408 .0676843
458.306 .0647145
459.204 .0622873
460.100 .0602332
460.995 .0584575
461.888 .0568944
462.781 .0555002
463.673 .0542425
464.563 .0530994
465.452 .0520536
466.340 .0510926
467.228 .0502082
468.114 .0493937
468.999 .0486449
469.882 .0479584
470.765 .0473313
471.647 .0467614
472.528 .0462462
473.407 .0457832
474.286 .0453698
475.163 .0450036
476.040 .0446811
476.915 .0443996
477.790 .0441560
478.663 .0439476
479.535 .0437718
480.407 .0436262
481.277 .0435086
482.147 .0434162
483.015 .0433467
483.883 .0432976
484.749 .0432667
485.615 .0432517
486.479 .0432507
487.343 .0432619
488.206 .0432845
489.067 .0433171
489.928 .0433594
490.788 .0434116
491.647 .0434738
492.505 .0435463
493.362 .0436295
494.218 .0437242
495.073 .0438314
495.928 .0440420
496.781 .0441902
497.634 .0443572
498.486 .0445456
499.337 .0447577
500.187 .0449963
501.036 .0452635
501.884 .0455622
502.731 .0458964
503.578 .0462697
504.424 .0465465
505.268 .0469951
506.113 .0474970
506.956 .0480588
507.798 .0486878
508.640 .0493920
509.480 .0501810
510.320 .0510653
511.160 .0520557
511.998 .0531642
512.836 .0544051
513.672 .0557930
514.508 .0573457
515.344 .0590847
516.178 .0610335
517.012 .0632167
517.845 .0656587
518.677 .0683824
519.508 .0714065
520.339 .0747367
521.169 .0783712
521.998 .0822820
522.826 .0864295
523.654 .0907542
524.481 .0951843
525.307 .0996393
526.133 .1040319
526.958 .1082724
527.782 .1122739
528.605 .1159557
529.428 .1192506
530.250 .1220965
531.072 .1244539
531.892 .1262899
532.712 .1275833
533.532 .1283202
534.350 .1284958
535.168 .1281112
535.986 .1271703
536.802 .1256776
537.618 .1236459
538.434 .1210927
539.249 .1180603
540.063 .1145996
540.876 .1107777
541.689 .1066734
542.501 .1023724
543.313 .0979627
544.124 .0935330
544.934 .0891663
545.744 .0849375
546.553 .0809055
547.361 .0771209
548.169 .0736103
548.976 .0703917
549.783 .0674669
550.589 .0648284
551.395 .0624573
552.200 .0603284
553.004 .0584153
553.808 .0566928
554.611 .0551389
555.414 .0537342
556.216 .0524584
557.018 .0512945
557.819 .0502283
558.619 .0492459
559.419 .0483343
560.218 .0474852
561.017 .0466904
561.815 .0459432
562.613 .0452385
563.410 .0445712
564.207 .0439373
565.003 .0433330
565.799 .0427538
566.594 .0421954
567.388 .0416541
568.182 .0411268
568.976 .0406108
569.769 .0401051
570.562 .0396096
571.354 .0391248
572.145 .0386526
572.936 .0381946
573.727 .0377521
574.517 .0373260
575.307 .0369166
576.096 .0365240
576.885 .0361481
577.673 .0357890
578.461 .0354465
579.248 .0351208
580.035 .0348120
580.821 .0345204
581.607 .0342461
582.392 .0339892
583.177 .0337497
583.962 .0335271
584.746 .0333211
585.529 .0331308
586.313 .0329550
587.095 .0327929
587.878 .0326433
588.660 .0325054
589.441 .0323778
590.222 .0322596
591.003 .0321499
591.783 .0320478
592.563 .0319526
593.342 .0318635
594.121 .0317799
594.899 .0317013
595.678 .0316273
596.455 .0315576
597.233 .0314916
598.009 .0314290
598.786 .0313696
599.562 .0313131
600.338 .0312592
601.113 .0312078
601.888 .0311396
602.663 .0310939
603.437 .0310505
604.211 .0310093
604.984 .0309700
605.757 .0309327
606.530 .0308972
607.302 .0308634
608.074 .0308312
608.845 .0308006
609.616 .0307715
610.387 .0307594
611.158 .0307321
611.928 .0307062
612.697 .0306814
613.467 .0306576
614.236 .0306348
615.004 .0306127
615.773 .0305915
616.541 .0305710
617.308 .0305512
618.076 .0305322
618.843 .0305138
619.609 .0304961
620.375 .0304789
621.141 .0304622
621.907 .0304459
622.672 .0304299
623.437 .0304143
624.202 .0303989
624.966 .0303839
625.730 .0303692
626.493 .0303547
627.257 .0303402
628.020 .0303258
628.782 .0303112
629.545 .0302964
630.307 .0302813
631.068 .0302659
631.830 .0302501
632.591 .0302339
633.352 .0302172
634.112 .0302001
634.872 .0301824
635.632 .0301642
636.392 .0301455
637.151 .0301263
637.910 .0301067
638.668 .0300866
639.427 .0300663
640.185 .0300457
640.943 .0300249
641.700 .0300038
642.457 .0299825
643.214 .0299610
643.971 .0299391
644.727 .0299171
645.483 .0298948
646.239 .0298722
646.994 .0298495
647.750 .0298266
648.505 .0298035
649.259 .0297802
650.014 .0297568
650.768 .0297332
651.521 .0297093
652.275 .0296853
653.028 .0296609
653.781 .0296363
654.534 .0296113
655.286 .0295861
656.039 .0295605
656.791 .0295345
657.542 .0295084
658.294 .0294821
659.045 .0294557
659.796 .0294293
660.546 .0294029
661.297 .0293765
662.047 .0293503
662.796 .0293242
663.546 .0292983
664.295 .0292725
665.044 .0292469
665.793 .0292215
666.542 .0291965
667.290 .0291720
668.038 .0291480
668.786 .0291246
669.533 .0291020
670.281 .0290801
671.028 .0290591
671.774 .0290388
672.521 .0290192
673.267 .0290003
674.013 .0289820
674.759 .0289644
675.505 .0289472
676.250 .0289307
676.995 .0289146
677.740 .0288992
678.484 .0288843
679.229 .0288701
679.973 .0288565
680.717 .0288436
681.460 .0288312
682.204 .0288193
682.947 .0288078
683.690 .0287968
684.433 .0287860
685.175 .0287757
685.917 .0287656
686.659 .0287558
687.401 .0287462
688.142 .0287369
688.884 .0287277
689.625 .0287187
690.365 .0287097
691.106 .0287008
691.846 .0286919
692.586 .0286830
693.326 .0286741
694.066 .0286650
694.805 .0286559
695.545 .0286466
696.284 .0286372
697.022 .0286275
697.761 .0286177
698.499 .0286076
699.237 .0285974
699.975 .0285871
700.713 .0285767
701.450 .0285662
702.187 .0285556
702.924 .0285449
703.661 .0285340
704.397 .0285229
705.133 .0285116
705.869 .0284999
706.605 .0284880
707.341 .0284758
708.076 .0284632
708.811 .0284502
709.546 .0284369
710.281 .0284231
711.015 .0284089
711.749 .0283941
712.483 .0283787
713.217 .0283626
713.950 .0283459
714.684 .0283286
715.417 .0283105
716.150 .0282919
716.882 .0282725
717.615 .0282525
718.347 .0282319
719.079 .0282107
719.811 .0281888
720.542 .0281663
721.273 .0281432
722.005 .0281196
722.735 .0280955
723.466 .0280711
724.196 .0280464
724.927 .0280216
725.656 .0279966
726.386 .0279717
727.116 .0279468
727.845 .0279221
728.574 .0278976
729.303 .0278733
730.031 .0278493
730.760 .0278258
731.488 .0278027
732.216 .0277801
732.944 .0277580
733.671 .0277364
734.398 .0277153
735.125 .0276947
735.852 .0276745
736.579 .0276548
737.305 .0276355
738.031 .0276167
738.757 .0275982
739.483 .0275802
740.208 .0275626
740.933 .0275453
741.658 .0275283
742.383 .0275116
743.108 .0274951
743.832 .0274787
744.556 .0274626
745.280 .0274467
746.004 .0274310
746.727 .0274156
747.450 .0274005
748.173 .0273859
748.896 .0273715
749.618 .0273576
750.340 .0273441
751.062 .0273310
751.784 .0273184
752.506 .0273063
753.227 .0272948
753.948 .0272839
754.669 .0272736
755.389 .0272640
756.110 .0272551
756.830 .0272469
757.550 .0272394
758.269 .0272327
758.989 .0272268
759.708 .0272217
760.427 .0272173
761.146 .0272138
761.864 .0272110
762.582 .0272089
763.300 .0272074
764.018 .0272065
764.736 .0272061
765.453 .0272062
766.170 .0272067
766.887 .0272075
767.603 .0272086
768.320 .0272100
769.036 .0272117
769.751 .0272136
770.467 .0272157
771.182 .0272180
771.897 .0272204
772.612 .0272229
773.327 .0272255
774.041 .0272280
774.755 .0272306
775.469 .0272331
776.183 .0272356
776.896 .0272380
777.609 .0272404
778.322 .0272426
779.035 .0272447
779.747 .0272467
780.459 .0272484
781.171 .0272499
781.882 .0272511
782.594 .0272520
783.305 .0272525
784.016 .0272524
784.726 .0272519
785.436 .0272509
786.147 .0272471
786.856 .0272445
787.566 .0272413
788.275 .0272374
788.984 .0272328
789.693 .0272275
790.401 .0272215
791.110 .0272147
791.818 .0272070
792.525 .0271985
793.233 .0271891
793.940 .0271788
794.647 .0271714
795.353 .0271600
796.060 .0271478
796.766 .0271350
797.472 .0271213
798.177 .0271070
798.883 .0270919
799.588 .0270761
800.292 .0270595
800.997 .0270423
801.701 .0270244
802.405 .0270058
803.109 .0269866
803.812 .0269668
804.515 .0269464
805.218 .0269255
805.921 .0269039
806.623 .0268818
807.325 .0268590
808.027 .0268357
808.728 .0268120
809.429 .0267878
810.130 .0267633
810.831 .0267384
811.531 .0267133
812.231 .0266878
812.931 .0266620
813.630 .0266359
814.330 .0266096
815.029 .0265831
815.727 .0265565
816.426 .0265300
817.124 .0265037
817.821 .0264776
818.519 .0264517
819.216 .0264262
819.913 .0264011
820.609 .0263762
821.306 .0263516
822.002 .0263273
822.697 .0263035
823.393 .0262801
824.088 .0262572
824.783 .0262349
825.477 .0262133
826.171 .0261923
826.865 .0261720
827.559 .0261522
828.252 .0261330
828.945 .0261145
829.638 .0260965
830.330 .0260792
831.023 .0260625
831.714 .0260465
832.406 .0260312
833.097 .0260166
833.788 .0260026
834.479 .0259893
835.169 .0259767
835.859 .0259647
836.548 .0259533
837.238 .0259427
837.927 .0259327
838.615 .0259234
839.304 .0259148
839.992 .0259068
840.680 .0258994
841.367 .0258925
842.054 .0258862
842.741 .0258803
843.428 .0258749
844.114 .0258700
844.800 .0258655
845.485 .0258614
846.170 .0258576
846.855 .0258542
847.540 .0258511
848.224 .0258482
848.908 .0258455
849.592 .0258430
850.275 .0258407
850.958 .0258387
851.641 .0258370
852.323 .0258355
853.005 .0258344
853.687 .0258338
854.368 .0258336
855.049 .0258338
855.730 .0258346
856.410 .0258360
857.090 .0258379
857.769 .0258405
858.449 .0258437
859.128 .0258475
859.806 .0258521
860.485 .0258572
861.163 .0258630
861.840 .0258695
862.518 .0258765
863.195 .0258841
863.871 .0258923
864.548 .0259010
865.224 .0259101
865.899 .0259197
866.574 .0259297
867.249 .0259400
867.924 .0259504
868.598 .0259608
869.272 .0259713
869.946 .0259818
870.619 .0259920
871.292 .0260021
871.964 .0260119
872.636 .0260214
873.308 .0260306
873.979 .0260394
874.651 .0260480
875.321 .0260561
875.992 .0260638
876.662 .0260712
877.331 .0260781
878.001 .0260846
878.670 .0260907
879.338 .0260964
880.007 .0261017
880.675 .0261067
881.342 .0261112
882.009 .0261153
882.676 .0261190
883.343 .0261222
884.009 .0261251
884.675 .0261276
885.340 .0261296
886.005 .0261313
886.670 .0261326
887.334 .0261334
887.998 .0261338
888.662 .0261336
889.325 .0261328
889.988 .0261313
890.650 .0261292
891.312 .0261264
891.974 .0261229
892.636 .0261187
893.297 .0261139
893.957 .0261084
894.618 .0261023
895.278 .0260956
895.937 .0260882
896.596 .0260800
897.255 .0260711
897.914 .0260614
898.572 .0260509
899.230 .0260395
899.887 .0260273
900.544 .0260142
901.201 .0260002
901.857 .0259755
902.513 .0259592
903.168 .0259420
903.823 .0259238
904.478 .0259046
905.132 .0258845
905.786 .0258635
906.440 .0258415
907.093 .0258187
907.746 .0257950
908.399 .0257705
909.051 .0257450
909.703 .0257188
910.354 .0257032
911.005 .0256759
911.656 .0256478
912.306 .0256189
912.956 .0255894
913.605 .0255592
914.254 .0255284
914.903 .0254972
915.551 .0254656
916.199 .0254335
916.847 .0254010
917.494 .0253681
918.141 .0253349
918.788 .0253013
919.434 .0252673
920.079 .0252329
920.725 .0251982
921.370 .0251632
922.014 .0251279
922.658 .0250924
923.302 .0250568
923.946 .0250210
924.589 .0249851
925.231 .0249491
925.873 .0249131
926.515 .0248771
927.157 .0248412
927.798 .0248054
928.439 .0247698
929.079 .0247345
929.719 .0246994
930.359 .0246647
930.998 .0246305
931.637 .0245967
932.275 .0245634
932.913 .0245307
933.551 .0244985
934.188 .0244671
934.825 .0244363
935.462 .0244064
936.098 .0243773
936.733 .0243491
937.369 .0243219
938.004 .0242956
938.638 .0242704
939.273 .0242462
939.907 .0242230
940.540 .0242009
941.173 .0241800
941.806 .0241601
942.438 .0241414
943.070 .0241239
943.702 .0241076
944.333 .0240923
944.964 .0240780
945.594 .0240646
946.224 .0240519
946.854 .0240400
947.483 .0240286
948.112 .0240179
948.741 .0240076
949.369 .0239978
949.996 .0239885
950.624 .0239796
951.251 .0239711
951.878 .0239630
952.504 .0239552
953.130 .0239477
953.755 .0239404
954.380 .0239335
955.005 .0239269
955.629 .0239208
956.253 .0239150
956.877 .0239097
957.500 .0239050
958.123 .0239009
958.746 .0238974
959.368 .0238946
959.990 .0238925
960.611 .0238911
961.232 .0238905
961.853 .0238907
962.473 .0238918
963.093 .0238937
963.712 .0238965
964.331 .0239001
964.950 .0239046
965.569 .0239100
966.187 .0239162
966.804 .0239232
967.422 .0239309
968.039 .0239394
968.655 .0239486
969.272 .0239584
969.887 .0239687
970.503 .0239796
971.118 .0239910
971.733 .0240027
972.347 .0240147
972.961 .0240269
973.575 .0240392
974.188 .0240514
974.801 .0240636
975.414 .0240756
976.026 .0240874
976.638 .0240988
977.250 .0241100
977.861 .0241209
978.472 .0241314
979.083 .0241417
979.693 .0241516
980.303 .0241613
980.912 .0241747
981.521 .0241840
982.130 .0241933
982.738 .0242026
983.346 .0242120
983.954 .0242216
984.562 .0242315
985.169 .0242417
985.775 .0242522
986.382 .0242631
986.988 .0242744
987.594 .0242861
988.199 .0242982
988.804 .0243108
989.409 .0243190
990.013 .0243323
990.617 .0243462
991.221 .0243605
991.824 .0243752
992.427 .0243903
993.030 .0244057
993.632 .0244215
994.234 .0244375
994.836 .0244536
995.438 .0244699
996.039 .0244864
996.640 .0245031
997.240 .0245199
997.840 .0245369
998.440 .0245540
999.040 .0245711
999.639 .0245883
1000.238 .0246053
1000.836 .0246221
1001.435 .0246387
1002.033 .0246551
1002.630 .0246711
1003.228 .0246868
1003.825 .0247022
1004.422 .0247172
1005.018 .0247318
1005.614 .0247461
1006.210 .0247600
1006.806 .0247735
1007.401 .0247866
1007.996 .0247992
1008.591 .0248115
1009.186 .0248235
1009.780 .0248350
1010.374 .0248463
1010.967 .0248571
1011.561 .0248676
1012.154 .0248777
1012.746 .0248874
1013.339 .0248966
1013.931 .0249055
1014.523 .0249139
1015.115 .0249218
1015.706 .0249292
1016.298 .0249362
1016.888 .0249426
1017.479 .0249486
1018.069 .0249542
1018.660 .0249593
1019.250 .0249640
1019.839 .0249683
1020.429 .0249722
1021.018 .0249757
1021.607 .0249787
1022.195 .0249813
1022.784 .0249834
1023.372 .0249851
1023.960 .0249863
1024.547 .0249872
1025.135 .0249878
1025.722 .0249880
1026.309 .0249880
1026.896 .0249876
1027.483 .0249869
1028.069 .0249858
1028.655 .0249843
1029.241 .0249824
1029.827 .0249800
1030.412 .0249772
1030.997 .0249739
1031.582 .0249703
1032.167 .0249662
1032.752 .0249617
1033.336 .0249570
1033.921 .0249518
1034.505 .0249461
1035.089 .0249399
1035.672 .0249331
1036.256 .0249255
1036.839 .0249172
1037.422 .0249080
1038.005 .0248981
1038.588 .0248874
1039.171 .0248760
1039.753 .0248639
1040.335 .0248511
1040.918 .0248378
1041.500 .0248239
1042.081 .0248093
1042.663 .0247941
1043.244 .0247782
1043.826 .0247617
1044.407 .0247447
1044.988 .0247273
1045.569 .0247095
1046.150 .0246913
1046.730 .0246731
1047.311 .0246546
1047.891 .0246360
1048.471 .0246172
1049.052 .0245983
1049.632 .0245791
1050.211 .0245596
1050.791 .0245398
1051.371 .0245197
1051.950 .0244994
1052.530 .0244789
1053.109 .0244582
1053.688 .0244375
1054.268 .0244168
1054.847 .0243961
1055.426 .0243756
1056.005 .0243553
1056.583 .0243353
1057.162 .0243157
1057.741 .0242963
1058.319 .0242774
1058.898 .0242588
1059.476 .0242406
1060.055 .0242227
1060.633 .0242051
1061.211 .0241879
1061.790 .0241709
1062.368 .0241543
1062.946 .0241380
1063.524 .0241221
1064.102 .0241064
1064.680 .0240909
1065.258 .0240756
1065.836 .0240604
1066.414 .0240453
1066.992 .0240302
1067.570 .0240153
1068.148 .0240006
1068.726 .0239862
1069.304 .0239723
1069.882 .0239589
1070.460 .0239462
1071.038 .0239341
1071.616 .0239226
1072.194 .0239116
1072.772 .0239010
1073.350 .0238907
1073.928 .0238803
1074.506 .0238700
1075.084 .0238596
1075.662 .0238493
1076.240 .0238390
1076.819 .0238289
1077.397 .0238190
1077.976 .0238094
1078.554 .0238001
1079.133 .0237912
1079.711 .0237825
1080.290 .0237742
1080.869 .0237662
1081.448 .0237585
1082.027 .0237511
1082.606 .0237442
1083.185 .0237378
1083.764 .0237320
1084.343 .0237269
1084.923 .0237225
1085.502 .0237188
1086.082 .0237159
1086.662 .0237134
1087.242 .0237115
1087.822 .0237099
1088.402 .0237085
1088.983 .0237073
1089.563 .0237062
1090.144 .0237053
1090.725 .0237046
1091.306 .0237042
1091.887 .0237044
1092.469 .0237052
1093.050 .0237066
1093.632 .0237088
1094.214 .0237116
1094.796 .0237152
1095.379 .0237193
1095.961 .0237240
1096.544 .0237294
1097.127 .0237355
1097.710 .0237426
1098.294 .0237506
1098.877 .0237599
1099.461 .0237704
1100.046 .0237821
1100.630 .0237951
1101.215 .0238092
1101.800 .0238243
1102.385 .0238402
1102.970 .0238569
1103.556 .0238742
1104.142 .0238923
1104.728 .0239112
1105.315 .0239310
1105.902 .0239518
1106.489 .0239737
1107.077 .0239967
1107.664 .0240211
1108.253 .0240467
1108.841 .0240736
1109.430 .0241018
1110.019 .0241315
1110.609 .0241627
1111.198 .0241956
1111.789 .0242301
1112.379 .0242665
1112.970 .0243047
1113.561 .0243446
1114.153 .0243860
1114.745 .0244288
1115.338 .0244727
1115.931 .0245177
1116.524 .0245636
1117.117 .0246101
1117.712 .0246572
1118.306 .0247048
1118.901 .0247530
1119.496 .0248016
1120.092 .0248509
1120.689 .0249010
1121.285 .0249521
1121.882 .0250045
1122.480 .0250583
1123.078 .0251139
1123.677 .0251714
1124.276 .0252311
1124.875 .0252928
1125.476 .0253567
1126.076 .0254227
1126.677 .0254906
1127.279 .0255603
1127.881 .0256316
1128.484 .0257044
1129.087 .0257370
1129.691 .0258112
1130.295 .0258864
1130.900 .0259626
1131.505 .0260400
1132.111 .0261185
1132.718 .0261980
1133.325 .0262789
1133.933 .0263617
1134.541 .0264486
1135.150 .0265365
1135.760 .0266174
1136.370 .0267122
1136.981 .0268335
1137.592 .0269366
1138.204 .0270365
1138.817 .0271329
1139.431 .0272326
1140.045 .0273310
1140.660 .0274237
1141.275 .0275255
1141.891 .0276395
1142.508 .0278108
1143.126 .0278904
1143.744 .0277463
1144.363 .0281824
1144.983 .0284892
