Measurement Sequence started on: 15-12-46-377
Integration time: 28
Scans to Average: 2 
>>>>>Begin Spectral Data<<<<<
432.689 .0000100
433.621 .0000100
434.552 .0000100
435.482 .0000100
436.410 .0000100
437.337 .0000100
438.262 .0265490
439.187 .0562471
440.110 .0931904
441.031 .1348632
441.952 .1080290
442.871 .1128221
443.789 .1172958
444.705 .1215213
445.621 .1255474
446.535 .1294109
447.447 .1317406
448.359 .1323890
449.269 .1309904
450.178 .1273067
451.086 .1214142
451.993 .1137744
452.898 .1051533
453.803 .0964208
454.706 .0883179
455.608 .0813034
456.508 .0755308
457.408 .0716792
458.306 .0687581
459.204 .0664079
460.100 .0644452
460.995 .0627646
461.888 .0612967
462.781 .0599946
463.673 .0588243
464.563 .0577629
465.452 .0567950
466.340 .0559077
467.228 .0550934
468.114 .0543439
468.999 .0536532
469.882 .0530149
470.765 .0524237
471.647 .0518750
472.528 .0513658
473.407 .0508936
474.286 .0504580
475.163 .0500590
476.040 .0496974
476.915 .0493730
477.790 .0490855
478.663 .0488344
479.535 .0486182
480.407 .0484343
481.277 .0482802
482.147 .0481525
483.015 .0480484
483.883 .0479656
484.749 .0479022
485.615 .0478573
486.479 .0478304
487.343 .0478210
488.206 .0478295
489.067 .0478556
489.928 .0479002
490.788 .0479631
491.647 .0480446
492.505 .0481446
493.362 .0482634
494.218 .0484013
495.073 .0485589
495.928 .0488739
496.781 .0490853
497.634 .0493181
498.486 .0495729
499.337 .0498514
500.187 .0501556
501.036 .0504880
501.884 .0508514
502.731 .0512497
503.578 .0516866
504.424 .0519844
505.268 .0524956
506.113 .0530582
506.956 .0536759
507.798 .0543539
508.640 .0550979
509.480 .0559168
510.320 .0568217
511.160 .0578279
511.998 .0589526
512.836 .0602181
513.672 .0616459
514.508 .0632611
515.344 .0650878
516.178 .0671501
517.012 .0694694
517.845 .0720658
518.677 .0749549
519.508 .0781546
520.339 .0816723
521.169 .0855139
521.998 .0896558
522.826 .0940662
523.654 .0986898
524.481 .1034565
525.307 .1082796
526.133 .1130617
526.958 .1176970
527.782 .1220836
528.605 .1261234
529.428 .1297366
530.250 .1328502
531.072 .1354217
531.892 .1374124
532.712 .1388029
533.532 .1395814
534.350 .1397491
535.168 .1393107
535.986 .1382778
536.802 .1366547
537.618 .1344535
538.434 .1316857
539.249 .1283914
540.063 .1246177
540.876 .1204336
541.689 .1159198
542.501 .1111711
543.313 .1062873
544.124 .1013750
544.934 .0965305
545.744 .0918421
546.553 .0873765
547.361 .0831888
548.169 .0793036
548.976 .0757387
549.783 .0724934
550.589 .0695590
551.395 .0669147
552.200 .0645369
553.004 .0623972
553.808 .0604716
554.611 .0587369
555.414 .0571724
556.216 .0557560
557.018 .0544674
557.819 .0532882
558.619 .0522029
559.419 .0511986
560.218 .0502669
561.017 .0493988
561.815 .0485883
562.613 .0478302
563.410 .0471199
564.207 .0464523
565.003 .0458232
565.799 .0452279
566.594 .0446618
567.388 .0441210
568.182 .0436018
568.976 .0431009
569.769 .0426168
570.562 .0421486
571.354 .0416959
572.145 .0412585
572.936 .0408364
573.727 .0404296
574.517 .0400376
575.307 .0396604
576.096 .0392966
576.885 .0389454
577.673 .0386063
578.461 .0382785
579.248 .0379615
580.035 .0376554
580.821 .0373603
581.607 .0370768
582.392 .0368055
583.177 .0365473
583.962 .0363022
584.746 .0360707
585.529 .0358530
586.313 .0356490
587.095 .0354580
587.878 .0352792
588.660 .0351121
589.441 .0349562
590.222 .0348107
591.003 .0346755
591.783 .0345500
592.563 .0344342
593.342 .0343274
594.121 .0342290
594.899 .0341384
595.678 .0340548
596.455 .0339773
597.233 .0339050
598.009 .0338372
598.786 .0337732
599.562 .0337123
600.338 .0336541
601.113 .0335985
601.888 .0335229
602.663 .0334729
603.437 .0334252
604.211 .0333796
604.984 .0333360
605.757 .0332945
606.530 .0332548
607.302 .0332167
608.074 .0331803
608.845 .0331452
609.616 .0331113
610.387 .0330972
611.158 .0330648
611.928 .0330335
612.697 .0330031
613.467 .0329735
614.236 .0329447
615.004 .0329166
615.773 .0328890
616.541 .0328618
617.308 .0328349
618.076 .0328079
618.843 .0327807
619.609 .0327532
620.375 .0327252
621.141 .0326968
621.907 .0326679
622.672 .0326386
623.437 .0326089
624.202 .0325788
624.966 .0325485
625.730 .0325178
626.493 .0324868
627.257 .0324554
628.020 .0324236
628.782 .0323913
629.545 .0323586
630.307 .0323256
631.068 .0322924
631.830 .0322591
632.591 .0322259
633.352 .0321929
634.112 .0321600
634.872 .0321273
635.632 .0320949
636.392 .0320628
637.151 .0320309
637.910 .0319992
638.668 .0319679
639.427 .0319369
640.185 .0319063
640.943 .0318761
641.700 .0318464
642.457 .0318173
643.214 .0317889
643.971 .0317611
644.727 .0317340
645.483 .0317077
646.239 .0316819
646.994 .0316568
647.750 .0316322
648.505 .0316081
649.259 .0315842
650.014 .0315607
650.768 .0315372
651.521 .0315140
652.275 .0314908
653.028 .0314678
653.781 .0314448
654.534 .0314218
655.286 .0313987
656.039 .0313755
656.791 .0313522
657.542 .0313288
658.294 .0313052
659.045 .0312814
659.796 .0312574
660.546 .0312333
661.297 .0312091
662.047 .0311848
662.796 .0311605
663.546 .0311362
664.295 .0311119
665.044 .0310877
665.793 .0310636
666.542 .0310398
667.290 .0310162
668.038 .0309931
668.786 .0309703
669.533 .0309480
670.281 .0309262
671.028 .0309047
671.774 .0308837
672.521 .0308630
673.267 .0308426
674.013 .0308225
674.759 .0308025
675.505 .0307827
676.250 .0307630
676.995 .0307435
677.740 .0307240
678.484 .0307045
679.229 .0306850
679.973 .0306654
680.717 .0306457
681.460 .0306259
682.204 .0306059
682.947 .0305857
683.690 .0305652
684.433 .0305444
685.175 .0305235
685.917 .0305024
686.659 .0304813
687.401 .0304601
688.142 .0304389
688.884 .0304179
689.625 .0303969
690.365 .0303762
691.106 .0303555
691.846 .0303350
692.586 .0303146
693.326 .0302942
694.066 .0302738
694.805 .0302536
695.545 .0302334
696.284 .0302134
697.022 .0301935
697.761 .0301739
698.499 .0301545
699.237 .0301353
699.975 .0301165
700.713 .0300979
701.450 .0300795
702.187 .0300612
702.924 .0300431
703.661 .0300251
704.397 .0300072
705.133 .0299895
705.869 .0299719
706.605 .0299544
707.341 .0299371
708.076 .0299199
708.811 .0299029
709.546 .0298859
710.281 .0298690
711.015 .0298520
711.749 .0298350
712.483 .0298178
713.217 .0298004
713.950 .0297828
714.684 .0297649
715.417 .0297469
716.150 .0297285
716.882 .0297100
717.615 .0296914
718.347 .0296727
719.079 .0296539
719.811 .0296351
720.542 .0296161
721.273 .0295971
722.005 .0295780
722.735 .0295587
723.466 .0295394
724.196 .0295202
724.927 .0295010
725.656 .0294821
726.386 .0294635
727.116 .0294453
727.845 .0294277
728.574 .0294106
729.303 .0293941
730.031 .0293780
730.760 .0293624
731.488 .0293472
732.216 .0293324
732.944 .0293180
733.671 .0293040
734.398 .0292904
735.125 .0292772
735.852 .0292642
736.579 .0292515
737.305 .0292389
738.031 .0292265
738.757 .0292141
739.483 .0292018
740.208 .0291895
740.933 .0291770
741.658 .0291645
742.383 .0291519
743.108 .0291390
743.832 .0291260
744.556 .0291127
745.280 .0290993
746.004 .0290856
746.727 .0290717
747.450 .0290576
748.173 .0290435
748.896 .0290292
749.618 .0290147
750.340 .0290002
751.062 .0289855
751.784 .0289708
752.506 .0289561
753.227 .0289413
753.948 .0289266
754.669 .0289120
755.389 .0288974
756.110 .0288828
756.830 .0288682
757.550 .0288535
758.269 .0288388
758.989 .0288239
759.708 .0288088
760.427 .0287937
761.146 .0287785
761.864 .0287634
762.582 .0287483
763.300 .0287333
764.018 .0287184
764.736 .0287036
765.453 .0286888
766.170 .0286740
766.887 .0286592
767.603 .0286445
768.320 .0286300
769.036 .0286156
769.751 .0286015
770.467 .0285878
771.182 .0285746
771.897 .0285620
772.612 .0285498
773.327 .0285382
774.041 .0285270
774.755 .0285162
775.469 .0285058
776.183 .0284958
776.896 .0284861
777.609 .0284767
778.322 .0284676
779.035 .0284589
779.747 .0284505
780.459 .0284424
781.171 .0284348
781.882 .0284274
782.594 .0284203
783.305 .0284134
784.016 .0284066
784.726 .0283998
785.436 .0283929
786.147 .0283819
786.856 .0283745
787.566 .0283668
788.275 .0283590
788.984 .0283509
789.693 .0283427
790.401 .0283344
791.110 .0283260
791.818 .0283176
792.525 .0283091
793.233 .0283005
793.940 .0282919
794.647 .0282871
795.353 .0282784
796.060 .0282697
796.766 .0282609
797.472 .0282521
798.177 .0282432
798.883 .0282343
799.588 .0282254
800.292 .0282165
800.997 .0282077
801.701 .0281988
802.405 .0281899
803.109 .0281809
803.812 .0281718
804.515 .0281624
805.218 .0281527
805.921 .0281428
806.623 .0281327
807.325 .0281222
808.027 .0281116
808.728 .0281007
809.429 .0280897
810.130 .0280784
810.831 .0280669
811.531 .0280553
812.231 .0280434
812.931 .0280313
813.630 .0280192
814.330 .0280069
815.029 .0279946
815.727 .0279824
816.426 .0279703
817.124 .0279583
817.821 .0279465
818.519 .0279350
819.216 .0279238
819.913 .0279129
820.609 .0279025
821.306 .0278926
822.002 .0278832
822.697 .0278744
823.393 .0278661
824.088 .0278585
824.783 .0278513
825.477 .0278445
826.171 .0278381
826.865 .0278320
827.559 .0278262
828.252 .0278205
828.945 .0278150
829.638 .0278096
830.330 .0278043
831.023 .0277990
831.714 .0277938
832.406 .0277885
833.097 .0277830
833.788 .0277774
834.479 .0277714
835.169 .0277653
835.859 .0277588
836.548 .0277520
837.238 .0277450
837.927 .0277377
838.615 .0277302
839.304 .0277224
839.992 .0277143
840.680 .0277058
841.367 .0276971
842.054 .0276880
842.741 .0276787
843.428 .0276691
844.114 .0276592
844.800 .0276492
845.485 .0276390
846.170 .0276286
846.855 .0276180
847.540 .0276071
848.224 .0275958
848.908 .0275842
849.592 .0275722
850.275 .0275598
850.958 .0275469
851.641 .0275338
852.323 .0275202
853.005 .0275064
853.687 .0274922
854.368 .0274778
855.049 .0274630
855.730 .0274480
856.410 .0274326
857.090 .0274170
857.769 .0274012
858.449 .0273852
859.128 .0273692
859.806 .0273531
860.485 .0273371
861.163 .0273211
861.840 .0273053
862.518 .0272897
863.195 .0272742
863.871 .0272588
864.548 .0272436
865.224 .0272285
865.899 .0272135
866.574 .0271985
867.249 .0271835
867.924 .0271686
868.598 .0271537
869.272 .0271387
869.946 .0271236
870.619 .0271084
871.292 .0270932
871.964 .0270778
872.636 .0270623
873.308 .0270467
873.979 .0270311
874.651 .0270154
875.321 .0269996
875.992 .0269838
876.662 .0269680
877.331 .0269521
878.001 .0269362
878.670 .0269203
879.338 .0269044
880.007 .0268886
880.675 .0268731
881.342 .0268579
882.009 .0268431
882.676 .0268287
883.343 .0268147
884.009 .0268012
884.675 .0267882
885.340 .0267757
886.005 .0267636
886.670 .0267521
887.334 .0267412
887.998 .0267309
888.662 .0267213
889.325 .0267123
889.988 .0267039
890.650 .0266961
891.312 .0266889
891.974 .0266820
892.636 .0266755
893.297 .0266693
893.957 .0266633
894.618 .0266574
895.278 .0266516
895.937 .0266458
896.596 .0266400
897.255 .0266340
897.914 .0266278
898.572 .0266213
899.230 .0266144
899.887 .0266072
900.544 .0265995
901.201 .0265914
901.857 .0265769
902.513 .0265675
903.168 .0265577
903.823 .0265474
904.478 .0265365
905.132 .0265252
905.786 .0265133
906.440 .0265010
907.093 .0264882
907.746 .0264750
908.399 .0264615
909.051 .0264479
909.703 .0264341
910.354 .0264270
911.005 .0264134
911.656 .0263999
912.306 .0263865
912.956 .0263732
913.605 .0263601
914.254 .0263471
914.903 .0263344
915.551 .0263218
916.199 .0263094
916.847 .0262973
917.494 .0262854
918.141 .0262737
918.788 .0262623
919.434 .0262511
920.079 .0262399
920.725 .0262289
921.370 .0262178
922.014 .0262067
922.658 .0261955
923.302 .0261842
923.946 .0261728
924.589 .0261613
925.231 .0261496
925.873 .0261378
926.515 .0261259
927.157 .0261138
927.798 .0261016
928.439 .0260892
929.079 .0260768
929.719 .0260643
930.359 .0260518
930.998 .0260395
931.637 .0260273
932.275 .0260154
932.913 .0260038
933.551 .0259926
934.188 .0259819
934.825 .0259716
935.462 .0259619
936.098 .0259528
936.733 .0259443
937.369 .0259365
938.004 .0259294
938.638 .0259230
939.273 .0259174
939.907 .0259125
940.540 .0259082
941.173 .0259046
941.806 .0259015
942.438 .0258990
943.070 .0258968
943.702 .0258950
944.333 .0258935
944.964 .0258922
945.594 .0258910
946.224 .0258898
946.854 .0258886
947.483 .0258873
948.112 .0258858
948.741 .0258840
949.369 .0258820
949.996 .0258796
950.624 .0258767
951.251 .0258735
951.878 .0258698
952.504 .0258657
953.130 .0258612
953.755 .0258563
954.380 .0258511
955.005 .0258456
955.629 .0258398
956.253 .0258337
956.877 .0258275
957.500 .0258210
958.123 .0258145
958.746 .0258078
959.368 .0258012
959.990 .0257946
960.611 .0257882
961.232 .0257821
961.853 .0257762
962.473 .0257706
963.093 .0257653
963.712 .0257604
964.331 .0257558
964.950 .0257514
965.569 .0257474
966.187 .0257437
966.804 .0257402
967.422 .0257369
968.039 .0257338
968.655 .0257308
969.272 .0257278
969.887 .0257247
970.503 .0257215
971.118 .0257181
971.733 .0257144
972.347 .0257105
972.961 .0257063
973.575 .0257018
974.188 .0256968
974.801 .0256915
975.414 .0256857
976.026 .0256793
976.638 .0256724
977.250 .0256648
977.861 .0256567
978.472 .0256480
979.083 .0256388
979.693 .0256291
980.303 .0256189
980.912 .0256019
981.521 .0255911
982.130 .0255800
982.738 .0255687
983.346 .0255571
983.954 .0255455
984.562 .0255339
985.169 .0255223
985.775 .0255110
986.382 .0255001
986.988 .0254895
987.594 .0254793
988.199 .0254695
988.804 .0254603
989.409 .0254577
990.013 .0254492
990.617 .0254412
991.221 .0254337
991.824 .0254267
992.427 .0254202
993.030 .0254141
993.632 .0254086
994.234 .0254036
994.836 .0253990
995.438 .0253948
996.039 .0253909
996.640 .0253874
997.240 .0253841
997.840 .0253811
998.440 .0253783
999.040 .0253757
999.639 .0253731
1000.238 .0253707
1000.836 .0253683
1001.435 .0253659
1002.033 .0253635
1002.630 .0253609
1003.228 .0253581
1003.825 .0253551
1004.422 .0253517
1005.018 .0253479
1005.614 .0253436
1006.210 .0253389
1006.806 .0253336
1007.401 .0253278
1007.996 .0253217
1008.591 .0253152
1009.186 .0253084
1009.780 .0253015
1010.374 .0252945
1010.967 .0252874
1011.561 .0252804
1012.154 .0252735
1012.746 .0252667
1013.339 .0252600
1013.931 .0252535
1014.523 .0252472
1015.115 .0252413
1015.706 .0252357
1016.298 .0252304
1016.888 .0252255
1017.479 .0252210
1018.069 .0252168
1018.660 .0252128
1019.250 .0252092
1019.839 .0252058
1020.429 .0252026
1021.018 .0251996
1021.607 .0251968
1022.195 .0251943
1022.784 .0251919
1023.372 .0251898
1023.960 .0251879
1024.547 .0251861
1025.135 .0251845
1025.722 .0251831
1026.309 .0251818
1026.896 .0251806
1027.483 .0251796
1028.069 .0251786
1028.655 .0251776
1029.241 .0251766
1029.827 .0251755
1030.412 .0251742
1030.997 .0251727
1031.582 .0251709
1032.167 .0251688
1032.752 .0251665
1033.336 .0251639
1033.921 .0251610
1034.505 .0251579
1035.089 .0251546
1035.672 .0251509
1036.256 .0251469
1036.839 .0251426
1037.422 .0251379
1038.005 .0251330
1038.588 .0251278
1039.171 .0251225
1039.753 .0251173
1040.335 .0251121
1040.918 .0251071
1041.500 .0251023
1042.081 .0250976
1042.663 .0250929
1043.244 .0250883
1043.826 .0250836
1044.407 .0250789
1044.988 .0250740
1045.569 .0250691
1046.150 .0250642
1046.730 .0250592
1047.311 .0250542
1047.891 .0250491
1048.471 .0250440
1049.052 .0250387
1049.632 .0250334
1050.211 .0250279
1050.791 .0250224
1051.371 .0250168
1051.950 .0250113
1052.530 .0250059
1053.109 .0250007
1053.688 .0249957
1054.268 .0249910
1054.847 .0249867
1055.426 .0249826
1056.005 .0249788
1056.583 .0249752
1057.162 .0249720
1057.741 .0249689
1058.319 .0249661
1058.898 .0249635
1059.476 .0249611
1060.055 .0249592
1060.633 .0249575
1061.211 .0249563
1061.790 .0249554
1062.368 .0249551
1062.946 .0249551
1063.524 .0249556
1064.102 .0249566
1064.680 .0249580
1065.258 .0249597
1065.836 .0249617
1066.414 .0249640
1066.992 .0249664
1067.570 .0249689
1068.148 .0249714
1068.726 .0249738
1069.304 .0249761
1069.882 .0249783
1070.460 .0249803
1071.038 .0249822
1071.616 .0249838
1072.194 .0249851
1072.772 .0249862
1073.350 .0249869
1073.928 .0249872
1074.506 .0249873
1075.084 .0249872
1075.662 .0249869
1076.240 .0249866
1076.819 .0249864
1077.397 .0249865
1077.976 .0249867
1078.554 .0249873
1079.133 .0249883
1079.711 .0249897
1080.290 .0249917
1080.869 .0249941
1081.448 .0249972
1082.027 .0250009
1082.606 .0250054
1083.185 .0250106
1083.764 .0250169
1084.343 .0250240
1084.923 .0250322
1085.502 .0250413
1086.082 .0250514
1086.662 .0250623
1087.242 .0250741
1087.822 .0250866
1088.402 .0250998
1088.983 .0251137
1089.563 .0251282
1090.144 .0251434
1090.725 .0251594
1091.306 .0251761
1091.887 .0251936
1092.469 .0252117
1093.050 .0252305
1093.632 .0252498
1094.214 .0252696
1094.796 .0252900
1095.379 .0253110
1095.961 .0253325
1096.544 .0253547
1097.127 .0253777
1097.710 .0254017
1098.294 .0254267
1098.877 .0254524
1099.461 .0254789
1100.046 .0255059
1100.630 .0255333
1101.215 .0255610
1101.800 .0255891
1102.385 .0256176
1102.970 .0256467
1103.556 .0256765
1104.142 .0257072
1104.728 .0257387
1105.315 .0257711
1105.902 .0258042
1106.489 .0258379
1107.077 .0258719
1107.664 .0259064
1108.253 .0259414
1108.841 .0259769
1109.430 .0260133
1110.019 .0260506
1110.609 .0260890
1111.198 .0261285
1111.789 .0261692
1112.379 .0262110
1112.970 .0262538
1113.561 .0262973
1114.153 .0263415
1114.745 .0263865
1115.338 .0264323
1115.931 .0264793
1116.524 .0265277
1117.117 .0265777
1117.712 .0266295
1118.306 .0266827
1118.901 .0267372
1119.496 .0267928
1120.092 .0268489
1120.689 .0269056
1121.285 .0269626
1121.882 .0270202
1122.480 .0270785
1123.078 .0271379
1123.677 .0271987
1124.276 .0272611
1124.875 .0273249
1125.476 .0273900
1126.076 .0274559
1126.677 .0275225
1127.279 .0275895
1127.881 .0276571
1128.484 .0277256
1129.087 .0277605
1129.691 .0278306
1130.295 .0279029
1130.900 .0279777
1131.505 .0280557
1132.111 .0281366
1132.718 .0282204
1133.325 .0283074
1133.933 .0283986
1134.541 .0284896
1135.150 .0285747
1135.760 .0286687
1136.370 .0287899
1136.981 .0286708
1137.592 .0287748
1138.204 .0288996
1138.817 .0290374
1139.431 .0291908
1140.045 .0293438
1140.660 .0295007
1141.275 .0296742
1141.891 .0298768
1142.508 .0299613
1143.126 .0298814
1143.744 .0302120
1144.363 .0310477
1144.983 .0317875
