Measurement Sequence started on: 15-12-46-377
Integration time: 28
Scans to Average: 2 
>>>>>Begin Spectral Data<<<<<
432.689 .0000100
433.621 .0000100
434.552 .0000100
435.482 .0000100
436.410 .0000100
437.337 .0000100
438.262 .0280122
439.187 .0593242
440.110 .0981628
441.031 .1419517
441.952 .1136836
442.871 .1187341
443.789 .1234363
444.705 .1278610
445.621 .1320590
446.535 .1360686
447.447 .1384441
448.359 .1390320
449.269 .1374540
450.178 .1334622
451.086 .1271378
451.993 .1189673
452.898 .1097576
453.803 .1004221
454.706 .0917370
455.608 .0841828
456.508 .0779201
457.408 .0736683
458.306 .0703865
459.204 .0676999
460.100 .0654257
460.995 .0634608
461.888 .0617371
462.781 .0602069
463.673 .0588350
464.563 .0575963
465.452 .0564729
466.340 .0554500
467.228 .0545168
468.114 .0536643
468.999 .0528844
469.882 .0521699
470.765 .0515150
471.647 .0509152
472.528 .0503671
473.407 .0498673
474.286 .0494135
475.163 .0490040
476.040 .0486361
476.915 .0483075
477.790 .0480161
478.663 .0477593
479.535 .0475349
480.407 .0473403
481.277 .0471735
482.147 .0470325
483.015 .0469157
483.883 .0468219
484.749 .0467497
485.615 .0466979
486.479 .0466651
487.343 .0466500
488.206 .0466518
489.067 .0466697
489.928 .0467037
490.788 .0467541
491.647 .0468218
492.505 .0469078
493.362 .0470131
494.218 .0471383
495.073 .0472841
495.928 .0475747
496.781 .0477691
497.634 .0479818
498.486 .0482125
499.337 .0484623
500.187 .0487320
501.036 .0490243
501.884 .0493419
502.731 .0496889
503.578 .0500687
504.424 .0503245
505.268 .0507660
506.113 .0512495
506.956 .0517783
507.798 .0523571
508.640 .0529917
509.480 .0536907
510.320 .0544647
511.160 .0553259
511.998 .0562898
512.836 .0573762
513.672 .0586065
514.508 .0600027
515.344 .0615875
516.178 .0633833
517.012 .0654109
517.845 .0676893
518.677 .0702339
519.508 .0730603
520.339 .0761785
521.169 .0795960
521.998 .0832962
522.826 .0872553
523.654 .0914313
524.481 .0957681
525.307 .1001956
526.133 .1046285
526.958 .1089729
527.782 .1131340
528.605 .1170210
529.428 .1205550
530.250 .1236623
531.072 .1262944
531.892 .1284106
532.712 .1299875
533.532 .1310105
534.350 .1314748
535.168 .1313855
535.986 .1307513
536.802 .1295766
537.618 .1278675
538.434 .1256300
539.249 .1228956
540.063 .1197025
540.876 .1161043
541.689 .1121681
542.501 .1079732
543.313 .1036092
544.124 .0991696
544.934 .0947446
545.744 .0904182
546.553 .0862589
547.361 .0823253
548.169 .0786488
548.976 .0752521
549.783 .0721398
550.589 .0693072
551.395 .0667395
552.200 .0644141
553.004 .0623066
553.808 .0603949
554.611 .0586605
555.414 .0570863
556.216 .0556540
557.018 .0543455
557.819 .0531454
558.619 .0520390
559.419 .0510127
560.218 .0500554
561.017 .0491582
561.815 .0483150
562.613 .0475206
563.410 .0467701
564.207 .0460595
565.003 .0453855
565.799 .0447443
566.594 .0441318
567.388 .0435451
568.182 .0429812
568.976 .0424376
569.769 .0419125
570.562 .0414050
571.354 .0409144
572.145 .0404409
572.936 .0399846
573.727 .0395457
574.517 .0391244
575.307 .0387205
576.096 .0383330
576.885 .0379616
577.673 .0376056
578.461 .0372641
579.248 .0369365
580.035 .0366226
580.821 .0363222
581.607 .0360352
582.392 .0357616
583.177 .0355019
583.962 .0352562
584.746 .0350246
585.529 .0348070
586.313 .0346030
587.095 .0344123
587.878 .0342344
588.660 .0340688
589.441 .0339150
590.222 .0337723
591.003 .0336403
591.783 .0335184
592.563 .0334059
593.342 .0333024
594.121 .0332072
594.899 .0331201
595.678 .0330402
596.455 .0329667
597.233 .0328990
598.009 .0328363
598.786 .0327779
599.562 .0327232
600.338 .0326715
601.113 .0326224
601.888 .0325553
602.663 .0325111
603.437 .0324687
604.211 .0324279
604.984 .0323886
605.757 .0323506
606.530 .0323139
607.302 .0322783
608.074 .0322438
608.845 .0322105
609.616 .0321783
610.387 .0321652
611.158 .0321349
611.928 .0321058
612.697 .0320778
613.467 .0320510
614.236 .0320255
615.004 .0320010
615.773 .0319776
616.541 .0319552
617.308 .0319335
618.076 .0319124
618.843 .0318919
619.609 .0318717
620.375 .0318518
621.141 .0318320
621.907 .0318121
622.672 .0317920
623.437 .0317717
624.202 .0317510
624.966 .0317298
625.730 .0317081
626.493 .0316855
627.257 .0316621
628.020 .0316378
628.782 .0316125
629.545 .0315864
630.307 .0315594
631.068 .0315317
631.830 .0315033
632.591 .0314744
633.352 .0314451
634.112 .0314155
634.872 .0313858
635.632 .0313560
636.392 .0313262
637.151 .0312964
637.910 .0312668
638.668 .0312373
639.427 .0312080
640.185 .0311789
640.943 .0311502
641.700 .0311218
642.457 .0310937
643.214 .0310660
643.971 .0310388
644.727 .0310121
645.483 .0309859
646.239 .0309601
646.994 .0309348
647.750 .0309099
648.505 .0308853
649.259 .0308611
650.014 .0308370
650.768 .0308132
651.521 .0307896
652.275 .0307661
653.028 .0307427
653.781 .0307195
654.534 .0306965
655.286 .0306735
656.039 .0306507
656.791 .0306280
657.542 .0306054
658.294 .0305828
659.045 .0305604
659.796 .0305382
660.546 .0305161
661.297 .0304941
662.047 .0304724
662.796 .0304508
663.546 .0304292
664.295 .0304078
665.044 .0303863
665.793 .0303649
666.542 .0303435
667.290 .0303222
668.038 .0303008
668.786 .0302795
669.533 .0302582
670.281 .0302369
671.028 .0302156
671.774 .0301942
672.521 .0301730
673.267 .0301519
674.013 .0301309
674.759 .0301102
675.505 .0300899
676.250 .0300700
676.995 .0300506
677.740 .0300318
678.484 .0300136
679.229 .0299959
679.973 .0299789
680.717 .0299625
681.460 .0299467
682.204 .0299315
682.947 .0299169
683.690 .0299026
684.433 .0298887
685.175 .0298751
685.917 .0298616
686.659 .0298483
687.401 .0298350
688.142 .0298217
688.884 .0298084
689.625 .0297949
690.365 .0297813
691.106 .0297676
691.846 .0297537
692.586 .0297395
693.326 .0297250
694.066 .0297102
694.805 .0296951
695.545 .0296796
696.284 .0296639
697.022 .0296480
697.761 .0296318
698.499 .0296155
699.237 .0295990
699.975 .0295825
700.713 .0295659
701.450 .0295492
702.187 .0295324
702.924 .0295156
703.661 .0294987
704.397 .0294818
705.133 .0294649
705.869 .0294480
706.605 .0294312
707.341 .0294144
708.076 .0293976
708.811 .0293808
709.546 .0293640
710.281 .0293471
711.015 .0293301
711.749 .0293128
712.483 .0292953
713.217 .0292775
713.950 .0292594
714.684 .0292408
715.417 .0292220
716.150 .0292028
716.882 .0291832
717.615 .0291634
718.347 .0291433
719.079 .0291229
719.811 .0291024
720.542 .0290817
721.273 .0290609
722.005 .0290399
722.735 .0290187
723.466 .0289974
724.196 .0289759
724.927 .0289545
725.656 .0289330
726.386 .0289117
727.116 .0288906
727.845 .0288699
728.574 .0288495
729.303 .0288294
730.031 .0288098
730.760 .0287905
731.488 .0287717
732.216 .0287532
732.944 .0287352
733.671 .0287175
734.398 .0287003
735.125 .0286835
735.852 .0286673
736.579 .0286516
737.305 .0286364
738.031 .0286216
738.757 .0286074
739.483 .0285937
740.208 .0285803
740.933 .0285672
741.658 .0285545
742.383 .0285419
743.108 .0285293
743.832 .0285168
744.556 .0285042
745.280 .0284915
746.004 .0284787
746.727 .0284658
747.450 .0284527
748.173 .0284395
748.896 .0284261
749.618 .0284127
750.340 .0283992
751.062 .0283856
751.784 .0283719
752.506 .0283581
753.227 .0283442
753.948 .0283301
754.669 .0283159
755.389 .0283017
756.110 .0282873
756.830 .0282728
757.550 .0282582
758.269 .0282437
758.989 .0282293
759.708 .0282151
760.427 .0282010
761.146 .0281872
761.864 .0281736
762.582 .0281603
763.300 .0281472
764.018 .0281342
764.736 .0281216
765.453 .0281091
766.170 .0280970
766.887 .0280852
767.603 .0280739
768.320 .0280631
769.036 .0280527
769.751 .0280430
770.467 .0280338
771.182 .0280251
771.897 .0280170
772.612 .0280095
773.327 .0280025
774.041 .0279962
774.755 .0279904
775.469 .0279852
776.183 .0279806
776.896 .0279764
777.609 .0279727
778.322 .0279694
779.035 .0279665
779.747 .0279640
780.459 .0279618
781.171 .0279600
781.882 .0279586
782.594 .0279574
783.305 .0279565
784.016 .0279556
784.726 .0279548
785.436 .0279539
786.147 .0279519
786.856 .0279503
787.566 .0279486
788.275 .0279466
788.984 .0279444
789.693 .0279419
790.401 .0279392
791.110 .0279361
791.818 .0279327
792.525 .0279288
793.233 .0279246
793.940 .0279200
794.647 .0279166
795.353 .0279114
796.060 .0279058
796.766 .0278998
797.472 .0278934
798.177 .0278865
798.883 .0278792
799.588 .0278713
800.292 .0278629
800.997 .0278541
801.701 .0278448
802.405 .0278351
803.109 .0278249
803.812 .0278144
804.515 .0278035
805.218 .0277922
805.921 .0277805
806.623 .0277683
807.325 .0277557
808.027 .0277428
808.728 .0277295
809.429 .0277160
810.130 .0277021
810.831 .0276881
811.531 .0276739
812.231 .0276596
812.931 .0276452
813.630 .0276306
814.330 .0276160
815.029 .0276014
815.727 .0275869
816.426 .0275724
817.124 .0275581
817.821 .0275441
818.519 .0275302
819.216 .0275166
819.913 .0275032
820.609 .0274900
821.306 .0274770
822.002 .0274643
822.697 .0274518
823.393 .0274396
824.088 .0274276
824.783 .0274159
825.477 .0274044
826.171 .0273930
826.865 .0273817
827.559 .0273705
828.252 .0273592
828.945 .0273479
829.638 .0273366
830.330 .0273252
831.023 .0273138
831.714 .0273024
832.406 .0272908
833.097 .0272792
833.788 .0272675
834.479 .0272556
835.169 .0272436
835.859 .0272315
836.548 .0272192
837.238 .0272068
837.927 .0271944
838.615 .0271818
839.304 .0271690
839.992 .0271561
840.680 .0271430
841.367 .0271296
842.054 .0271160
842.741 .0271022
843.428 .0270882
844.114 .0270739
844.800 .0270595
845.485 .0270449
846.170 .0270300
846.855 .0270149
847.540 .0269994
848.224 .0269836
848.908 .0269673
849.592 .0269507
850.275 .0269336
850.958 .0269162
851.641 .0268985
852.323 .0268804
853.005 .0268621
853.687 .0268434
854.368 .0268244
855.049 .0268052
855.730 .0267857
856.410 .0267660
857.090 .0267463
857.769 .0267264
858.449 .0267066
859.128 .0266868
859.806 .0266669
860.485 .0266472
861.163 .0266274
861.840 .0266078
862.518 .0265883
863.195 .0265690
863.871 .0265499
864.548 .0265312
865.224 .0265129
865.899 .0264951
866.574 .0264776
867.249 .0264607
867.924 .0264441
868.598 .0264281
869.272 .0264125
869.946 .0263974
870.619 .0263828
871.292 .0263688
871.964 .0263554
872.636 .0263427
873.308 .0263305
873.979 .0263191
874.651 .0263083
875.321 .0262981
875.992 .0262886
876.662 .0262797
877.331 .0262715
878.001 .0262639
878.670 .0262569
879.338 .0262505
880.007 .0262448
880.675 .0262398
881.342 .0262354
882.009 .0262318
882.676 .0262288
883.343 .0262264
884.009 .0262247
884.675 .0262236
885.340 .0262230
886.005 .0262230
886.670 .0262236
887.334 .0262247
887.998 .0262264
888.662 .0262286
889.325 .0262314
889.988 .0262347
890.650 .0262384
891.312 .0262426
891.974 .0262471
892.636 .0262519
893.297 .0262568
893.957 .0262620
894.618 .0262673
895.278 .0262726
895.937 .0262779
896.596 .0262832
897.255 .0262883
897.914 .0262931
898.572 .0262975
899.230 .0263015
899.887 .0263050
900.544 .0263079
901.201 .0263100
901.857 .0263097
902.513 .0263098
903.168 .0263091
903.823 .0263077
904.478 .0263055
905.132 .0263026
905.786 .0262990
906.440 .0262947
907.093 .0262898
907.746 .0262845
908.399 .0262786
909.051 .0262724
909.703 .0262658
910.354 .0262621
911.005 .0262554
911.656 .0262485
912.306 .0262415
912.956 .0262345
913.605 .0262275
914.254 .0262206
914.903 .0262137
915.551 .0262069
916.199 .0262002
916.847 .0261935
917.494 .0261868
918.141 .0261802
918.788 .0261735
919.434 .0261668
920.079 .0261600
920.725 .0261532
921.370 .0261461
922.014 .0261388
922.658 .0261313
923.302 .0261234
923.946 .0261152
924.589 .0261066
925.231 .0260977
925.873 .0260885
926.515 .0260789
927.157 .0260691
927.798 .0260591
928.439 .0260490
929.079 .0260386
929.719 .0260282
930.359 .0260176
930.998 .0260069
931.637 .0259961
932.275 .0259852
932.913 .0259744
933.551 .0259637
934.188 .0259532
934.825 .0259431
935.462 .0259333
936.098 .0259239
936.733 .0259148
937.369 .0259061
938.004 .0258977
938.638 .0258896
939.273 .0258817
939.907 .0258741
940.540 .0258667
941.173 .0258596
941.806 .0258528
942.438 .0258463
943.070 .0258401
943.702 .0258341
944.333 .0258281
944.964 .0258222
945.594 .0258161
946.224 .0258099
946.854 .0258034
947.483 .0257966
948.112 .0257895
948.741 .0257822
949.369 .0257747
949.996 .0257670
950.624 .0257590
951.251 .0257508
951.878 .0257422
952.504 .0257333
953.130 .0257241
953.755 .0257146
954.380 .0257048
955.005 .0256949
955.629 .0256848
956.253 .0256746
956.877 .0256642
957.500 .0256538
958.123 .0256432
958.746 .0256324
959.368 .0256215
959.990 .0256104
960.611 .0255992
961.232 .0255879
961.853 .0255766
962.473 .0255652
963.093 .0255539
963.712 .0255425
964.331 .0255311
964.950 .0255196
965.569 .0255079
966.187 .0254960
966.804 .0254839
967.422 .0254714
968.039 .0254586
968.655 .0254455
969.272 .0254320
969.887 .0254183
970.503 .0254044
971.118 .0253902
971.733 .0253757
972.347 .0253610
972.961 .0253460
973.575 .0253306
974.188 .0253149
974.801 .0252987
975.414 .0252820
976.026 .0252648
976.638 .0252472
977.250 .0252290
977.861 .0252103
978.472 .0251912
979.083 .0251715
979.693 .0251515
980.303 .0251310
980.912 .0250985
981.521 .0250770
982.130 .0250552
982.738 .0250331
983.346 .0250108
983.954 .0249886
984.562 .0249664
985.169 .0249444
985.775 .0249228
986.382 .0249016
986.988 .0248809
987.594 .0248607
988.199 .0248411
988.804 .0248219
989.409 .0248144
990.013 .0247961
990.617 .0247782
991.221 .0247609
991.824 .0247440
992.427 .0247276
993.030 .0247118
993.632 .0246964
994.234 .0246815
994.836 .0246670
995.438 .0246529
996.039 .0246391
996.640 .0246256
997.240 .0246125
997.840 .0245997
998.440 .0245875
999.040 .0245757
999.639 .0245646
1000.238 .0245540
1000.836 .0245439
1001.435 .0245343
1002.033 .0245251
1002.630 .0245162
1003.228 .0245075
1003.825 .0244989
1004.422 .0244903
1005.018 .0244818
1005.614 .0244733
1006.210 .0244650
1006.806 .0244569
1007.401 .0244490
1007.996 .0244413
1008.591 .0244337
1009.186 .0244263
1009.780 .0244190
1010.374 .0244119
1010.967 .0244049
1011.561 .0243981
1012.154 .0243916
1012.746 .0243855
1013.339 .0243798
1013.931 .0243747
1014.523 .0243700
1015.115 .0243658
1015.706 .0243619
1016.298 .0243583
1016.888 .0243550
1017.479 .0243520
1018.069 .0243494
1018.660 .0243470
1019.250 .0243449
1019.839 .0243433
1020.429 .0243421
1021.018 .0243412
1021.607 .0243407
1022.195 .0243406
1022.784 .0243408
1023.372 .0243413
1023.960 .0243421
1024.547 .0243433
1025.135 .0243449
1025.722 .0243470
1026.309 .0243496
1026.896 .0243527
1027.483 .0243562
1028.069 .0243600
1028.655 .0243642
1029.241 .0243687
1029.827 .0243734
1030.412 .0243784
1030.997 .0243836
1031.582 .0243890
1032.167 .0243947
1032.752 .0244006
1033.336 .0244067
1033.921 .0244129
1034.505 .0244192
1035.089 .0244256
1035.672 .0244321
1036.256 .0244386
1036.839 .0244452
1037.422 .0244518
1038.005 .0244585
1038.588 .0244651
1039.171 .0244719
1039.753 .0244787
1040.335 .0244855
1040.918 .0244924
1041.500 .0244992
1042.081 .0245061
1042.663 .0245131
1043.244 .0245201
1043.826 .0245273
1044.407 .0245344
1044.988 .0245417
1045.569 .0245489
1046.150 .0245561
1046.730 .0245633
1047.311 .0245703
1047.891 .0245772
1048.471 .0245839
1049.052 .0245905
1049.632 .0245969
1050.211 .0246032
1050.791 .0246094
1051.371 .0246155
1051.950 .0246214
1052.530 .0246270
1053.109 .0246324
1053.688 .0246374
1054.268 .0246422
1054.847 .0246466
1055.426 .0246507
1056.005 .0246546
1056.583 .0246584
1057.162 .0246621
1057.741 .0246659
1058.319 .0246698
1058.898 .0246738
1059.476 .0246779
1060.055 .0246823
1060.633 .0246869
1061.211 .0246916
1061.790 .0246966
1062.368 .0247019
1062.946 .0247076
1063.524 .0247136
1064.102 .0247202
1064.680 .0247272
1065.258 .0247348
1065.836 .0247429
1066.414 .0247515
1066.992 .0247604
1067.570 .0247697
1068.148 .0247792
1068.726 .0247891
1069.304 .0247992
1069.882 .0248097
1070.460 .0248208
1071.038 .0248326
1071.616 .0248451
1072.194 .0248584
1072.772 .0248725
1073.350 .0248873
1073.928 .0249027
1074.506 .0249184
1075.084 .0249345
1075.662 .0249508
1076.240 .0249672
1076.819 .0249840
1077.397 .0250011
1077.976 .0250188
1078.554 .0250369
1079.133 .0250555
1079.711 .0250745
1080.290 .0250938
1080.869 .0251131
1081.448 .0251325
1082.027 .0251519
1082.606 .0251711
1083.185 .0251903
1083.764 .0252094
1084.343 .0252287
1084.923 .0252481
1085.502 .0252679
1086.082 .0252878
1086.662 .0253079
1087.242 .0253282
1087.822 .0253486
1088.402 .0253691
1088.983 .0253899
1089.563 .0254109
1090.144 .0254323
1090.725 .0254541
1091.306 .0254763
1091.887 .0254989
1092.469 .0255220
1093.050 .0255454
1093.632 .0255690
1094.214 .0255929
1094.796 .0256169
1095.379 .0256410
1095.961 .0256654
1096.544 .0256901
1097.127 .0257151
1097.710 .0257406
1098.294 .0257663
1098.877 .0257924
1099.461 .0258187
1100.046 .0258452
1100.630 .0258720
1101.215 .0258991
1101.800 .0259266
1102.385 .0259546
1102.970 .0259832
1103.556 .0260126
1104.142 .0260427
1104.728 .0260735
1105.315 .0261048
1105.902 .0261363
1106.489 .0261679
1107.077 .0261993
1107.664 .0262304
1108.253 .0262613
1108.841 .0262922
1109.430 .0263231
1110.019 .0263543
1110.609 .0263860
1111.198 .0264184
1111.789 .0264518
1112.379 .0264862
1112.970 .0265216
1113.561 .0265580
1114.153 .0265956
1114.745 .0266344
1115.338 .0266745
1115.931 .0267157
1116.524 .0267583
1117.117 .0268022
1117.712 .0268476
1118.306 .0268945
1118.901 .0269429
1119.496 .0269927
1120.092 .0270439
1120.689 .0270963
1121.285 .0271496
1121.882 .0272037
1122.480 .0272586
1123.078 .0273142
1123.677 .0273706
1124.276 .0274279
1124.875 .0274866
1125.476 .0275469
1126.076 .0276092
1126.677 .0276736
1127.279 .0277405
1127.881 .0278094
1128.484 .0278803
1129.087 .0279131
1129.691 .0279858
1130.295 .0280598
1130.900 .0281348
1131.505 .0282107
1132.111 .0282872
1132.718 .0283643
1133.325 .0284424
1133.933 .0285214
1134.541 .0286010
1135.150 .0286807
1135.760 .0287612
1136.370 .0288466
1136.981 .0289564
1137.592 .0290616
1138.204 .0291601
1138.817 .0292547
1139.431 .0293436
1140.045 .0294267
1140.660 .0295078
1141.275 .0295933
1141.891 .0296770
1142.508 .0297558
1143.126 .0298189
1143.744 .0299060
1144.363 .0301119
1144.983 .0300653
