Measurement Sequence started on: 15-12-46-377
Integration time: 28
Scans to Average: 2 
>>>>>Begin Spectral Data<<<<<
432.689 .0000100
433.621 .0000100
434.552 .0000100
435.482 .0000100
436.410 .0000100
437.337 .0000100
438.262 .0290590
439.187 .0614410
440.110 .1017306
441.031 .1471398
441.952 .1173574
442.871 .1224814
443.789 .1272416
444.705 .1317147
445.621 .1359521
446.535 .1399919
447.447 .1423332
448.359 .1428223
449.269 .1410621
450.178 .1367995
451.086 .1301189
451.993 .1215313
452.898 .1118770
453.803 .1021083
454.706 .0930340
455.608 .0851549
456.508 .0786378
457.408 .0742285
458.306 .0708402
459.204 .0680871
460.100 .0657714
460.995 .0637838
461.888 .0620495
462.781 .0605199
463.673 .0591595
464.563 .0579429
465.452 .0568506
466.340 .0558664
467.228 .0549767
468.114 .0541718
468.999 .0534420
469.882 .0527792
470.765 .0521752
471.647 .0516236
472.528 .0511187
473.407 .0506561
474.286 .0502325
475.163 .0498465
476.040 .0494956
476.915 .0491799
477.790 .0488975
478.663 .0486477
479.535 .0484294
480.407 .0482408
481.277 .0480801
482.147 .0479449
483.015 .0478322
483.883 .0477390
484.749 .0476623
485.615 .0476000
486.479 .0475505
487.343 .0475127
488.206 .0474868
489.067 .0474725
489.928 .0474705
490.788 .0474816
491.647 .0475061
492.505 .0475448
493.362 .0475980
494.218 .0476665
495.073 .0477510
495.928 .0479398
496.781 .0480741
497.634 .0482302
498.486 .0484101
499.337 .0486166
500.187 .0488532
501.036 .0491234
501.884 .0494313
502.731 .0497823
503.578 .0501811
504.424 .0504873
505.268 .0509749
506.113 .0515236
506.956 .0521364
507.798 .0528178
508.640 .0535740
509.480 .0544123
510.320 .0553417
511.160 .0563734
511.998 .0575218
512.836 .0588059
513.672 .0602438
514.508 .0618576
515.344 .0636704
516.178 .0657071
517.012 .0679921
517.845 .0705463
518.677 .0733869
519.508 .0765298
520.339 .0799790
521.169 .0837341
521.998 .0877696
522.826 .0920478
523.654 .0965132
524.481 .1011009
525.307 .1057352
526.133 .1103269
526.958 .1147828
527.782 .1190143
528.605 .1229351
529.428 .1264712
530.250 .1295534
531.072 .1321363
531.892 .1341837
532.712 .1356705
533.532 .1365787
534.350 .1369023
535.168 .1366457
535.986 .1358174
536.802 .1344212
537.618 .1324686
538.434 .1299724
539.249 .1269694
540.063 .1235079
540.876 .1196513
541.689 .1154736
542.501 .1110585
543.313 .1064982
544.124 .1018883
544.934 .0973159
545.744 .0928614
546.553 .0885891
547.361 .0845537
548.169 .0807837
548.976 .0772965
549.783 .0740969
550.589 .0711809
551.395 .0685327
552.200 .0661291
553.004 .0639445
553.808 .0619575
554.611 .0601487
555.414 .0585008
556.216 .0569972
557.018 .0556218
557.819 .0543610
558.619 .0532010
559.419 .0521290
560.218 .0511354
561.017 .0502100
561.815 .0493449
562.613 .0485336
563.410 .0477698
564.207 .0470476
565.003 .0463630
565.799 .0457110
566.594 .0450867
567.388 .0444863
568.182 .0439057
568.976 .0433413
569.769 .0427912
570.562 .0422548
571.354 .0417322
572.145 .0412247
572.936 .0407332
573.727 .0402578
574.517 .0397995
575.307 .0393588
576.096 .0389354
576.885 .0385289
577.673 .0381395
578.461 .0377667
579.248 .0374104
580.035 .0370711
580.821 .0367496
581.607 .0364463
582.392 .0361618
583.177 .0358962
583.962 .0356488
584.746 .0354190
585.529 .0352058
586.313 .0350080
587.095 .0348245
587.878 .0346541
588.660 .0344959
589.441 .0343492
590.222 .0342135
591.003 .0340882
591.783 .0339728
592.563 .0338667
593.342 .0337693
594.121 .0336797
594.899 .0335970
595.678 .0335205
596.455 .0334495
597.233 .0333832
598.009 .0333207
598.786 .0332616
599.562 .0332054
600.338 .0331517
601.113 .0331000
601.888 .0330284
602.663 .0329810
603.437 .0329352
604.211 .0328908
604.984 .0328476
605.757 .0328056
606.530 .0327645
607.302 .0327244
608.074 .0326851
608.845 .0326466
609.616 .0326087
610.387 .0325922
611.158 .0325561
611.928 .0325210
612.697 .0324872
613.467 .0324548
614.236 .0324240
615.004 .0323948
615.773 .0323671
616.541 .0323410
617.308 .0323161
618.076 .0322925
618.843 .0322698
619.609 .0322481
620.375 .0322272
621.141 .0322070
621.907 .0321874
622.672 .0321683
623.437 .0321495
624.202 .0321307
624.966 .0321117
625.730 .0320924
626.493 .0320724
627.257 .0320517
628.020 .0320302
628.782 .0320076
629.545 .0319841
630.307 .0319596
631.068 .0319339
631.830 .0319073
632.591 .0318797
633.352 .0318512
634.112 .0318218
634.872 .0317918
635.632 .0317611
636.392 .0317300
637.151 .0316986
637.910 .0316669
638.668 .0316350
639.427 .0316031
640.185 .0315713
640.943 .0315397
641.700 .0315087
642.457 .0314784
643.214 .0314489
643.971 .0314205
644.727 .0313931
645.483 .0313668
646.239 .0313415
646.994 .0313169
647.750 .0312931
648.505 .0312697
649.259 .0312467
650.014 .0312239
650.768 .0312013
651.521 .0311788
652.275 .0311563
653.028 .0311339
653.781 .0311115
654.534 .0310889
655.286 .0310661
656.039 .0310431
656.791 .0310197
657.542 .0309959
658.294 .0309715
659.045 .0309467
659.796 .0309213
660.546 .0308956
661.297 .0308696
662.047 .0308434
662.796 .0308171
663.546 .0307910
664.295 .0307651
665.044 .0307395
665.793 .0307143
666.542 .0306896
667.290 .0306653
668.038 .0306415
668.786 .0306182
669.533 .0305955
670.281 .0305732
671.028 .0305516
671.774 .0305306
672.521 .0305102
673.267 .0304904
674.013 .0304713
674.759 .0304528
675.505 .0304349
676.250 .0304175
676.995 .0304005
677.740 .0303837
678.484 .0303671
679.229 .0303506
679.973 .0303341
680.717 .0303176
681.460 .0303010
682.204 .0302844
682.947 .0302677
683.690 .0302511
684.433 .0302345
685.175 .0302180
685.917 .0302016
686.659 .0301851
687.401 .0301686
688.142 .0301520
688.884 .0301351
689.625 .0301181
690.365 .0301009
691.106 .0300835
691.846 .0300660
692.586 .0300484
693.326 .0300308
694.066 .0300131
694.805 .0299954
695.545 .0299776
696.284 .0299596
697.022 .0299415
697.761 .0299233
698.499 .0299049
699.237 .0298863
699.975 .0298677
700.713 .0298490
701.450 .0298303
702.187 .0298116
702.924 .0297929
703.661 .0297742
704.397 .0297555
705.133 .0297368
705.869 .0297181
706.605 .0296995
707.341 .0296809
708.076 .0296625
708.811 .0296443
709.546 .0296263
710.281 .0296085
711.015 .0295910
711.749 .0295737
712.483 .0295565
713.217 .0295395
713.950 .0295226
714.684 .0295059
715.417 .0294893
716.150 .0294727
716.882 .0294561
717.615 .0294393
718.347 .0294223
719.079 .0294049
719.811 .0293872
720.542 .0293690
721.273 .0293504
722.005 .0293315
722.735 .0293122
723.466 .0292927
724.196 .0292729
724.927 .0292528
725.656 .0292325
726.386 .0292120
727.116 .0291912
727.845 .0291704
728.574 .0291494
729.303 .0291286
730.031 .0291079
730.760 .0290875
731.488 .0290675
732.216 .0290479
732.944 .0290287
733.671 .0290100
734.398 .0289917
735.125 .0289738
735.852 .0289564
736.579 .0289395
737.305 .0289231
738.031 .0289072
738.757 .0288919
739.483 .0288770
740.208 .0288625
740.933 .0288484
741.658 .0288346
742.383 .0288211
743.108 .0288077
743.832 .0287945
744.556 .0287813
745.280 .0287682
746.004 .0287550
746.727 .0287416
747.450 .0287281
748.173 .0287143
748.896 .0287002
749.618 .0286859
750.340 .0286715
751.062 .0286569
751.784 .0286422
752.506 .0286274
753.227 .0286126
753.948 .0285977
754.669 .0285828
755.389 .0285678
756.110 .0285529
756.830 .0285380
757.550 .0285232
758.269 .0285085
758.989 .0284939
759.708 .0284796
760.427 .0284653
761.146 .0284512
761.864 .0284372
762.582 .0284232
763.300 .0284091
764.018 .0283951
764.736 .0283810
765.453 .0283670
766.170 .0283529
766.887 .0283390
767.603 .0283251
768.320 .0283114
769.036 .0282979
769.751 .0282846
770.467 .0282715
771.182 .0282588
771.897 .0282463
772.612 .0282341
773.327 .0282224
774.041 .0282110
774.755 .0282001
775.469 .0281896
776.183 .0281796
776.896 .0281702
777.609 .0281613
778.322 .0281529
779.035 .0281451
779.747 .0281379
780.459 .0281311
781.171 .0281249
781.882 .0281190
782.594 .0281136
783.305 .0281084
784.016 .0281035
784.726 .0280988
785.436 .0280942
786.147 .0280872
786.856 .0280825
787.566 .0280779
788.275 .0280732
788.984 .0280684
789.693 .0280634
790.401 .0280582
791.110 .0280528
791.818 .0280470
792.525 .0280410
793.233 .0280346
793.940 .0280280
794.647 .0280240
795.353 .0280172
796.060 .0280102
796.766 .0280032
797.472 .0279962
798.177 .0279891
798.883 .0279821
799.588 .0279750
800.292 .0279678
800.997 .0279607
801.701 .0279536
802.405 .0279465
803.109 .0279393
803.812 .0279321
804.515 .0279248
805.218 .0279174
805.921 .0279098
806.623 .0279020
807.325 .0278940
808.027 .0278858
808.728 .0278775
809.429 .0278689
810.130 .0278603
810.831 .0278515
811.531 .0278425
812.231 .0278334
812.931 .0278240
813.630 .0278145
814.330 .0278048
815.029 .0277949
815.727 .0277850
816.426 .0277751
817.124 .0277652
817.821 .0277554
818.519 .0277457
819.216 .0277362
819.913 .0277269
820.609 .0277177
821.306 .0277089
822.002 .0277003
822.697 .0276921
823.393 .0276844
824.088 .0276770
824.783 .0276701
825.477 .0276636
826.171 .0276575
826.865 .0276517
827.559 .0276463
828.252 .0276411
828.945 .0276362
829.638 .0276315
830.330 .0276270
831.023 .0276226
831.714 .0276183
832.406 .0276139
833.097 .0276093
833.788 .0276045
834.479 .0275994
835.169 .0275940
835.859 .0275882
836.548 .0275821
837.238 .0275755
837.927 .0275684
838.615 .0275608
839.304 .0275527
839.992 .0275440
840.680 .0275347
841.367 .0275248
842.054 .0275144
842.741 .0275034
843.428 .0274920
844.114 .0274803
844.800 .0274683
845.485 .0274559
846.170 .0274432
846.855 .0274302
847.540 .0274169
848.224 .0274032
848.908 .0273893
849.592 .0273751
850.275 .0273607
850.958 .0273461
851.641 .0273312
852.323 .0273162
853.005 .0273009
853.687 .0272854
854.368 .0272696
855.049 .0272537
855.730 .0272374
856.410 .0272210
857.090 .0272043
857.769 .0271875
858.449 .0271704
859.128 .0271532
859.806 .0271357
860.485 .0271181
861.163 .0271002
861.840 .0270822
862.518 .0270641
863.195 .0270459
863.871 .0270277
864.548 .0270094
865.224 .0269911
865.899 .0269727
866.574 .0269543
867.249 .0269359
867.924 .0269174
868.598 .0268988
869.272 .0268802
869.946 .0268616
870.619 .0268432
871.292 .0268250
871.964 .0268070
872.636 .0267894
873.308 .0267722
873.979 .0267555
874.651 .0267392
875.321 .0267234
875.992 .0267081
876.662 .0266932
877.331 .0266788
878.001 .0266646
878.670 .0266507
879.338 .0266372
880.007 .0266240
880.675 .0266112
881.342 .0265988
882.009 .0265869
882.676 .0265755
883.343 .0265647
884.009 .0265544
884.675 .0265446
885.340 .0265352
886.005 .0265261
886.670 .0265174
887.334 .0265090
887.998 .0265010
888.662 .0264932
889.325 .0264857
889.988 .0264784
890.650 .0264713
891.312 .0264644
891.974 .0264575
892.636 .0264505
893.297 .0264434
893.957 .0264362
894.618 .0264290
895.278 .0264216
895.937 .0264142
896.596 .0264067
897.255 .0263991
897.914 .0263913
898.572 .0263831
899.230 .0263747
899.887 .0263659
900.544 .0263568
901.201 .0263473
901.857 .0263315
902.513 .0263211
903.168 .0263103
903.823 .0262992
904.478 .0262877
905.132 .0262757
905.786 .0262631
906.440 .0262501
907.093 .0262365
907.746 .0262225
908.399 .0262081
909.051 .0261934
909.703 .0261785
910.354 .0261702
911.005 .0261551
911.656 .0261399
912.306 .0261246
912.956 .0261094
913.605 .0260941
914.254 .0260789
914.903 .0260637
915.551 .0260485
916.199 .0260335
916.847 .0260185
917.494 .0260035
918.141 .0259886
918.788 .0259736
919.434 .0259585
920.079 .0259434
920.725 .0259282
921.370 .0259131
922.014 .0258980
922.658 .0258830
923.302 .0258682
923.946 .0258536
924.589 .0258392
925.231 .0258250
925.873 .0258110
926.515 .0257971
927.157 .0257834
927.798 .0257698
928.439 .0257565
929.079 .0257434
929.719 .0257307
930.359 .0257182
930.998 .0257060
931.637 .0256941
932.275 .0256824
932.913 .0256709
933.551 .0256595
934.188 .0256484
934.825 .0256374
935.462 .0256268
936.098 .0256166
936.733 .0256068
937.369 .0255975
938.004 .0255888
938.638 .0255806
939.273 .0255729
939.907 .0255657
940.540 .0255591
941.173 .0255528
941.806 .0255471
942.438 .0255419
943.070 .0255373
943.702 .0255332
944.333 .0255296
944.964 .0255265
945.594 .0255237
946.224 .0255213
946.854 .0255190
947.483 .0255168
948.112 .0255146
948.741 .0255124
949.369 .0255101
949.996 .0255079
950.624 .0255057
951.251 .0255035
951.878 .0255013
952.504 .0254992
953.130 .0254969
953.755 .0254946
954.380 .0254921
955.005 .0254894
955.629 .0254866
956.253 .0254836
956.877 .0254804
957.500 .0254772
958.123 .0254738
958.746 .0254704
959.368 .0254669
959.990 .0254633
960.611 .0254596
961.232 .0254558
961.853 .0254521
962.473 .0254485
963.093 .0254450
963.712 .0254417
964.331 .0254387
964.950 .0254360
965.569 .0254336
966.187 .0254316
966.804 .0254298
967.422 .0254283
968.039 .0254270
968.655 .0254258
969.272 .0254249
969.887 .0254242
970.503 .0254236
971.118 .0254233
971.733 .0254230
972.347 .0254229
972.961 .0254226
973.575 .0254223
974.188 .0254217
974.801 .0254208
975.414 .0254194
976.026 .0254176
976.638 .0254153
977.250 .0254126
977.861 .0254094
978.472 .0254057
979.083 .0254016
979.693 .0253969
980.303 .0253915
980.912 .0253805
981.521 .0253735
982.130 .0253658
982.738 .0253575
983.346 .0253487
983.954 .0253396
984.562 .0253303
985.169 .0253210
985.775 .0253118
986.382 .0253028
986.988 .0252940
987.594 .0252854
988.199 .0252771
988.804 .0252690
989.409 .0252667
990.013 .0252594
990.617 .0252526
991.221 .0252462
991.824 .0252404
992.427 .0252353
993.030 .0252307
993.632 .0252269
994.234 .0252236
994.836 .0252208
995.438 .0252184
996.039 .0252166
996.640 .0252151
997.240 .0252141
997.840 .0252136
998.440 .0252136
999.040 .0252141
999.639 .0252151
1000.238 .0252166
1000.836 .0252184
1001.435 .0252205
1002.033 .0252227
1002.630 .0252249
1003.228 .0252270
1003.825 .0252290
1004.422 .0252307
1005.018 .0252322
1005.614 .0252333
1006.210 .0252342
1006.806 .0252347
1007.401 .0252350
1007.996 .0252350
1008.591 .0252348
1009.186 .0252344
1009.780 .0252339
1010.374 .0252333
1010.967 .0252326
1011.561 .0252320
1012.154 .0252315
1012.746 .0252311
1013.339 .0252308
1013.931 .0252309
1014.523 .0252312
1015.115 .0252319
1015.706 .0252328
1016.298 .0252341
1016.888 .0252356
1017.479 .0252375
1018.069 .0252397
1018.660 .0252421
1019.250 .0252448
1019.839 .0252479
1020.429 .0252513
1021.018 .0252550
1021.607 .0252591
1022.195 .0252636
1022.784 .0252684
1023.372 .0252735
1023.960 .0252790
1024.547 .0252847
1025.135 .0252907
1025.722 .0252968
1026.309 .0253031
1026.896 .0253093
1027.483 .0253156
1028.069 .0253218
1028.655 .0253278
1029.241 .0253337
1029.827 .0253395
1030.412 .0253450
1030.997 .0253503
1031.582 .0253554
1032.167 .0253604
1032.752 .0253650
1033.336 .0253694
1033.921 .0253734
1034.505 .0253770
1035.089 .0253803
1035.672 .0253832
1036.256 .0253857
1036.839 .0253878
1037.422 .0253896
1038.005 .0253910
1038.588 .0253920
1039.171 .0253925
1039.753 .0253925
1040.335 .0253918
1040.918 .0253903
1041.500 .0253880
1042.081 .0253850
1042.663 .0253813
1043.244 .0253769
1043.826 .0253720
1044.407 .0253667
1044.988 .0253611
1045.569 .0253551
1046.150 .0253489
1046.730 .0253423
1047.311 .0253354
1047.891 .0253280
1048.471 .0253204
1049.052 .0253125
1049.632 .0253042
1050.211 .0252959
1050.791 .0252876
1051.371 .0252794
1051.950 .0252713
1052.530 .0252633
1053.109 .0252555
1053.688 .0252479
1054.268 .0252404
1054.847 .0252330
1055.426 .0252260
1056.005 .0252193
1056.583 .0252132
1057.162 .0252076
1057.741 .0252028
1058.319 .0251987
1058.898 .0251953
1059.476 .0251925
1060.055 .0251902
1060.633 .0251883
1061.211 .0251867
1061.790 .0251852
1062.368 .0251838
1062.946 .0251825
1063.524 .0251812
1064.102 .0251798
1064.680 .0251784
1065.258 .0251768
1065.836 .0251750
1066.414 .0251732
1066.992 .0251713
1067.570 .0251692
1068.148 .0251671
1068.726 .0251650
1069.304 .0251628
1069.882 .0251607
1070.460 .0251587
1071.038 .0251569
1071.616 .0251552
1072.194 .0251539
1072.772 .0251528
1073.350 .0251520
1073.928 .0251515
1074.506 .0251511
1075.084 .0251509
1075.662 .0251507
1076.240 .0251504
1076.819 .0251501
1077.397 .0251497
1077.976 .0251492
1078.554 .0251488
1079.133 .0251486
1079.711 .0251486
1080.290 .0251489
1080.869 .0251496
1081.448 .0251507
1082.027 .0251522
1082.606 .0251541
1083.185 .0251562
1083.764 .0251585
1084.343 .0251610
1084.923 .0251635
1085.502 .0251661
1086.082 .0251688
1086.662 .0251715
1087.242 .0251745
1087.822 .0251776
1088.402 .0251810
1088.983 .0251846
1089.563 .0251886
1090.144 .0251928
1090.725 .0251974
1091.306 .0252023
1091.887 .0252075
1092.469 .0252130
1093.050 .0252189
1093.632 .0252253
1094.214 .0252323
1094.796 .0252399
1095.379 .0252481
1095.961 .0252570
1096.544 .0252664
1097.127 .0252764
1097.710 .0252868
1098.294 .0252975
1098.877 .0253086
1099.461 .0253201
1100.046 .0253321
1100.630 .0253449
1101.215 .0253585
1101.800 .0253732
1102.385 .0253891
1102.970 .0254063
1103.556 .0254247
1104.142 .0254443
1104.728 .0254652
1105.315 .0254870
1105.902 .0255099
1106.489 .0255339
1107.077 .0255591
1107.664 .0255855
1108.253 .0256134
1108.841 .0256429
1109.430 .0256741
1110.019 .0257071
1110.609 .0257418
1111.198 .0257782
1111.789 .0258160
1112.379 .0258551
1112.970 .0258955
1113.561 .0259372
1114.153 .0259802
1114.745 .0260246
1115.338 .0260705
1115.931 .0261177
1116.524 .0261663
1117.117 .0262160
1117.712 .0262664
1118.306 .0263173
1118.901 .0263685
1119.496 .0264196
1120.092 .0264707
1120.689 .0265216
1121.285 .0265723
1121.882 .0266229
1122.480 .0266735
1123.078 .0267238
1123.677 .0267740
1124.276 .0268240
1124.875 .0268738
1125.476 .0269238
1126.076 .0269741
1126.677 .0270251
1127.279 .0270773
1127.881 .0271311
1128.484 .0271869
1129.087 .0272117
1129.691 .0272696
1130.295 .0273297
1130.900 .0273919
1131.505 .0274564
1132.111 .0275233
1132.718 .0275931
1133.325 .0276656
1133.933 .0277407
1134.541 .0278214
1135.150 .0279109
1135.760 .0280043
1136.370 .0280871
1136.981 .0280530
1137.592 .0281669
1138.204 .0282821
1138.817 .0283965
1139.431 .0285143
1140.045 .0286375
1140.660 .0287689
1141.275 .0288996
1141.891 .0290216
1142.508 .0292261
1143.126 .0295187
1143.744 .0296687
1144.363 .0294090
1144.983 .0291243
