Measurement Sequence started on: 15-12-46-377
Integration time: 28
Scans to Average: 2 
>>>>>Begin Spectral Data<<<<<
432.689 .0000100
433.621 .0000100
434.552 .0000100
435.482 .0000100
436.410 .0000100
437.337 .0000100
438.262 .0289584
439.187 .0614878
440.110 .1019942
441.031 .1477533
441.952 .1189061
442.871 .1241649
443.789 .1290446
444.705 .1336268
445.621 .1379658
446.535 .1421041
447.447 .1445482
448.359 .1451344
449.269 .1434631
450.178 .1392729
451.086 .1326394
451.993 .1240680
452.898 .1143956
453.803 .1045763
454.706 .0954253
455.608 .0874537
456.508 .0808395
457.408 .0763338
458.306 .0728666
459.204 .0700490
460.100 .0676830
460.995 .0656569
461.888 .0638913
462.781 .0623350
463.673 .0609486
464.563 .0597046
465.452 .0585816
466.340 .0575619
467.228 .0566326
468.114 .0557836
468.999 .0550059
469.882 .0542915
470.765 .0536331
471.647 .0530252
472.528 .0524641
473.407 .0519470
474.286 .0514726
475.163 .0510409
476.040 .0506512
476.915 .0503030
477.790 .0499944
478.663 .0497236
479.535 .0494876
480.407 .0492838
481.277 .0491092
482.147 .0489613
483.015 .0488387
483.883 .0487405
484.749 .0486667
485.615 .0486176
486.479 .0485930
487.343 .0485922
488.206 .0486137
489.067 .0486547
489.928 .0487127
490.788 .0487855
491.647 .0488712
492.505 .0489689
493.362 .0490790
494.218 .0492029
495.073 .0493424
495.928 .0496140
496.781 .0498040
497.634 .0500159
498.486 .0502504
499.337 .0505078
500.187 .0507884
501.036 .0510930
501.884 .0514237
502.731 .0517841
503.578 .0521790
504.424 .0524586
505.268 .0529259
506.113 .0534451
506.956 .0540230
507.798 .0546669
508.640 .0553854
509.480 .0561886
510.320 .0570867
511.160 .0580905
511.998 .0592140
512.836 .0604727
513.672 .0618837
514.508 .0634662
515.344 .0652409
516.178 .0672274
517.012 .0694455
517.845 .0719121
518.677 .0746406
519.508 .0776426
520.339 .0809187
521.169 .0844659
521.998 .0882602
522.826 .0922668
523.654 .0964336
524.481 .1006970
525.307 .1049868
526.133 .1092188
526.958 .1133039
527.782 .1171581
528.605 .1207008
529.428 .1238641
530.250 .1265860
531.072 .1288247
531.892 .1305452
532.712 .1317254
533.532 .1323531
534.350 .1324225
535.168 .1319401
535.986 .1309164
536.802 .1293602
537.618 .1272890
538.434 .1247213
539.249 .1216930
540.063 .1182510
540.876 .1144560
541.689 .1103787
542.501 .1060950
543.313 .1016914
544.124 .0972562
544.934 .0928724
545.744 .0886154
546.553 .0845459
547.361 .0807139
548.169 .0771482
548.976 .0738670
549.783 .0708737
550.589 .0681620
551.395 .0657181
552.200 .0635193
553.004 .0615414
553.808 .0597613
554.611 .0581578
555.414 .0567112
556.216 .0554051
557.018 .0542216
557.819 .0531462
558.619 .0521654
559.419 .0512670
560.218 .0504398
561.017 .0496732
561.815 .0489572
562.613 .0482842
563.410 .0476457
564.207 .0470360
565.003 .0464496
565.799 .0458829
566.594 .0453327
567.388 .0447981
568.182 .0442781
568.976 .0437719
569.769 .0432786
570.562 .0427985
571.354 .0423310
572.145 .0418762
572.936 .0414336
573.727 .0410027
574.517 .0405832
575.307 .0401753
576.096 .0397787
576.885 .0393943
577.673 .0390229
578.461 .0386655
579.248 .0383228
580.035 .0379959
580.821 .0376852
581.607 .0373912
582.392 .0371142
583.177 .0368540
583.962 .0366102
584.746 .0363821
585.529 .0361687
586.313 .0359690
587.095 .0357825
587.878 .0356084
588.660 .0354459
589.441 .0352950
590.222 .0351553
591.003 .0350264
591.783 .0349080
592.563 .0347993
593.342 .0346994
594.121 .0346075
594.899 .0345223
595.678 .0344426
596.455 .0343677
597.233 .0342966
598.009 .0342285
598.786 .0341633
599.562 .0341007
600.338 .0340403
601.113 .0339824
601.888 .0339031
602.663 .0338507
603.437 .0338002
604.211 .0337516
604.984 .0337047
605.757 .0336591
606.530 .0336148
607.302 .0335716
608.074 .0335296
608.845 .0334888
609.616 .0334492
610.387 .0334327
611.158 .0333948
611.928 .0333582
612.697 .0333227
613.467 .0332884
614.236 .0332552
615.004 .0332230
615.773 .0331915
616.541 .0331608
617.308 .0331307
618.076 .0331012
618.843 .0330721
619.609 .0330436
620.375 .0330155
621.141 .0329878
621.907 .0329605
622.672 .0329335
623.437 .0329069
624.202 .0328807
624.966 .0328547
625.730 .0328288
626.493 .0328032
627.257 .0327776
628.020 .0327520
628.782 .0327264
629.545 .0327009
630.307 .0326752
631.068 .0326495
631.830 .0326236
632.591 .0325977
633.352 .0325716
634.112 .0325453
634.872 .0325188
635.632 .0324920
636.392 .0324648
637.151 .0324373
637.910 .0324093
638.668 .0323812
639.427 .0323528
640.185 .0323243
640.943 .0322959
641.700 .0322675
642.457 .0322393
643.214 .0322113
643.971 .0321836
644.727 .0321561
645.483 .0321288
646.239 .0321017
646.994 .0320747
647.750 .0320480
648.505 .0320216
649.259 .0319954
650.014 .0319693
650.768 .0319434
651.521 .0319175
652.275 .0318917
653.028 .0318658
653.781 .0318400
654.534 .0318141
655.286 .0317882
656.039 .0317623
656.791 .0317364
657.542 .0317105
658.294 .0316845
659.045 .0316584
659.796 .0316321
660.546 .0316056
661.297 .0315789
662.047 .0315522
662.796 .0315254
663.546 .0314989
664.295 .0314726
665.044 .0314466
665.793 .0314210
666.542 .0313958
667.290 .0313709
668.038 .0313465
668.786 .0313224
669.533 .0312987
670.281 .0312754
671.028 .0312526
671.774 .0312303
672.521 .0312086
673.267 .0311875
674.013 .0311670
674.759 .0311471
675.505 .0311277
676.250 .0311088
676.995 .0310903
677.740 .0310722
678.484 .0310544
679.229 .0310368
679.973 .0310194
680.717 .0310021
681.460 .0309848
682.204 .0309675
682.947 .0309501
683.690 .0309326
684.433 .0309149
685.175 .0308971
685.917 .0308792
686.659 .0308610
687.401 .0308426
688.142 .0308240
688.884 .0308050
689.625 .0307856
690.365 .0307659
691.106 .0307457
691.846 .0307251
692.586 .0307040
693.326 .0306826
694.066 .0306609
694.805 .0306390
695.545 .0306168
696.284 .0305945
697.022 .0305722
697.761 .0305498
698.499 .0305276
699.237 .0305055
699.975 .0304836
700.713 .0304621
701.450 .0304409
702.187 .0304201
702.924 .0303996
703.661 .0303795
704.397 .0303598
705.133 .0303404
705.869 .0303215
706.605 .0303029
707.341 .0302848
708.076 .0302669
708.811 .0302495
709.546 .0302323
710.281 .0302154
711.015 .0301987
711.749 .0301820
712.483 .0301654
713.217 .0301487
713.950 .0301319
714.684 .0301149
715.417 .0300976
716.150 .0300800
716.882 .0300621
717.615 .0300438
718.347 .0300250
719.079 .0300058
719.811 .0299862
720.542 .0299661
721.273 .0299457
722.005 .0299251
722.735 .0299042
723.466 .0298833
724.196 .0298624
724.927 .0298415
725.656 .0298209
726.386 .0298005
727.116 .0297805
727.845 .0297608
728.574 .0297417
729.303 .0297232
730.031 .0297053
730.760 .0296882
731.488 .0296718
732.216 .0296563
732.944 .0296415
733.671 .0296275
734.398 .0296141
735.125 .0296014
735.852 .0295892
736.579 .0295774
737.305 .0295660
738.031 .0295549
738.757 .0295440
739.483 .0295332
740.208 .0295225
740.933 .0295118
741.658 .0295010
742.383 .0294902
743.108 .0294792
743.832 .0294681
744.556 .0294569
745.280 .0294455
746.004 .0294339
746.727 .0294220
747.450 .0294098
748.173 .0293972
748.896 .0293842
749.618 .0293708
750.340 .0293572
751.062 .0293433
751.784 .0293294
752.506 .0293155
753.227 .0293016
753.948 .0292879
754.669 .0292742
755.389 .0292605
756.110 .0292467
756.830 .0292329
757.550 .0292189
758.269 .0292048
758.989 .0291907
759.708 .0291764
760.427 .0291622
761.146 .0291479
761.864 .0291336
762.582 .0291193
763.300 .0291049
764.018 .0290905
764.736 .0290761
765.453 .0290617
766.170 .0290473
766.887 .0290331
767.603 .0290189
768.320 .0290050
769.036 .0289913
769.751 .0289778
770.467 .0289646
771.182 .0289516
771.897 .0289390
772.612 .0289267
773.327 .0289147
774.041 .0289032
774.755 .0288920
775.469 .0288811
776.183 .0288705
776.896 .0288602
777.609 .0288500
778.322 .0288400
779.035 .0288301
779.747 .0288202
780.459 .0288104
781.171 .0288006
781.882 .0287910
782.594 .0287815
783.305 .0287720
784.016 .0287625
784.726 .0287530
785.436 .0287435
786.147 .0287292
786.856 .0287195
787.566 .0287097
788.275 .0286999
788.984 .0286900
789.693 .0286801
790.401 .0286701
791.110 .0286600
791.818 .0286497
792.525 .0286393
793.233 .0286288
793.940 .0286181
794.647 .0286123
795.353 .0286013
796.060 .0285901
796.766 .0285789
797.472 .0285675
798.177 .0285560
798.883 .0285443
799.588 .0285324
800.292 .0285203
800.997 .0285080
801.701 .0284953
802.405 .0284824
803.109 .0284693
803.812 .0284558
804.515 .0284422
805.218 .0284282
805.921 .0284140
806.623 .0283995
807.325 .0283848
808.027 .0283697
808.728 .0283545
809.429 .0283390
810.130 .0283234
810.831 .0283077
811.531 .0282920
812.231 .0282763
812.931 .0282606
813.630 .0282450
814.330 .0282296
815.029 .0282143
815.727 .0281992
816.426 .0281844
817.124 .0281700
817.821 .0281558
818.519 .0281420
819.216 .0281286
819.913 .0281155
820.609 .0281029
821.306 .0280907
822.002 .0280791
822.697 .0280680
823.393 .0280574
824.088 .0280474
824.783 .0280379
825.477 .0280290
826.171 .0280205
826.865 .0280125
827.559 .0280048
828.252 .0279976
828.945 .0279908
829.638 .0279843
830.330 .0279782
831.023 .0279725
831.714 .0279670
832.406 .0279616
833.097 .0279564
833.788 .0279511
834.479 .0279458
835.169 .0279403
835.859 .0279347
836.548 .0279289
837.238 .0279229
837.927 .0279167
838.615 .0279104
839.304 .0279039
839.992 .0278971
840.680 .0278901
841.367 .0278828
842.054 .0278751
842.741 .0278671
843.428 .0278588
844.114 .0278501
844.800 .0278412
845.485 .0278319
846.170 .0278223
846.855 .0278124
847.540 .0278021
848.224 .0277915
848.908 .0277805
849.592 .0277692
850.275 .0277577
850.958 .0277459
851.641 .0277340
852.323 .0277220
853.005 .0277101
853.687 .0276980
854.368 .0276860
855.049 .0276740
855.730 .0276620
856.410 .0276501
857.090 .0276383
857.769 .0276267
858.449 .0276153
859.128 .0276043
859.806 .0275936
860.485 .0275833
861.163 .0275733
861.840 .0275636
862.518 .0275541
863.195 .0275449
863.871 .0275359
864.548 .0275271
865.224 .0275185
865.899 .0275101
866.574 .0275018
867.249 .0274937
867.924 .0274857
868.598 .0274777
869.272 .0274698
869.946 .0274619
870.619 .0274540
871.292 .0274461
871.964 .0274383
872.636 .0274305
873.308 .0274227
873.979 .0274150
874.651 .0274073
875.321 .0273995
875.992 .0273915
876.662 .0273836
877.331 .0273755
878.001 .0273675
878.670 .0273596
879.338 .0273518
880.007 .0273442
880.675 .0273367
881.342 .0273295
882.009 .0273225
882.676 .0273156
883.343 .0273088
884.009 .0273022
884.675 .0272958
885.340 .0272895
886.005 .0272834
886.670 .0272775
887.334 .0272717
887.998 .0272659
888.662 .0272602
889.325 .0272545
889.988 .0272487
890.650 .0272428
891.312 .0272370
891.974 .0272310
892.636 .0272249
893.297 .0272188
893.957 .0272125
894.618 .0272059
895.278 .0271991
895.937 .0271919
896.596 .0271844
897.255 .0271765
897.914 .0271681
898.572 .0271593
899.230 .0271500
899.887 .0271402
900.544 .0271300
901.201 .0271192
901.857 .0271008
902.513 .0270887
903.168 .0270760
903.823 .0270629
904.478 .0270493
905.132 .0270353
905.786 .0270209
906.440 .0270061
907.093 .0269909
907.746 .0269753
908.399 .0269595
909.051 .0269435
909.703 .0269272
910.354 .0269185
911.005 .0269022
911.656 .0268857
912.306 .0268691
912.956 .0268522
913.605 .0268351
914.254 .0268177
914.903 .0268000
915.551 .0267820
916.199 .0267638
916.847 .0267454
917.494 .0267268
918.141 .0267080
918.788 .0266891
919.434 .0266700
920.079 .0266507
920.725 .0266311
921.370 .0266112
922.014 .0265910
922.658 .0265705
923.302 .0265496
923.946 .0265286
924.589 .0265074
925.231 .0264860
925.873 .0264644
926.515 .0264426
927.157 .0264207
927.798 .0263986
928.439 .0263765
929.079 .0263542
929.719 .0263320
930.359 .0263100
930.998 .0262881
931.637 .0262666
932.275 .0262455
932.913 .0262248
933.551 .0262046
934.188 .0261849
934.825 .0261657
935.462 .0261472
936.098 .0261293
936.733 .0261120
937.369 .0260954
938.004 .0260794
938.638 .0260641
939.273 .0260494
939.907 .0260353
940.540 .0260218
941.173 .0260087
941.806 .0259962
942.438 .0259840
943.070 .0259724
943.702 .0259611
944.333 .0259501
944.964 .0259395
945.594 .0259290
946.224 .0259186
946.854 .0259082
947.483 .0258978
948.112 .0258874
948.741 .0258768
949.369 .0258660
949.996 .0258551
950.624 .0258441
951.251 .0258329
951.878 .0258215
952.504 .0258100
953.130 .0257983
953.755 .0257864
954.380 .0257745
955.005 .0257625
955.629 .0257506
956.253 .0257386
956.877 .0257267
957.500 .0257150
958.123 .0257033
958.746 .0256918
959.368 .0256805
959.990 .0256694
960.611 .0256584
961.232 .0256478
961.853 .0256374
962.473 .0256274
963.093 .0256178
963.712 .0256085
964.331 .0255996
964.950 .0255910
965.569 .0255829
966.187 .0255752
966.804 .0255679
967.422 .0255609
968.039 .0255542
968.655 .0255478
969.272 .0255416
969.887 .0255357
970.503 .0255300
971.118 .0255245
971.733 .0255192
972.347 .0255141
972.961 .0255092
973.575 .0255044
974.188 .0254998
974.801 .0254952
975.414 .0254907
976.026 .0254861
976.638 .0254814
977.250 .0254766
977.861 .0254717
978.472 .0254667
979.083 .0254615
979.693 .0254563
980.303 .0254510
980.912 .0254426
981.521 .0254370
982.130 .0254312
982.738 .0254253
983.346 .0254194
983.954 .0254134
984.562 .0254074
985.169 .0254015
985.775 .0253959
986.382 .0253906
986.988 .0253857
987.594 .0253812
988.199 .0253770
988.804 .0253731
989.409 .0253724
990.013 .0253693
990.617 .0253665
991.221 .0253640
991.824 .0253620
992.427 .0253604
993.030 .0253591
993.632 .0253583
994.234 .0253579
994.836 .0253578
995.438 .0253580
996.039 .0253585
996.640 .0253593
997.240 .0253603
997.840 .0253617
998.440 .0253636
999.040 .0253658
999.639 .0253686
1000.238 .0253719
1000.836 .0253757
1001.435 .0253800
1002.033 .0253846
1002.630 .0253896
1003.228 .0253949
1003.825 .0254002
1004.422 .0254057
1005.018 .0254112
1005.614 .0254168
1006.210 .0254223
1006.806 .0254278
1007.401 .0254332
1007.996 .0254386
1008.591 .0254438
1009.186 .0254488
1009.780 .0254538
1010.374 .0254586
1010.967 .0254632
1011.561 .0254678
1012.154 .0254724
1012.746 .0254771
1013.339 .0254819
1013.931 .0254870
1014.523 .0254924
1015.115 .0254980
1015.706 .0255040
1016.298 .0255103
1016.888 .0255168
1017.479 .0255236
1018.069 .0255307
1018.660 .0255380
1019.250 .0255456
1019.839 .0255535
1020.429 .0255617
1021.018 .0255702
1021.607 .0255791
1022.195 .0255883
1022.784 .0255979
1023.372 .0256077
1023.960 .0256177
1024.547 .0256281
1025.135 .0256387
1025.722 .0256495
1026.309 .0256606
1026.896 .0256719
1027.483 .0256835
1028.069 .0256952
1028.655 .0257070
1029.241 .0257188
1029.827 .0257307
1030.412 .0257424
1030.997 .0257539
1031.582 .0257651
1032.167 .0257758
1032.752 .0257861
1033.336 .0257959
1033.921 .0258051
1034.505 .0258137
1035.089 .0258216
1035.672 .0258288
1036.256 .0258354
1036.839 .0258411
1037.422 .0258461
1038.005 .0258502
1038.588 .0258534
1039.171 .0258558
1039.753 .0258574
1040.335 .0258582
1040.918 .0258585
1041.500 .0258582
1042.081 .0258574
1042.663 .0258562
1043.244 .0258548
1043.826 .0258531
1044.407 .0258513
1044.988 .0258494
1045.569 .0258475
1046.150 .0258455
1046.730 .0258436
1047.311 .0258416
1047.891 .0258398
1048.471 .0258380
1049.052 .0258363
1049.632 .0258346
1050.211 .0258329
1050.791 .0258313
1051.371 .0258297
1051.950 .0258281
1052.530 .0258265
1053.109 .0258249
1053.688 .0258231
1054.268 .0258213
1054.847 .0258192
1055.426 .0258171
1056.005 .0258148
1056.583 .0258125
1057.162 .0258101
1057.741 .0258077
1058.319 .0258051
1058.898 .0258024
1059.476 .0257997
1060.055 .0257967
1060.633 .0257936
1061.211 .0257902
1061.790 .0257865
1062.368 .0257824
1062.946 .0257779
1063.524 .0257730
1064.102 .0257678
1064.680 .0257622
1065.258 .0257562
1065.836 .0257500
1066.414 .0257435
1066.992 .0257369
1067.570 .0257301
1068.148 .0257233
1068.726 .0257164
1069.304 .0257094
1069.882 .0257024
1070.460 .0256956
1071.038 .0256891
1071.616 .0256828
1072.194 .0256769
1072.772 .0256712
1073.350 .0256657
1073.928 .0256603
1074.506 .0256549
1075.084 .0256492
1075.662 .0256434
1076.240 .0256371
1076.819 .0256306
1077.397 .0256239
1077.976 .0256170
1078.554 .0256101
1079.133 .0256031
1079.711 .0255960
1080.290 .0255888
1080.869 .0255815
1081.448 .0255740
1082.027 .0255665
1082.606 .0255591
1083.185 .0255521
1083.764 .0255457
1084.343 .0255402
1084.923 .0255357
1085.502 .0255324
1086.082 .0255306
1086.662 .0255300
1087.242 .0255308
1087.822 .0255328
1088.402 .0255359
1088.983 .0255402
1089.563 .0255457
1090.144 .0255524
1090.725 .0255606
1091.306 .0255701
1091.887 .0255810
1092.469 .0255930
1093.050 .0256063
1093.632 .0256203
1094.214 .0256350
1094.796 .0256501
1095.379 .0256656
1095.961 .0256812
1096.544 .0256971
1097.127 .0257133
1097.710 .0257300
1098.294 .0257472
1098.877 .0257649
1099.461 .0257829
1100.046 .0258012
1100.630 .0258197
1101.215 .0258380
1101.800 .0258561
1102.385 .0258739
1102.970 .0258913
1103.556 .0259084
1104.142 .0259252
1104.728 .0259418
1105.315 .0259583
1105.902 .0259748
1106.489 .0259914
1107.077 .0260082
1107.664 .0260249
1108.253 .0260418
1108.841 .0260589
1109.430 .0260762
1110.019 .0260939
1110.609 .0261123
1111.198 .0261317
1111.789 .0261524
1112.379 .0261746
1112.970 .0261985
1113.561 .0262241
1114.153 .0262515
1114.745 .0262805
1115.338 .0263112
1115.931 .0263435
1116.524 .0263771
1117.117 .0264120
1117.712 .0264484
1118.306 .0264863
1118.901 .0265256
1119.496 .0265665
1120.092 .0266091
1120.689 .0266535
1121.285 .0266996
1121.882 .0267477
1122.480 .0267976
1123.078 .0268493
1123.677 .0269027
1124.276 .0269578
1124.875 .0270147
1125.476 .0270733
1126.076 .0271335
1126.677 .0271957
1127.279 .0272599
1127.881 .0273261
1128.484 .0273943
1129.087 .0274246
1129.691 .0274960
1130.295 .0275694
1130.900 .0276447
1131.505 .0277221
1132.111 .0278019
1132.718 .0278842
1133.325 .0279696
1133.933 .0280586
1134.541 .0281522
1135.150 .0282487
1135.760 .0283475
1136.370 .0284605
1136.981 .0284851
1137.592 .0285871
1138.204 .0286925
1138.817 .0287933
1139.431 .0289037
1140.045 .0290205
1140.660 .0291437
1141.275 .0292825
1141.891 .0294325
1142.508 .0296095
1143.126 .0297496
1143.744 .0298747
1144.363 .0303314
1144.983 .0303635
