Measurement Sequence started on: 15-12-46-377
Integration time: 28
Scans to Average: 2 
>>>>>Begin Spectral Data<<<<<
432.689 .0000100
433.621 .0000100
434.552 .0000100
435.482 .0000100
436.410 .0000100
437.337 .0000100
438.262 .0278853
439.187 .0591297
440.110 .0979950
441.031 .1418343
441.952 .1140846
442.871 .1191695
443.789 .1238916
444.705 .1283232
445.621 .1325149
446.535 .1365057
447.447 .1388582
448.359 .1394193
449.269 .1378088
450.178 .1337806
451.086 .1274113
451.993 .1191860
452.898 .1099083
453.803 .1004908
454.706 .0917109
455.608 .0840531
456.508 .0776841
457.408 .0733259
458.306 .0699478
459.204 .0671812
460.100 .0648427
460.995 .0628316
461.888 .0610783
462.781 .0595343
463.673 .0581632
464.563 .0569378
465.452 .0558366
466.340 .0548414
467.228 .0539395
468.114 .0531212
468.999 .0523777
469.882 .0517013
470.765 .0510853
471.647 .0505244
472.528 .0500143
473.407 .0495496
474.286 .0491271
475.163 .0487445
476.040 .0483988
476.915 .0480879
477.790 .0478097
478.663 .0475625
479.535 .0473446
480.407 .0471536
481.277 .0469870
482.147 .0468421
483.015 .0467165
483.883 .0466080
484.749 .0465156
485.615 .0464390
486.479 .0463783
487.343 .0463339
488.206 .0463074
489.067 .0462989
489.928 .0463092
490.788 .0463389
491.647 .0463880
492.505 .0464566
493.362 .0465448
494.218 .0466529
495.073 .0467820
495.928 .0470614
496.781 .0472510
497.634 .0474666
498.486 .0477097
499.337 .0479822
500.187 .0482859
501.036 .0486215
501.884 .0489908
502.731 .0493963
503.578 .0498403
504.424 .0501436
505.268 .0506568
506.113 .0512181
506.956 .0518311
507.798 .0525003
508.640 .0532320
509.480 .0540349
510.320 .0549197
511.160 .0558993
511.998 .0569890
512.836 .0582062
513.672 .0595685
514.508 .0610971
515.344 .0628151
516.178 .0647448
517.012 .0669108
517.845 .0693337
518.677 .0720362
519.508 .0750363
520.339 .0783445
521.169 .0819683
521.998 .0858894
522.826 .0900772
523.654 .0944771
524.481 .0990234
525.307 .1036391
526.133 .1082329
526.958 .1127105
527.782 .1169780
528.605 .1209474
529.428 .1245415
530.250 .1276914
531.072 .1303525
531.892 .1324849
532.712 .1340614
533.532 .1350636
534.350 .1354822
535.168 .1353183
535.986 .1345755
536.802 .1332576
537.618 .1313757
538.434 .1289396
539.249 .1259823
540.063 .1225479
540.876 .1187011
541.689 .1145177
542.501 .1100814
543.313 .1054865
544.124 .1008284
544.934 .0961977
545.744 .0916765
546.553 .0873330
547.361 .0832244
548.169 .0793833
548.976 .0758341
549.783 .0725849
550.589 .0696355
551.395 .0669723
552.200 .0645746
553.004 .0624166
553.808 .0604741
554.611 .0587223
555.414 .0571398
556.216 .0557076
557.018 .0544068
557.819 .0532222
558.619 .0521391
559.419 .0511449
560.218 .0502297
561.017 .0493825
561.815 .0485949
562.613 .0478586
563.410 .0471659
564.207 .0465092
565.003 .0458823
565.799 .0452790
566.594 .0446947
567.388 .0441258
568.182 .0435700
568.976 .0430253
569.769 .0424911
570.562 .0419676
571.354 .0414554
572.145 .0409553
572.936 .0404684
573.727 .0399947
574.517 .0395350
575.307 .0390898
576.096 .0386597
576.885 .0382454
577.673 .0378481
578.461 .0374690
579.248 .0371089
580.035 .0367690
580.821 .0364497
581.607 .0361510
582.392 .0358724
583.177 .0356127
583.962 .0353704
584.746 .0351441
585.529 .0349325
586.313 .0347342
587.095 .0345486
587.878 .0343753
588.660 .0342138
589.441 .0340638
590.222 .0339252
591.003 .0337974
591.783 .0336797
592.563 .0335714
593.342 .0334712
594.121 .0333780
594.899 .0332906
595.678 .0332080
596.455 .0331294
597.233 .0330542
598.009 .0329821
598.786 .0329130
599.562 .0328470
600.338 .0327841
601.113 .0327243
601.888 .0326439
602.663 .0325907
603.437 .0325399
604.211 .0324912
604.984 .0324443
605.757 .0323991
606.530 .0323554
607.302 .0323132
608.074 .0322724
608.845 .0322332
609.616 .0321955
610.387 .0321802
611.158 .0321446
611.928 .0321106
612.697 .0320783
613.467 .0320474
614.236 .0320179
615.004 .0319895
615.773 .0319621
616.541 .0319355
617.308 .0319096
618.076 .0318844
618.843 .0318597
619.609 .0318355
620.375 .0318119
621.141 .0317889
621.907 .0317663
622.672 .0317442
623.437 .0317226
624.202 .0317012
624.966 .0316801
625.730 .0316592
626.493 .0316384
627.257 .0316177
628.020 .0315970
628.782 .0315763
629.545 .0315554
630.307 .0315345
631.068 .0315133
631.830 .0314919
632.591 .0314704
633.352 .0314488
634.112 .0314270
634.872 .0314051
635.632 .0313831
636.392 .0313610
637.151 .0313387
637.910 .0313163
638.668 .0312937
639.427 .0312709
640.185 .0312479
640.943 .0312248
641.700 .0312016
642.457 .0311786
643.214 .0311557
643.971 .0311329
644.727 .0311103
645.483 .0310880
646.239 .0310659
646.994 .0310440
647.750 .0310223
648.505 .0310006
649.259 .0309789
650.014 .0309572
650.768 .0309353
651.521 .0309134
652.275 .0308913
653.028 .0308690
653.781 .0308465
654.534 .0308237
655.286 .0308006
656.039 .0307773
656.791 .0307536
657.542 .0307297
658.294 .0307053
659.045 .0306806
659.796 .0306557
660.546 .0306305
661.297 .0306052
662.047 .0305798
662.796 .0305543
663.546 .0305286
664.295 .0305030
665.044 .0304773
665.793 .0304517
666.542 .0304260
667.290 .0304004
668.038 .0303748
668.786 .0303493
669.533 .0303240
670.281 .0302987
671.028 .0302736
671.774 .0302486
672.521 .0302238
673.267 .0301991
674.013 .0301744
674.759 .0301499
675.505 .0301254
676.250 .0301009
676.995 .0300764
677.740 .0300519
678.484 .0300274
679.229 .0300030
679.973 .0299787
680.717 .0299547
681.460 .0299309
682.204 .0299074
682.947 .0298842
683.690 .0298614
684.433 .0298390
685.175 .0298169
685.917 .0297952
686.659 .0297740
687.401 .0297531
688.142 .0297326
688.884 .0297126
689.625 .0296929
690.365 .0296737
691.106 .0296549
691.846 .0296363
692.586 .0296180
693.326 .0295998
694.066 .0295818
694.805 .0295637
695.545 .0295457
696.284 .0295275
697.022 .0295092
697.761 .0294907
698.499 .0294721
699.237 .0294532
699.975 .0294342
700.713 .0294150
701.450 .0293957
702.187 .0293763
702.924 .0293567
703.661 .0293371
704.397 .0293174
705.133 .0292978
705.869 .0292782
706.605 .0292587
707.341 .0292393
708.076 .0292202
708.811 .0292012
709.546 .0291824
710.281 .0291638
711.015 .0291454
711.749 .0291272
712.483 .0291091
713.217 .0290913
713.950 .0290736
714.684 .0290561
715.417 .0290389
716.150 .0290218
716.882 .0290050
717.615 .0289884
718.347 .0289718
719.079 .0289554
719.811 .0289389
720.542 .0289225
721.273 .0289062
722.005 .0288900
722.735 .0288739
723.466 .0288580
724.196 .0288423
724.927 .0288269
725.656 .0288118
726.386 .0287971
727.116 .0287827
727.845 .0287686
728.574 .0287548
729.303 .0287414
730.031 .0287283
730.760 .0287155
731.488 .0287031
732.216 .0286908
732.944 .0286788
733.671 .0286669
734.398 .0286552
735.125 .0286437
735.852 .0286324
736.579 .0286212
737.305 .0286102
738.031 .0285992
738.757 .0285884
739.483 .0285775
740.208 .0285666
740.933 .0285557
741.658 .0285446
742.383 .0285336
743.108 .0285225
743.832 .0285113
744.556 .0285001
745.280 .0284890
746.004 .0284778
746.727 .0284666
747.450 .0284553
748.173 .0284439
748.896 .0284325
749.618 .0284210
750.340 .0284094
751.062 .0283978
751.784 .0283862
752.506 .0283745
753.227 .0283627
753.948 .0283509
754.669 .0283390
755.389 .0283269
756.110 .0283145
756.830 .0283020
757.550 .0282893
758.269 .0282764
758.989 .0282633
759.708 .0282500
760.427 .0282366
761.146 .0282231
761.864 .0282094
762.582 .0281955
763.300 .0281815
764.018 .0281673
764.736 .0281529
765.453 .0281384
766.170 .0281238
766.887 .0281091
767.603 .0280943
768.320 .0280797
769.036 .0280651
769.751 .0280506
770.467 .0280363
771.182 .0280222
771.897 .0280083
772.612 .0279946
773.327 .0279812
774.041 .0279680
774.755 .0279550
775.469 .0279424
776.183 .0279300
776.896 .0279179
777.609 .0279061
778.322 .0278947
779.035 .0278836
779.747 .0278730
780.459 .0278628
781.171 .0278529
781.882 .0278434
782.594 .0278341
783.305 .0278249
784.016 .0278158
784.726 .0278065
785.436 .0277971
786.147 .0277821
786.856 .0277719
787.566 .0277614
788.275 .0277506
788.984 .0277394
789.693 .0277277
790.401 .0277156
791.110 .0277030
791.818 .0276898
792.525 .0276761
793.233 .0276618
793.940 .0276470
794.647 .0276380
795.353 .0276229
796.060 .0276075
796.766 .0275920
797.472 .0275764
798.177 .0275606
798.883 .0275448
799.588 .0275288
800.292 .0275128
800.997 .0274967
801.701 .0274807
802.405 .0274647
803.109 .0274488
803.812 .0274330
804.515 .0274171
805.218 .0274012
805.921 .0273852
806.623 .0273691
807.325 .0273529
808.027 .0273365
808.728 .0273200
809.429 .0273034
810.130 .0272868
810.831 .0272700
811.531 .0272533
812.231 .0272364
812.931 .0272194
813.630 .0272023
814.330 .0271852
815.029 .0271681
815.727 .0271510
816.426 .0271341
817.124 .0271175
817.821 .0271013
818.519 .0270854
819.216 .0270701
819.913 .0270553
820.609 .0270411
821.306 .0270275
822.002 .0270147
822.697 .0270025
823.393 .0269911
824.088 .0269805
824.783 .0269707
825.477 .0269617
826.171 .0269535
826.865 .0269460
827.559 .0269393
828.252 .0269333
828.945 .0269279
829.638 .0269231
830.330 .0269188
831.023 .0269148
831.714 .0269111
832.406 .0269077
833.097 .0269044
833.788 .0269012
834.479 .0268980
835.169 .0268949
835.859 .0268918
836.548 .0268886
837.238 .0268854
837.927 .0268821
838.615 .0268786
839.304 .0268750
839.992 .0268713
840.680 .0268674
841.367 .0268634
842.054 .0268592
842.741 .0268549
843.428 .0268504
844.114 .0268458
844.800 .0268410
845.485 .0268360
846.170 .0268308
846.855 .0268252
847.540 .0268194
848.224 .0268133
848.908 .0268069
849.592 .0268002
850.275 .0267930
850.958 .0267856
851.641 .0267777
852.323 .0267695
853.005 .0267609
853.687 .0267519
854.368 .0267425
855.049 .0267329
855.730 .0267230
856.410 .0267128
857.090 .0267026
857.769 .0266922
858.449 .0266817
859.128 .0266712
859.806 .0266606
860.485 .0266501
861.163 .0266397
861.840 .0266294
862.518 .0266192
863.195 .0266092
863.871 .0265994
864.548 .0265899
865.224 .0265805
865.899 .0265715
866.574 .0265626
867.249 .0265540
867.924 .0265456
868.598 .0265374
869.272 .0265294
869.946 .0265216
870.619 .0265140
871.292 .0265067
871.964 .0264995
872.636 .0264926
873.308 .0264859
873.979 .0264793
874.651 .0264730
875.321 .0264667
875.992 .0264606
876.662 .0264546
877.331 .0264488
878.001 .0264431
878.670 .0264375
879.338 .0264321
880.007 .0264269
880.675 .0264219
881.342 .0264173
882.009 .0264130
882.676 .0264091
883.343 .0264055
884.009 .0264023
884.675 .0263993
885.340 .0263967
886.005 .0263943
886.670 .0263921
887.334 .0263902
887.998 .0263885
888.662 .0263872
889.325 .0263860
889.988 .0263851
890.650 .0263844
891.312 .0263837
891.974 .0263830
892.636 .0263822
893.297 .0263813
893.957 .0263802
894.618 .0263790
895.278 .0263775
895.937 .0263757
896.596 .0263736
897.255 .0263710
897.914 .0263679
898.572 .0263641
899.230 .0263596
899.887 .0263543
900.544 .0263483
901.201 .0263415
901.857 .0263279
902.513 .0263193
903.168 .0263100
903.823 .0263000
904.478 .0262893
905.132 .0262776
905.786 .0262652
906.440 .0262519
907.093 .0262378
907.746 .0262231
908.399 .0262080
909.051 .0261925
909.703 .0261769
910.354 .0261686
911.005 .0261530
911.656 .0261374
912.306 .0261217
912.956 .0261059
913.605 .0260901
914.254 .0260741
914.903 .0260581
915.551 .0260420
916.199 .0260258
916.847 .0260096
917.494 .0259935
918.141 .0259773
918.788 .0259611
919.434 .0259448
920.079 .0259283
920.725 .0259116
921.370 .0258946
922.014 .0258772
922.658 .0258595
923.302 .0258414
923.946 .0258229
924.589 .0258041
925.231 .0257850
925.873 .0257656
926.515 .0257458
927.157 .0257256
927.798 .0257052
928.439 .0256844
929.079 .0256633
929.719 .0256421
930.359 .0256208
930.998 .0255994
931.637 .0255780
932.275 .0255568
932.913 .0255356
933.551 .0255147
934.188 .0254940
934.825 .0254735
935.462 .0254533
936.098 .0254334
936.733 .0254138
937.369 .0253946
938.004 .0253757
938.638 .0253573
939.273 .0253393
939.907 .0253218
940.540 .0253047
941.173 .0252880
941.806 .0252717
942.438 .0252558
943.070 .0252401
943.702 .0252248
944.333 .0252097
944.964 .0251948
945.594 .0251799
946.224 .0251650
946.854 .0251501
947.483 .0251350
948.112 .0251199
948.741 .0251048
949.369 .0250896
949.996 .0250744
950.624 .0250592
951.251 .0250439
951.878 .0250286
952.504 .0250132
953.130 .0249977
953.755 .0249820
954.380 .0249662
955.005 .0249504
955.629 .0249346
956.253 .0249189
956.877 .0249034
957.500 .0248883
958.123 .0248734
958.746 .0248588
959.368 .0248445
959.990 .0248305
960.611 .0248167
961.232 .0248032
961.853 .0247899
962.473 .0247769
963.093 .0247642
963.712 .0247519
964.331 .0247400
964.950 .0247284
965.569 .0247171
966.187 .0247060
966.804 .0246952
967.422 .0246844
968.039 .0246738
968.655 .0246632
969.272 .0246526
969.887 .0246420
970.503 .0246313
971.118 .0246205
971.733 .0246096
972.347 .0245986
972.961 .0245873
973.575 .0245758
974.188 .0245641
974.801 .0245520
975.414 .0245398
976.026 .0245272
976.638 .0245145
977.250 .0245015
977.861 .0244884
978.472 .0244753
979.083 .0244621
979.693 .0244489
980.303 .0244357
980.912 .0244161
981.521 .0244034
982.130 .0243907
982.738 .0243782
983.346 .0243658
983.954 .0243537
984.562 .0243419
985.169 .0243305
985.775 .0243197
986.382 .0243096
986.988 .0243001
987.594 .0242914
988.199 .0242834
988.804 .0242761
989.409 .0242747
990.013 .0242683
990.617 .0242624
991.221 .0242572
991.824 .0242525
992.427 .0242485
993.030 .0242450
993.632 .0242421
994.234 .0242398
994.836 .0242379
995.438 .0242364
996.039 .0242352
996.640 .0242344
997.240 .0242338
997.840 .0242336
998.440 .0242337
999.040 .0242341
999.639 .0242348
1000.238 .0242359
1000.836 .0242372
1001.435 .0242388
1002.033 .0242406
1002.630 .0242425
1003.228 .0242445
1003.825 .0242465
1004.422 .0242486
1005.018 .0242508
1005.614 .0242532
1006.210 .0242557
1006.806 .0242583
1007.401 .0242611
1007.996 .0242639
1008.591 .0242669
1009.186 .0242700
1009.780 .0242733
1010.374 .0242767
1010.967 .0242805
1011.561 .0242846
1012.154 .0242890
1012.746 .0242938
1013.339 .0242990
1013.931 .0243045
1014.523 .0243103
1015.115 .0243163
1015.706 .0243223
1016.298 .0243285
1016.888 .0243347
1017.479 .0243412
1018.069 .0243478
1018.660 .0243548
1019.250 .0243622
1019.839 .0243699
1020.429 .0243780
1021.018 .0243865
1021.607 .0243953
1022.195 .0244045
1022.784 .0244141
1023.372 .0244242
1023.960 .0244348
1024.547 .0244461
1025.135 .0244581
1025.722 .0244708
1026.309 .0244842
1026.896 .0244981
1027.483 .0245124
1028.069 .0245271
1028.655 .0245418
1029.241 .0245566
1029.827 .0245714
1030.412 .0245863
1030.997 .0246012
1031.582 .0246163
1032.167 .0246315
1032.752 .0246468
1033.336 .0246622
1033.921 .0246777
1034.505 .0246931
1035.089 .0247084
1035.672 .0247233
1036.256 .0247378
1036.839 .0247519
1037.422 .0247657
1038.005 .0247791
1038.588 .0247921
1039.171 .0248047
1039.753 .0248169
1040.335 .0248286
1040.918 .0248397
1041.500 .0248501
1042.081 .0248598
1042.663 .0248686
1043.244 .0248766
1043.826 .0248839
1044.407 .0248904
1044.988 .0248964
1045.569 .0249019
1046.150 .0249071
1046.730 .0249120
1047.311 .0249167
1047.891 .0249213
1048.471 .0249257
1049.052 .0249300
1049.632 .0249341
1050.211 .0249380
1050.791 .0249418
1051.371 .0249455
1051.950 .0249493
1052.530 .0249531
1053.109 .0249571
1053.688 .0249612
1054.268 .0249655
1054.847 .0249699
1055.426 .0249745
1056.005 .0249793
1056.583 .0249841
1057.162 .0249890
1057.741 .0249941
1058.319 .0249994
1058.898 .0250049
1059.476 .0250107
1060.055 .0250170
1060.633 .0250235
1061.211 .0250304
1061.790 .0250377
1062.368 .0250454
1062.946 .0250534
1063.524 .0250618
1064.102 .0250704
1064.680 .0250794
1065.258 .0250886
1065.836 .0250980
1066.414 .0251077
1066.992 .0251176
1067.570 .0251278
1068.148 .0251381
1068.726 .0251487
1069.304 .0251596
1069.882 .0251707
1070.460 .0251822
1071.038 .0251939
1071.616 .0252059
1072.194 .0252181
1072.772 .0252306
1073.350 .0252432
1073.928 .0252559
1074.506 .0252686
1075.084 .0252811
1075.662 .0252935
1076.240 .0253057
1076.819 .0253176
1077.397 .0253293
1077.976 .0253408
1078.554 .0253519
1079.133 .0253627
1079.711 .0253731
1080.290 .0253833
1080.869 .0253931
1081.448 .0254024
1082.027 .0254112
1082.606 .0254195
1083.185 .0254273
1083.764 .0254345
1084.343 .0254413
1084.923 .0254477
1085.502 .0254539
1086.082 .0254600
1086.662 .0254657
1087.242 .0254713
1087.822 .0254767
1088.402 .0254820
1088.983 .0254871
1089.563 .0254922
1090.144 .0254973
1090.725 .0255027
1091.306 .0255085
1091.887 .0255149
1092.469 .0255220
1093.050 .0255299
1093.632 .0255386
1094.214 .0255480
1094.796 .0255581
1095.379 .0255689
1095.961 .0255805
1096.544 .0255929
1097.127 .0256061
1097.710 .0256201
1098.294 .0256349
1098.877 .0256506
1099.461 .0256671
1100.046 .0256844
1100.630 .0257022
1101.215 .0257205
1101.800 .0257392
1102.385 .0257584
1102.970 .0257778
1103.556 .0257978
1104.142 .0258182
1104.728 .0258393
1105.315 .0258609
1105.902 .0258832
1106.489 .0259061
1107.077 .0259295
1107.664 .0259533
1108.253 .0259773
1108.841 .0260015
1109.430 .0260259
1110.019 .0260503
1110.609 .0260749
1111.198 .0260998
1111.789 .0261250
1112.379 .0261506
1112.970 .0261764
1113.561 .0262022
1114.153 .0262281
1114.745 .0262538
1115.338 .0262793
1115.931 .0263046
1116.524 .0263300
1117.117 .0263555
1117.712 .0263815
1118.306 .0264082
1118.901 .0264360
1119.496 .0264649
1120.092 .0264952
1120.689 .0265271
1121.285 .0265605
1121.882 .0265955
1122.480 .0266318
1123.078 .0266696
1123.677 .0267089
1124.276 .0267496
1124.875 .0267917
1125.476 .0268356
1126.076 .0268812
1126.677 .0269284
1127.279 .0269772
1127.881 .0270277
1128.484 .0270795
1129.087 .0271001
1129.691 .0271537
1130.295 .0272081
1130.900 .0272632
1131.505 .0273191
1132.111 .0273760
1132.718 .0274339
1133.325 .0274929
1133.933 .0275533
1134.541 .0276192
1135.150 .0276851
1135.760 .0277467
1136.370 .0278070
1136.981 .0279697
1137.592 .0280328
1138.204 .0280881
1138.817 .0281353
1139.431 .0281851
1140.045 .0282364
1140.660 .0282835
1141.275 .0283327
1141.891 .0283969
1142.508 .0285709
1143.126 .0286037
1143.744 .0285165
1144.363 .0285280
1144.983 .0289747
