Measurement Sequence started on: 15-12-46-377
Integration time: 28
Scans to Average: 2 
>>>>>Begin Spectral Data<<<<<
432.689 .0000100
433.621 .0000100
434.552 .0000100
435.482 .0000100
436.410 .0000100
437.337 .0000100
438.262 .0262930
439.187 .0556178
440.110 .0920904
441.031 .1330975
441.952 .1056933
442.871 .1102636
443.789 .1145098
444.705 .1185020
445.621 .1222866
446.535 .1258994
447.447 .1279846
448.359 .1284029
449.269 .1267953
450.178 .1229365
451.086 .1169046
451.993 .1091635
452.898 .1004740
453.803 .0916951
454.706 .0835572
455.608 .0765088
456.508 .0706969
457.408 .0667907
458.306 .0638047
459.204 .0613863
460.100 .0593540
460.995 .0576107
461.888 .0560891
462.781 .0547452
463.673 .0535464
464.563 .0524678
465.452 .0514908
466.340 .0506005
467.228 .0497856
468.114 .0490379
468.999 .0483511
469.882 .0477191
470.765 .0471385
471.647 .0466064
472.528 .0461215
473.407 .0456815
474.286 .0452850
475.163 .0449309
476.040 .0446165
476.915 .0443393
477.790 .0440961
478.663 .0438840
479.535 .0437012
480.407 .0435451
481.277 .0434142
482.147 .0433067
483.015 .0432217
483.883 .0431577
484.749 .0431139
485.615 .0430887
486.479 .0430811
487.343 .0430889
488.206 .0431114
489.067 .0431471
489.928 .0431956
490.788 .0432571
491.647 .0433321
492.505 .0434214
493.362 .0435265
494.218 .0436481
495.073 .0437877
495.928 .0440621
496.781 .0442485
497.634 .0444529
498.486 .0446755
499.337 .0449170
500.187 .0451785
501.036 .0454628
501.884 .0457732
502.731 .0461144
503.578 .0464921
504.424 .0467579
505.268 .0472100
506.113 .0477139
506.956 .0482745
507.798 .0488971
508.640 .0495878
509.480 .0503544
510.320 .0512054
511.160 .0521508
511.998 .0532032
512.836 .0543771
513.672 .0556872
514.508 .0571520
515.344 .0587904
516.178 .0606216
517.012 .0626656
517.845 .0649409
518.677 .0674618
519.508 .0702404
520.339 .0732839
521.169 .0765933
521.998 .0801498
522.826 .0839238
523.654 .0878699
524.481 .0919312
525.307 .0960404
526.133 .1001184
526.958 .1040821
527.782 .1078502
528.605 .1113454
529.428 .1144981
530.250 .1172461
531.072 .1195472
531.892 .1213654
532.712 .1226752
533.532 .1234613
534.350 .1237159
535.168 .1234405
535.986 .1226428
536.802 .1213324
537.618 .1195206
538.434 .1172229
539.249 .1144748
540.063 .1113191
540.876 .1078102
541.689 .1040139
542.501 .1000036
543.313 .0958608
544.124 .0916691
544.934 .0875076
545.744 .0834487
546.553 .0795551
547.361 .0758798
548.169 .0724534
548.976 .0692976
549.783 .0664219
550.589 .0638238
551.395 .0614914
552.200 .0594045
553.004 .0575380
553.808 .0558668
554.611 .0543678
555.414 .0530188
556.216 .0517969
557.018 .0506835
557.819 .0496630
558.619 .0487214
559.419 .0478471
560.218 .0470314
561.017 .0462656
561.815 .0455433
562.613 .0448591
563.410 .0442071
564.207 .0435815
565.003 .0429787
565.799 .0423945
566.594 .0418260
567.388 .0412716
568.182 .0407302
568.976 .0402012
569.769 .0396853
570.562 .0391829
571.354 .0386946
572.145 .0382218
572.936 .0377658
573.727 .0373267
574.517 .0369050
575.307 .0365013
576.096 .0361153
576.885 .0357473
577.673 .0353974
578.461 .0350653
579.248 .0347511
580.035 .0344545
580.821 .0341753
581.607 .0339134
582.392 .0336688
583.177 .0334413
583.962 .0332304
584.746 .0330355
585.529 .0328559
586.313 .0326904
587.095 .0325384
587.878 .0323987
588.660 .0322706
589.441 .0321532
590.222 .0320459
591.003 .0319481
591.783 .0318594
592.563 .0317790
593.342 .0317061
594.121 .0316401
594.899 .0315800
595.678 .0315249
596.455 .0314742
597.233 .0314273
598.009 .0313838
598.786 .0313432
599.562 .0313054
600.338 .0312701
601.113 .0312371
601.888 .0311933
602.663 .0311641
603.437 .0311362
604.211 .0311095
604.984 .0310836
605.757 .0310584
606.530 .0310336
607.302 .0310092
608.074 .0309849
608.845 .0309608
609.616 .0309366
610.387 .0309242
611.158 .0308998
611.928 .0308753
612.697 .0308505
613.467 .0308255
614.236 .0308005
615.004 .0307753
615.773 .0307500
616.541 .0307246
617.308 .0306989
618.076 .0306729
618.843 .0306464
619.609 .0306193
620.375 .0305918
621.141 .0305636
621.907 .0305350
622.672 .0305060
623.437 .0304768
624.202 .0304474
624.966 .0304178
625.730 .0303881
626.493 .0303582
627.257 .0303281
628.020 .0302978
628.782 .0302672
629.545 .0302365
630.307 .0302057
631.068 .0301748
631.830 .0301441
632.591 .0301136
633.352 .0300836
634.112 .0300541
634.872 .0300254
635.632 .0299975
636.392 .0299707
637.151 .0299449
637.910 .0299203
638.668 .0298968
639.427 .0298745
640.185 .0298533
640.943 .0298332
641.700 .0298143
642.457 .0297964
643.214 .0297797
643.971 .0297643
644.727 .0297499
645.483 .0297367
646.239 .0297246
646.994 .0297135
647.750 .0297033
648.505 .0296940
649.259 .0296852
650.014 .0296769
650.768 .0296690
651.521 .0296613
652.275 .0296537
653.028 .0296462
653.781 .0296388
654.534 .0296314
655.286 .0296238
656.039 .0296161
656.791 .0296081
657.542 .0295997
658.294 .0295908
659.045 .0295812
659.796 .0295709
660.546 .0295596
661.297 .0295474
662.047 .0295344
662.796 .0295205
663.546 .0295058
664.295 .0294903
665.044 .0294742
665.793 .0294573
666.542 .0294399
667.290 .0294218
668.038 .0294031
668.786 .0293839
669.533 .0293640
670.281 .0293435
671.028 .0293225
671.774 .0293010
672.521 .0292791
673.267 .0292569
674.013 .0292344
674.759 .0292117
675.505 .0291888
676.250 .0291658
676.995 .0291428
677.740 .0291197
678.484 .0290967
679.229 .0290738
679.973 .0290508
680.717 .0290278
681.460 .0290049
682.204 .0289819
682.947 .0289590
683.690 .0289360
684.433 .0289130
685.175 .0288901
685.917 .0288672
686.659 .0288445
687.401 .0288219
688.142 .0287994
688.884 .0287770
689.625 .0287548
690.365 .0287325
691.106 .0287105
691.846 .0286885
692.586 .0286668
693.326 .0286453
694.066 .0286241
694.805 .0286034
695.545 .0285831
696.284 .0285635
697.022 .0285445
697.761 .0285263
698.499 .0285089
699.237 .0284923
699.975 .0284766
700.713 .0284619
701.450 .0284481
702.187 .0284352
702.924 .0284232
703.661 .0284120
704.397 .0284016
705.133 .0283918
705.869 .0283826
706.605 .0283740
707.341 .0283659
708.076 .0283582
708.811 .0283509
709.546 .0283438
710.281 .0283370
711.015 .0283303
711.749 .0283237
712.483 .0283171
713.217 .0283104
713.950 .0283036
714.684 .0282968
715.417 .0282899
716.150 .0282829
716.882 .0282759
717.615 .0282689
718.347 .0282619
719.079 .0282550
719.811 .0282481
720.542 .0282412
721.273 .0282343
722.005 .0282274
722.735 .0282206
723.466 .0282138
724.196 .0282070
724.927 .0282003
725.656 .0281935
726.386 .0281867
727.116 .0281799
727.845 .0281730
728.574 .0281659
729.303 .0281586
730.031 .0281510
730.760 .0281431
731.488 .0281349
732.216 .0281263
732.944 .0281172
733.671 .0281077
734.398 .0280976
735.125 .0280870
735.852 .0280758
736.579 .0280640
737.305 .0280517
738.031 .0280390
738.757 .0280257
739.483 .0280121
740.208 .0279981
740.933 .0279836
741.658 .0279688
742.383 .0279535
743.108 .0279378
743.832 .0279217
744.556 .0279051
745.280 .0278882
746.004 .0278709
746.727 .0278534
747.450 .0278354
748.173 .0278172
748.896 .0277985
749.618 .0277793
750.340 .0277595
751.062 .0277391
751.784 .0277179
752.506 .0276960
753.227 .0276733
753.948 .0276499
754.669 .0276259
755.389 .0276012
756.110 .0275759
756.830 .0275501
757.550 .0275237
758.269 .0274968
758.989 .0274696
759.708 .0274420
760.427 .0274142
761.146 .0273863
761.864 .0273584
762.582 .0273307
763.300 .0273032
764.018 .0272760
764.736 .0272492
765.453 .0272229
766.170 .0271973
766.887 .0271724
767.603 .0271483
768.320 .0271251
769.036 .0271029
769.751 .0270818
770.467 .0270617
771.182 .0270427
771.897 .0270248
772.612 .0270080
773.327 .0269924
774.041 .0269780
774.755 .0269647
775.469 .0269527
776.183 .0269420
776.896 .0269325
777.609 .0269243
778.322 .0269172
779.035 .0269111
779.747 .0269060
780.459 .0269017
781.171 .0268984
781.882 .0268958
782.594 .0268940
783.305 .0268929
784.016 .0268926
784.726 .0268930
785.436 .0268941
786.147 .0268981
786.856 .0269005
787.566 .0269033
788.275 .0269064
788.984 .0269099
789.693 .0269137
790.401 .0269178
791.110 .0269222
791.818 .0269267
792.525 .0269315
793.233 .0269363
793.940 .0269410
794.647 .0269431
795.353 .0269478
796.060 .0269524
796.766 .0269568
797.472 .0269610
798.177 .0269649
798.883 .0269685
799.588 .0269719
800.292 .0269750
800.997 .0269778
801.701 .0269802
802.405 .0269823
803.109 .0269840
803.812 .0269852
804.515 .0269860
805.218 .0269862
805.921 .0269859
806.623 .0269850
807.325 .0269836
808.027 .0269815
808.728 .0269789
809.429 .0269757
810.130 .0269718
810.831 .0269675
811.531 .0269625
812.231 .0269569
812.931 .0269507
813.630 .0269439
814.330 .0269365
815.029 .0269287
815.727 .0269205
816.426 .0269118
817.124 .0269027
817.821 .0268933
818.519 .0268834
819.216 .0268732
819.913 .0268626
820.609 .0268516
821.306 .0268403
822.002 .0268286
822.697 .0268167
823.393 .0268045
824.088 .0267921
824.783 .0267793
825.477 .0267663
826.171 .0267529
826.865 .0267391
827.559 .0267250
828.252 .0267104
828.945 .0266955
829.638 .0266803
830.330 .0266649
831.023 .0266491
831.714 .0266331
832.406 .0266168
833.097 .0266001
833.788 .0265830
834.479 .0265654
835.169 .0265473
835.859 .0265288
836.548 .0265098
837.238 .0264905
837.927 .0264707
838.615 .0264506
839.304 .0264302
839.992 .0264093
840.680 .0263881
841.367 .0263665
842.054 .0263445
842.741 .0263222
843.428 .0262996
844.114 .0262767
844.800 .0262535
845.485 .0262300
846.170 .0262063
846.855 .0261822
847.540 .0261577
848.224 .0261330
848.908 .0261079
849.592 .0260825
850.275 .0260570
850.958 .0260313
851.641 .0260055
852.323 .0259797
853.005 .0259539
853.687 .0259280
854.368 .0259021
855.049 .0258762
855.730 .0258504
856.410 .0258246
857.090 .0257990
857.769 .0257737
858.449 .0257487
859.128 .0257241
859.806 .0257001
860.485 .0256766
861.163 .0256538
861.840 .0256317
862.518 .0256103
863.195 .0255896
863.871 .0255699
864.548 .0255509
865.224 .0255329
865.899 .0255158
866.574 .0254997
867.249 .0254845
867.924 .0254703
868.598 .0254570
869.272 .0254446
869.946 .0254332
870.619 .0254227
871.292 .0254131
871.964 .0254044
872.636 .0253966
873.308 .0253897
873.979 .0253837
874.651 .0253786
875.321 .0253746
875.992 .0253715
876.662 .0253694
877.331 .0253682
878.001 .0253680
878.670 .0253687
879.338 .0253703
880.007 .0253729
880.675 .0253762
881.342 .0253805
882.009 .0253857
882.676 .0253917
883.343 .0253985
884.009 .0254061
884.675 .0254145
885.340 .0254235
886.005 .0254332
886.670 .0254436
887.334 .0254546
887.998 .0254663
888.662 .0254787
889.325 .0254918
889.988 .0255055
890.650 .0255198
891.312 .0255347
891.974 .0255499
892.636 .0255656
893.297 .0255815
893.957 .0255975
894.618 .0256136
895.278 .0256297
895.937 .0256457
896.596 .0256616
897.255 .0256772
897.914 .0256925
898.572 .0257072
899.230 .0257214
899.887 .0257350
900.544 .0257479
901.201 .0257600
901.857 .0257748
902.513 .0257847
903.168 .0257938
903.823 .0258020
904.478 .0258092
905.132 .0258155
905.786 .0258209
906.440 .0258251
907.093 .0258284
907.746 .0258306
908.399 .0258318
909.051 .0258321
909.703 .0258315
910.354 .0258286
911.005 .0258266
911.656 .0258238
912.306 .0258201
912.956 .0258156
913.605 .0258102
914.254 .0258040
914.903 .0257971
915.551 .0257895
916.199 .0257812
916.847 .0257722
917.494 .0257625
918.141 .0257521
918.788 .0257410
919.434 .0257291
920.079 .0257165
920.725 .0257031
921.370 .0256890
922.014 .0256743
922.658 .0256589
923.302 .0256428
923.946 .0256262
924.589 .0256090
925.231 .0255912
925.873 .0255727
926.515 .0255537
927.157 .0255341
927.798 .0255140
928.439 .0254934
929.079 .0254725
929.719 .0254513
930.359 .0254300
930.998 .0254084
931.637 .0253866
932.275 .0253646
932.913 .0253424
933.551 .0253200
934.188 .0252973
934.825 .0252745
935.462 .0252515
936.098 .0252284
936.733 .0252054
937.369 .0251823
938.004 .0251594
938.638 .0251365
939.273 .0251137
939.907 .0250910
940.540 .0250684
941.173 .0250457
941.806 .0250232
942.438 .0250007
943.070 .0249782
943.702 .0249558
944.333 .0249333
944.964 .0249109
945.594 .0248883
946.224 .0248656
946.854 .0248426
947.483 .0248192
948.112 .0247955
948.741 .0247714
949.369 .0247471
949.996 .0247224
950.624 .0246977
951.251 .0246728
951.878 .0246478
952.504 .0246227
953.130 .0245975
953.755 .0245723
954.380 .0245469
955.005 .0245214
955.629 .0244960
956.253 .0244705
956.877 .0244451
957.500 .0244199
958.123 .0243949
958.746 .0243703
959.368 .0243459
959.990 .0243219
960.611 .0242981
961.232 .0242746
961.853 .0242513
962.473 .0242281
963.093 .0242051
963.712 .0241822
964.331 .0241595
964.950 .0241371
965.569 .0241149
966.187 .0240929
966.804 .0240713
967.422 .0240498
968.039 .0240285
968.655 .0240074
969.272 .0239863
969.887 .0239654
970.503 .0239445
971.118 .0239237
971.733 .0239029
972.347 .0238822
972.961 .0238616
973.575 .0238410
974.188 .0238204
974.801 .0237998
975.414 .0237792
976.026 .0237585
976.638 .0237379
977.250 .0237173
977.861 .0236969
978.472 .0236767
979.083 .0236568
979.693 .0236373
980.303 .0236182
980.912 .0235918
981.521 .0235742
982.130 .0235573
982.738 .0235411
983.346 .0235255
983.954 .0235108
984.562 .0234969
985.169 .0234840
985.775 .0234721
986.382 .0234613
986.988 .0234517
987.594 .0234433
988.199 .0234361
988.804 .0234301
989.409 .0234305
990.013 .0234264
990.617 .0234234
991.221 .0234217
991.824 .0234212
992.427 .0234219
993.030 .0234237
993.632 .0234266
994.234 .0234307
994.836 .0234357
995.438 .0234418
996.039 .0234488
996.640 .0234567
997.240 .0234656
997.840 .0234754
998.440 .0234859
999.040 .0234973
999.639 .0235092
1000.238 .0235216
1000.836 .0235345
1001.435 .0235478
1002.033 .0235613
1002.630 .0235752
1003.228 .0235893
1003.825 .0236037
1004.422 .0236183
1005.018 .0236333
1005.614 .0236486
1006.210 .0236642
1006.806 .0236801
1007.401 .0236961
1007.996 .0237123
1008.591 .0237286
1009.186 .0237451
1009.780 .0237617
1010.374 .0237786
1010.967 .0237957
1011.561 .0238131
1012.154 .0238309
1012.746 .0238491
1013.339 .0238676
1013.931 .0238865
1014.523 .0239058
1015.115 .0239254
1015.706 .0239454
1016.298 .0239657
1016.888 .0239864
1017.479 .0240075
1018.069 .0240291
1018.660 .0240512
1019.250 .0240739
1019.839 .0240974
1020.429 .0241216
1021.018 .0241465
1021.607 .0241722
1022.195 .0241985
1022.784 .0242254
1023.372 .0242527
1023.960 .0242805
1024.547 .0243086
1025.135 .0243371
1025.722 .0243659
1026.309 .0243951
1026.896 .0244245
1027.483 .0244542
1028.069 .0244840
1028.655 .0245138
1029.241 .0245435
1029.827 .0245729
1030.412 .0246019
1030.997 .0246303
1031.582 .0246581
1032.167 .0246853
1032.752 .0247119
1033.336 .0247378
1033.921 .0247631
1034.505 .0247877
1035.089 .0248115
1035.672 .0248344
1036.256 .0248565
1036.839 .0248775
1037.422 .0248975
1038.005 .0249164
1038.588 .0249342
1039.171 .0249510
1039.753 .0249667
1040.335 .0249814
1040.918 .0249951
1041.500 .0250079
1042.081 .0250198
1042.663 .0250308
1043.244 .0250409
1043.826 .0250502
1044.407 .0250588
1044.988 .0250668
1045.569 .0250743
1046.150 .0250815
1046.730 .0250883
1047.311 .0250948
1047.891 .0251012
1048.471 .0251074
1049.052 .0251134
1049.632 .0251193
1050.211 .0251251
1050.791 .0251308
1051.371 .0251366
1051.950 .0251424
1052.530 .0251481
1053.109 .0251537
1053.688 .0251592
1054.268 .0251643
1054.847 .0251689
1055.426 .0251730
1056.005 .0251766
1056.583 .0251797
1057.162 .0251824
1057.741 .0251847
1058.319 .0251868
1058.898 .0251886
1059.476 .0251901
1060.055 .0251913
1060.633 .0251920
1061.211 .0251922
1061.790 .0251916
1062.368 .0251903
1062.946 .0251883
1063.524 .0251856
1064.102 .0251824
1064.680 .0251786
1065.258 .0251744
1065.836 .0251697
1066.414 .0251645
1066.992 .0251587
1067.570 .0251522
1068.148 .0251448
1068.726 .0251366
1069.304 .0251277
1069.882 .0251180
1070.460 .0251078
1071.038 .0250972
1071.616 .0250865
1072.194 .0250758
1072.772 .0250653
1073.350 .0250550
1073.928 .0250448
1074.506 .0250348
1075.084 .0250249
1075.662 .0250150
1076.240 .0250050
1076.819 .0249950
1077.397 .0249851
1077.976 .0249754
1078.554 .0249659
1079.133 .0249566
1079.711 .0249477
1080.290 .0249392
1080.869 .0249311
1081.448 .0249233
1082.027 .0249160
1082.606 .0249091
1083.185 .0249027
1083.764 .0248967
1084.343 .0248913
1084.923 .0248864
1085.502 .0248821
1086.082 .0248783
1086.662 .0248748
1087.242 .0248715
1087.822 .0248683
1088.402 .0248649
1088.983 .0248612
1089.563 .0248571
1090.144 .0248524
1090.725 .0248471
1091.306 .0248412
1091.887 .0248348
1092.469 .0248278
1093.050 .0248206
1093.632 .0248130
1094.214 .0248050
1094.796 .0247968
1095.379 .0247884
1095.961 .0247799
1096.544 .0247713
1097.127 .0247626
1097.710 .0247541
1098.294 .0247458
1098.877 .0247378
1099.461 .0247303
1100.046 .0247232
1100.630 .0247167
1101.215 .0247105
1101.800 .0247047
1102.385 .0246994
1102.970 .0246946
1103.556 .0246903
1104.142 .0246866
1104.728 .0246837
1105.315 .0246817
1105.902 .0246808
1106.489 .0246808
1107.077 .0246820
1107.664 .0246841
1108.253 .0246869
1108.841 .0246904
1109.430 .0246943
1110.019 .0246985
1110.609 .0247030
1111.198 .0247080
1111.789 .0247135
1112.379 .0247196
1112.970 .0247265
1113.561 .0247342
1114.153 .0247428
1114.745 .0247521
1115.338 .0247624
1115.931 .0247735
1116.524 .0247857
1117.117 .0247988
1117.712 .0248130
1118.306 .0248286
1118.901 .0248458
1119.496 .0248647
1120.092 .0248852
1120.689 .0249075
1121.285 .0249313
1121.882 .0249566
1122.480 .0249832
1123.078 .0250112
1123.677 .0250407
1124.276 .0250718
1124.875 .0251048
1125.476 .0251401
1126.076 .0251782
1126.677 .0252194
1127.279 .0252641
1127.881 .0253125
1128.484 .0253646
1129.087 .0253855
1129.691 .0254432
1130.295 .0255048
1130.900 .0255703
1131.505 .0256401
1132.111 .0257142
1132.718 .0257928
1133.325 .0258753
1133.933 .0259624
1134.541 .0260569
1135.150 .0261558
1135.760 .0262545
1136.370 .0263447
1136.981 .0262908
1137.592 .0264070
1138.204 .0265292
1138.817 .0266613
1139.431 .0268050
1140.045 .0269587
1140.660 .0271154
1141.275 .0272657
1141.891 .0274388
1142.508 .0276885
1143.126 .0278642
1143.744 .0279085
1144.363 .0277301
1144.983 .0286160
