Measurement Sequence started on: 15-12-46-377
Integration time: 28
Scans to Average: 2 
>>>>>Begin Spectral Data<<<<<
432.689 .0000100
433.621 .0000100
434.552 .0000100
435.482 .0000100
436.410 .0000100
437.337 .0000100
438.262 .0273721
439.187 .0579269
440.110 .0958404
441.031 .1384923
441.952 .1102667
442.871 .1150908
443.789 .1195776
444.705 .1237964
445.621 .1277951
446.535 .1316098
447.447 .1338274
448.359 .1343017
449.269 .1326648
450.178 .1286835
451.086 .1224414
451.993 .1144204
452.898 .1054116
453.803 .0963092
454.706 .0878702
455.608 .0805595
456.508 .0745280
457.408 .0704729
458.306 .0673702
459.204 .0648528
460.100 .0627368
460.995 .0609244
461.888 .0593494
462.781 .0579663
463.673 .0567406
464.563 .0556468
465.452 .0546644
466.340 .0537750
467.228 .0529632
468.114 .0522165
468.999 .0515252
469.882 .0508830
470.765 .0502849
471.647 .0497284
472.528 .0492128
473.407 .0487366
474.286 .0482985
475.163 .0478973
476.040 .0475306
476.915 .0471958
477.790 .0468910
478.663 .0466145
479.535 .0463655
480.407 .0461438
481.277 .0459494
482.147 .0457822
483.015 .0456421
483.883 .0455289
484.749 .0454419
485.615 .0453800
486.479 .0453424
487.343 .0453274
488.206 .0453346
489.067 .0453627
489.928 .0454110
490.788 .0454791
491.647 .0455665
492.505 .0456727
493.362 .0457975
494.218 .0459399
495.073 .0460996
495.928 .0463969
496.781 .0466004
497.634 .0468225
498.486 .0470636
499.337 .0473245
500.187 .0476067
501.036 .0479113
501.884 .0482409
502.731 .0485982
503.578 .0489870
504.424 .0492507
505.268 .0497032
506.113 .0502006
506.956 .0507482
507.798 .0513524
508.640 .0520190
509.480 .0527548
510.320 .0535684
511.160 .0544681
511.998 .0554640
512.836 .0565692
513.672 .0577982
514.508 .0591688
515.344 .0607026
516.178 .0624203
517.012 .0643448
517.845 .0664993
518.677 .0689051
519.508 .0715761
520.339 .0745205
521.169 .0777417
521.998 .0812229
522.826 .0849365
523.654 .0888415
524.481 .0928832
525.307 .0969991
526.133 .1011177
526.958 .1051570
527.782 .1090317
528.605 .1126642
529.428 .1159805
530.250 .1189121
531.072 .1214083
531.892 .1234271
532.712 .1249392
533.532 .1259299
534.350 .1263917
535.168 .1263220
535.986 .1257260
536.802 .1246133
537.618 .1229925
538.434 .1208759
539.249 .1182942
540.063 .1152870
540.876 .1119042
541.689 .1082086
542.501 .1042680
543.313 .1001575
544.124 .0959615
544.934 .0917648
545.744 .0876431
546.553 .0836659
547.361 .0798935
548.169 .0763656
548.976 .0731096
549.783 .0701362
550.589 .0674401
551.395 .0650070
552.200 .0628168
553.004 .0608421
553.808 .0590567
554.611 .0574405
555.414 .0559740
556.216 .0546383
557.018 .0534160
557.819 .0522921
558.619 .0512521
559.419 .0502846
560.218 .0493804
561.017 .0485310
561.815 .0477291
562.613 .0469698
563.410 .0462477
564.207 .0455583
565.003 .0448976
565.799 .0442614
566.594 .0436463
567.388 .0430507
568.182 .0424725
568.976 .0419104
569.769 .0413639
570.562 .0408336
571.354 .0403201
572.145 .0398243
572.936 .0393472
573.727 .0388890
574.517 .0384503
575.307 .0380321
576.096 .0376337
576.885 .0372552
577.673 .0368961
578.461 .0365559
579.248 .0362337
580.035 .0359287
580.821 .0356402
581.607 .0353677
582.392 .0351109
583.177 .0348698
583.962 .0346439
584.746 .0344329
585.529 .0342361
586.313 .0340529
587.095 .0338823
587.878 .0337233
588.660 .0335748
589.441 .0334362
590.222 .0333068
591.003 .0331861
591.783 .0330737
592.563 .0329693
593.342 .0328724
594.121 .0327828
594.899 .0326996
595.678 .0326224
596.455 .0325503
597.233 .0324828
598.009 .0324192
598.786 .0323588
599.562 .0323013
600.338 .0322461
601.113 .0321932
601.888 .0321208
602.663 .0320730
603.437 .0320271
604.211 .0319832
604.984 .0319411
605.757 .0319008
606.530 .0318622
607.302 .0318251
608.074 .0317895
608.845 .0317551
609.616 .0317222
610.387 .0317089
611.158 .0316779
611.928 .0316483
612.697 .0316202
613.467 .0315935
614.236 .0315682
615.004 .0315442
615.773 .0315215
616.541 .0314999
617.308 .0314792
618.076 .0314593
618.843 .0314400
619.609 .0314210
620.375 .0314023
621.141 .0313836
621.907 .0313649
622.672 .0313460
623.437 .0313270
624.202 .0313077
624.966 .0312881
625.730 .0312681
626.493 .0312476
627.257 .0312265
628.020 .0312045
628.782 .0311816
629.545 .0311577
630.307 .0311327
631.068 .0311065
631.830 .0310793
632.591 .0310512
633.352 .0310223
634.112 .0309927
634.872 .0309626
635.632 .0309320
636.392 .0309011
637.151 .0308699
637.910 .0308384
638.668 .0308067
639.427 .0307751
640.185 .0307436
640.943 .0307125
641.700 .0306818
642.457 .0306517
643.214 .0306223
643.971 .0305937
644.727 .0305659
645.483 .0305389
646.239 .0305128
646.994 .0304875
647.750 .0304629
648.505 .0304391
649.259 .0304159
650.014 .0303932
650.768 .0303711
651.521 .0303493
652.275 .0303278
653.028 .0303065
653.781 .0302855
654.534 .0302646
655.286 .0302439
656.039 .0302232
656.791 .0302025
657.542 .0301818
658.294 .0301608
659.045 .0301396
659.796 .0301181
660.546 .0300962
661.297 .0300740
662.047 .0300516
662.796 .0300290
663.546 .0300063
664.295 .0299836
665.044 .0299611
665.793 .0299388
666.542 .0299167
667.290 .0298950
668.038 .0298737
668.786 .0298530
669.533 .0298329
670.281 .0298134
671.028 .0297947
671.774 .0297767
672.521 .0297594
673.267 .0297428
674.013 .0297270
674.759 .0297119
675.505 .0296973
676.250 .0296834
676.995 .0296699
677.740 .0296569
678.484 .0296442
679.229 .0296317
679.973 .0296193
680.717 .0296070
681.460 .0295947
682.204 .0295824
682.947 .0295699
683.690 .0295574
684.433 .0295446
685.175 .0295315
685.917 .0295181
686.659 .0295042
687.401 .0294898
688.142 .0294749
688.884 .0294594
689.625 .0294432
690.365 .0294263
691.106 .0294088
691.846 .0293907
692.586 .0293720
693.326 .0293527
694.066 .0293328
694.805 .0293124
695.545 .0292915
696.284 .0292703
697.022 .0292487
697.761 .0292268
698.499 .0292047
699.237 .0291823
699.975 .0291597
700.713 .0291369
701.450 .0291140
702.187 .0290910
702.924 .0290679
703.661 .0290448
704.397 .0290216
705.133 .0289984
705.869 .0289752
706.605 .0289520
707.341 .0289287
708.076 .0289054
708.811 .0288819
709.546 .0288585
710.281 .0288350
711.015 .0288117
711.749 .0287884
712.483 .0287652
713.217 .0287421
713.950 .0287191
714.684 .0286961
715.417 .0286733
716.150 .0286505
716.882 .0286278
717.615 .0286051
718.347 .0285824
719.079 .0285597
719.811 .0285370
720.542 .0285144
721.273 .0284918
722.005 .0284692
722.735 .0284469
723.466 .0284249
724.196 .0284033
724.927 .0283824
725.656 .0283621
726.386 .0283426
727.116 .0283238
727.845 .0283058
728.574 .0282886
729.303 .0282721
730.031 .0282564
730.760 .0282414
731.488 .0282272
732.216 .0282138
732.944 .0282012
733.671 .0281896
734.398 .0281787
735.125 .0281687
735.852 .0281595
736.579 .0281509
737.305 .0281430
738.031 .0281356
738.757 .0281287
739.483 .0281223
740.208 .0281162
740.933 .0281105
741.658 .0281050
742.383 .0280999
743.108 .0280949
743.832 .0280901
744.556 .0280855
745.280 .0280810
746.004 .0280765
746.727 .0280722
747.450 .0280679
748.173 .0280636
748.896 .0280593
749.618 .0280549
750.340 .0280504
751.062 .0280458
751.784 .0280410
752.506 .0280361
753.227 .0280312
753.948 .0280261
754.669 .0280209
755.389 .0280156
756.110 .0280101
756.830 .0280045
757.550 .0279986
758.269 .0279925
758.989 .0279861
759.708 .0279795
760.427 .0279725
761.146 .0279652
761.864 .0279574
762.582 .0279492
763.300 .0279407
764.018 .0279316
764.736 .0279222
765.453 .0279123
766.170 .0279020
766.887 .0278912
767.603 .0278800
768.320 .0278684
769.036 .0278564
769.751 .0278440
770.467 .0278313
771.182 .0278182
771.897 .0278049
772.612 .0277914
773.327 .0277778
774.041 .0277640
774.755 .0277501
775.469 .0277360
776.183 .0277219
776.896 .0277078
777.609 .0276936
778.322 .0276796
779.035 .0276657
779.747 .0276520
780.459 .0276386
781.171 .0276253
781.882 .0276124
782.594 .0275996
783.305 .0275869
784.016 .0275742
784.726 .0275616
785.436 .0275489
786.147 .0275295
786.856 .0275163
787.566 .0275028
788.275 .0274890
788.984 .0274748
789.693 .0274601
790.401 .0274449
791.110 .0274291
791.818 .0274127
792.525 .0273957
793.233 .0273781
793.940 .0273599
794.647 .0273486
795.353 .0273294
796.060 .0273098
796.766 .0272896
797.472 .0272688
798.177 .0272476
798.883 .0272259
799.588 .0272038
800.292 .0271814
800.997 .0271589
801.701 .0271362
802.405 .0271135
803.109 .0270908
803.812 .0270682
804.515 .0270457
805.218 .0270234
805.921 .0270012
806.623 .0269793
807.325 .0269575
808.027 .0269360
808.728 .0269149
809.429 .0268941
810.130 .0268738
810.831 .0268540
811.531 .0268348
812.231 .0268161
812.931 .0267981
813.630 .0267808
814.330 .0267641
815.029 .0267482
815.727 .0267330
816.426 .0267185
817.124 .0267049
817.821 .0266922
818.519 .0266803
819.216 .0266694
819.913 .0266594
820.609 .0266504
821.306 .0266422
822.002 .0266351
822.697 .0266289
823.393 .0266237
824.088 .0266196
824.783 .0266164
825.477 .0266141
826.171 .0266129
826.865 .0266125
827.559 .0266131
828.252 .0266145
828.945 .0266168
829.638 .0266200
830.330 .0266240
831.023 .0266288
831.714 .0266343
832.406 .0266405
833.097 .0266472
833.788 .0266544
834.479 .0266620
835.169 .0266698
835.859 .0266779
836.548 .0266861
837.238 .0266945
837.927 .0267029
838.615 .0267114
839.304 .0267199
839.992 .0267282
840.680 .0267364
841.367 .0267442
842.054 .0267518
842.741 .0267590
843.428 .0267658
844.114 .0267722
844.800 .0267781
845.485 .0267835
846.170 .0267883
846.855 .0267925
847.540 .0267960
848.224 .0267986
848.908 .0268003
849.592 .0268012
850.275 .0268011
850.958 .0268001
851.641 .0267983
852.323 .0267957
853.005 .0267924
853.687 .0267884
854.368 .0267836
855.049 .0267781
855.730 .0267719
856.410 .0267650
857.090 .0267575
857.769 .0267495
858.449 .0267411
859.128 .0267323
859.806 .0267233
860.485 .0267141
861.163 .0267048
861.840 .0266953
862.518 .0266858
863.195 .0266760
863.871 .0266662
864.548 .0266562
865.224 .0266461
865.899 .0266359
866.574 .0266255
867.249 .0266150
867.924 .0266043
868.598 .0265934
869.272 .0265823
869.946 .0265709
870.619 .0265592
871.292 .0265472
871.964 .0265350
872.636 .0265224
873.308 .0265096
873.979 .0264965
874.651 .0264832
875.321 .0264695
875.992 .0264556
876.662 .0264413
877.331 .0264266
878.001 .0264117
878.670 .0263964
879.338 .0263808
880.007 .0263649
880.675 .0263488
881.342 .0263326
882.009 .0263163
882.676 .0262999
883.343 .0262834
884.009 .0262670
884.675 .0262506
885.340 .0262342
886.005 .0262179
886.670 .0262016
887.334 .0261855
887.998 .0261694
888.662 .0261535
889.325 .0261376
889.988 .0261218
890.650 .0261062
891.312 .0260906
891.974 .0260750
892.636 .0260595
893.297 .0260439
893.957 .0260282
894.618 .0260123
895.278 .0259963
895.937 .0259800
896.596 .0259633
897.255 .0259462
897.914 .0259287
898.572 .0259106
899.230 .0258919
899.887 .0258726
900.544 .0258528
901.201 .0258322
901.857 .0257986
902.513 .0257764
903.168 .0257537
903.823 .0257303
904.478 .0257062
905.132 .0256816
905.786 .0256562
906.440 .0256303
907.093 .0256039
907.746 .0255770
908.399 .0255498
909.051 .0255223
909.703 .0254947
910.354 .0254806
911.005 .0254531
911.656 .0254257
912.306 .0253983
912.956 .0253711
913.605 .0253441
914.254 .0253174
914.903 .0252911
915.551 .0252653
916.199 .0252399
916.847 .0252151
917.494 .0251909
918.141 .0251671
918.788 .0251437
919.434 .0251208
920.079 .0250983
920.725 .0250763
921.370 .0250546
922.014 .0250334
922.658 .0250128
923.302 .0249926
923.946 .0249730
924.589 .0249539
925.231 .0249353
925.873 .0249173
926.515 .0248997
927.157 .0248825
927.798 .0248659
928.439 .0248497
929.079 .0248341
929.719 .0248191
930.359 .0248047
930.998 .0247910
931.637 .0247780
932.275 .0247657
932.913 .0247540
933.551 .0247431
934.188 .0247330
934.825 .0247238
935.462 .0247155
936.098 .0247083
936.733 .0247023
937.369 .0246974
938.004 .0246937
938.638 .0246911
939.273 .0246898
939.907 .0246896
940.540 .0246905
941.173 .0246926
941.806 .0246958
942.438 .0247001
943.070 .0247055
943.702 .0247119
944.333 .0247193
944.964 .0247276
945.594 .0247366
946.224 .0247463
946.854 .0247564
947.483 .0247669
948.112 .0247778
948.741 .0247889
949.369 .0248003
949.996 .0248119
950.624 .0248238
951.251 .0248357
951.878 .0248477
952.504 .0248596
953.130 .0248713
953.755 .0248829
954.380 .0248942
955.005 .0249051
955.629 .0249158
956.253 .0249262
956.877 .0249364
957.500 .0249462
958.123 .0249559
958.746 .0249653
959.368 .0249744
959.990 .0249834
960.611 .0249921
961.232 .0250007
961.853 .0250090
962.473 .0250172
963.093 .0250253
963.712 .0250334
964.331 .0250415
964.950 .0250495
965.569 .0250577
966.187 .0250658
966.804 .0250739
967.422 .0250819
968.039 .0250898
968.655 .0250975
969.272 .0251050
969.887 .0251123
970.503 .0251193
971.118 .0251261
971.733 .0251328
972.347 .0251392
972.961 .0251455
973.575 .0251515
974.188 .0251570
974.801 .0251622
975.414 .0251668
976.026 .0251707
976.638 .0251740
977.250 .0251767
977.861 .0251787
978.472 .0251800
979.083 .0251809
979.693 .0251811
980.303 .0251806
980.912 .0251771
981.521 .0251750
982.130 .0251722
982.738 .0251687
983.346 .0251646
983.954 .0251601
984.562 .0251553
985.169 .0251503
985.775 .0251452
986.382 .0251402
986.988 .0251351
987.594 .0251301
988.199 .0251251
988.804 .0251201
989.409 .0251181
990.013 .0251132
990.617 .0251084
991.221 .0251037
991.824 .0250992
992.427 .0250947
993.030 .0250905
993.632 .0250863
994.234 .0250821
994.836 .0250779
995.438 .0250736
996.039 .0250691
996.640 .0250644
997.240 .0250596
997.840 .0250547
998.440 .0250497
999.040 .0250446
999.639 .0250395
1000.238 .0250342
1000.836 .0250288
1001.435 .0250231
1002.033 .0250172
1002.630 .0250109
1003.228 .0250043
1003.825 .0249973
1004.422 .0249899
1005.018 .0249821
1005.614 .0249740
1006.210 .0249656
1006.806 .0249568
1007.401 .0249476
1007.996 .0249380
1008.591 .0249278
1009.186 .0249172
1009.780 .0249062
1010.374 .0248947
1010.967 .0248828
1011.561 .0248705
1012.154 .0248580
1012.746 .0248453
1013.339 .0248325
1013.931 .0248196
1014.523 .0248067
1015.115 .0247938
1015.706 .0247810
1016.298 .0247683
1016.888 .0247558
1017.479 .0247435
1018.069 .0247314
1018.660 .0247196
1019.250 .0247080
1019.839 .0246966
1020.429 .0246855
1021.018 .0246747
1021.607 .0246640
1022.195 .0246535
1022.784 .0246431
1023.372 .0246329
1023.960 .0246228
1024.547 .0246127
1025.135 .0246028
1025.722 .0245930
1026.309 .0245832
1026.896 .0245735
1027.483 .0245638
1028.069 .0245542
1028.655 .0245447
1029.241 .0245353
1029.827 .0245259
1030.412 .0245165
1030.997 .0245072
1031.582 .0244978
1032.167 .0244884
1032.752 .0244789
1033.336 .0244693
1033.921 .0244596
1034.505 .0244496
1035.089 .0244395
1035.672 .0244292
1036.256 .0244186
1036.839 .0244078
1037.422 .0243967
1038.005 .0243854
1038.588 .0243738
1039.171 .0243621
1039.753 .0243501
1040.335 .0243379
1040.918 .0243255
1041.500 .0243129
1042.081 .0243002
1042.663 .0242872
1043.244 .0242741
1043.826 .0242609
1044.407 .0242475
1044.988 .0242340
1045.569 .0242204
1046.150 .0242067
1046.730 .0241928
1047.311 .0241788
1047.891 .0241646
1048.471 .0241503
1049.052 .0241359
1049.632 .0241215
1050.211 .0241070
1050.791 .0240925
1051.371 .0240781
1051.950 .0240639
1052.530 .0240499
1053.109 .0240362
1053.688 .0240227
1054.268 .0240096
1054.847 .0239969
1055.426 .0239846
1056.005 .0239729
1056.583 .0239616
1057.162 .0239510
1057.741 .0239409
1058.319 .0239314
1058.898 .0239226
1059.476 .0239145
1060.055 .0239071
1060.633 .0239003
1061.211 .0238942
1061.790 .0238887
1062.368 .0238840
1062.946 .0238799
1063.524 .0238765
1064.102 .0238735
1064.680 .0238710
1065.258 .0238689
1065.836 .0238671
1066.414 .0238655
1066.992 .0238640
1067.570 .0238627
1068.148 .0238617
1068.726 .0238609
1069.304 .0238604
1069.882 .0238603
1070.460 .0238608
1071.038 .0238618
1071.616 .0238634
1072.194 .0238654
1072.772 .0238679
1073.350 .0238708
1073.928 .0238740
1074.506 .0238775
1075.084 .0238812
1075.662 .0238851
1076.240 .0238893
1076.819 .0238937
1077.397 .0238985
1077.976 .0239034
1078.554 .0239086
1079.133 .0239140
1079.711 .0239196
1080.290 .0239254
1080.869 .0239317
1081.448 .0239386
1082.027 .0239461
1082.606 .0239544
1083.185 .0239638
1083.764 .0239744
1084.343 .0239863
1084.923 .0239995
1085.502 .0240141
1086.082 .0240301
1086.662 .0240474
1087.242 .0240660
1087.822 .0240860
1088.402 .0241071
1088.983 .0241293
1089.563 .0241526
1090.144 .0241769
1090.725 .0242020
1091.306 .0242280
1091.887 .0242546
1092.469 .0242820
1093.050 .0243100
1093.632 .0243386
1094.214 .0243680
1094.796 .0243984
1095.379 .0244296
1095.961 .0244618
1096.544 .0244950
1097.127 .0245294
1097.710 .0245646
1098.294 .0246008
1098.877 .0246377
1099.461 .0246754
1100.046 .0247138
1100.630 .0247528
1101.215 .0247923
1101.800 .0248324
1102.385 .0248729
1102.970 .0249135
1103.556 .0249541
1104.142 .0249947
1104.728 .0250350
1105.315 .0250751
1105.902 .0251150
1106.489 .0251550
1107.077 .0251953
1107.664 .0252361
1108.253 .0252777
1108.841 .0253204
1109.430 .0253643
1110.019 .0254093
1110.609 .0254553
1111.198 .0255024
1111.789 .0255506
1112.379 .0255999
1112.970 .0256503
1113.561 .0257018
1114.153 .0257544
1114.745 .0258081
1115.338 .0258628
1115.931 .0259185
1116.524 .0259751
1117.117 .0260324
1117.712 .0260905
1118.306 .0261491
1118.901 .0262084
1119.496 .0262686
1120.092 .0263295
1120.689 .0263913
1121.285 .0264540
1121.882 .0265175
1122.480 .0265818
1123.078 .0266472
1123.677 .0267132
1124.276 .0267801
1124.875 .0268478
1125.476 .0269160
1126.076 .0269849
1126.677 .0270543
1127.279 .0271246
1127.881 .0271959
1128.484 .0272687
1129.087 .0273033
1129.691 .0273779
1130.295 .0274546
1130.900 .0275337
1131.505 .0276157
1132.111 .0277014
1132.718 .0277916
1133.325 .0278883
1133.933 .0279933
1134.541 .0280922
1135.150 .0282151
1135.760 .0283395
1136.370 .0285047
1136.981 .0283420
1137.592 .0284527
1138.204 .0285799
1138.817 .0287188
1139.431 .0288659
1140.045 .0290414
1140.660 .0292337
1141.275 .0294791
1141.891 .0297755
1142.508 .0296715
1143.126 .0304052
1143.744 .0305148
1144.363 .0317281
1144.983 .0322259
