Measurement Sequence started on: 15-12-46-377
Integration time: 28
Scans to Average: 2 
>>>>>Begin Spectral Data<<<<<
432.689 .0000100
433.621 .0000100
434.552 .0000100
435.482 .0000100
436.410 .0000100
437.337 .0000100
438.262 .0276675
439.187 .0587171
440.110 .0974171
441.031 .1411244
441.952 .1133152
442.871 .1183158
443.789 .1229627
444.705 .1273283
445.621 .1314632
446.535 .1354074
447.447 .1377329
448.359 .1382845
449.269 .1366793
450.178 .1326693
451.086 .1263334
451.993 .1181531
452.898 .1089287
453.803 .0995719
454.706 .0908591
455.608 .0832767
456.508 .0769898
457.408 .0727140
458.306 .0694244
459.204 .0667506
460.100 .0645043
460.995 .0625780
461.888 .0609022
462.781 .0594291
463.673 .0581212
464.563 .0569527
465.452 .0559017
466.340 .0549505
467.228 .0540850
468.114 .0532952
468.999 .0525726
469.882 .0519109
470.765 .0513045
471.647 .0507498
472.528 .0502432
473.407 .0497812
474.286 .0493606
475.163 .0489788
476.040 .0486334
476.915 .0483216
477.790 .0480406
478.663 .0477887
479.535 .0475648
480.407 .0473680
481.277 .0471973
482.147 .0470527
483.015 .0469331
483.883 .0468382
484.749 .0467675
485.615 .0467204
486.479 .0466967
487.343 .0466965
488.206 .0467200
489.067 .0467675
489.928 .0468392
490.788 .0469357
491.647 .0470565
492.505 .0472011
493.362 .0473690
494.218 .0475592
495.073 .0477706
495.928 .0481595
496.781 .0484191
497.634 .0486979
498.486 .0489959
499.337 .0493135
500.187 .0496517
501.036 .0500117
501.884 .0503950
502.731 .0508038
503.578 .0512403
504.424 .0515129
505.268 .0520015
506.113 .0525272
506.956 .0530944
507.798 .0537101
508.640 .0543843
509.480 .0551294
510.320 .0559596
511.160 .0568928
511.998 .0579476
512.836 .0591445
513.672 .0605026
514.508 .0620442
515.344 .0637904
516.178 .0657641
517.012 .0679865
517.845 .0704803
518.677 .0732652
519.508 .0763570
520.339 .0797619
521.169 .0834809
521.998 .0874871
522.826 .0917413
523.654 .0961806
524.481 .1007358
525.307 .1053233
526.133 .1098520
526.958 .1142272
527.782 .1183614
528.605 .1221706
529.428 .1255830
530.250 .1285329
531.072 .1309800
531.892 .1328877
532.712 .1342369
533.532 .1350125
534.350 .1352147
535.168 .1348475
535.986 .1339195
536.802 .1324381
537.618 .1304169
538.434 .1278692
539.249 .1248340
540.063 .1213596
540.876 .1175149
541.689 .1133747
542.501 .1090260
543.313 .1045585
544.124 .1000646
544.934 .0956250
545.744 .0913133
546.553 .0871887
547.361 .0833017
548.169 .0796781
548.976 .0763361
549.783 .0732771
550.589 .0704965
551.395 .0679751
552.200 .0656884
553.004 .0636085
553.808 .0617122
554.611 .0599773
555.414 .0583872
556.216 .0569264
557.018 .0555811
557.819 .0543397
558.619 .0531914
559.419 .0521247
560.218 .0511307
561.017 .0501993
561.815 .0493233
562.613 .0484958
563.410 .0477115
564.207 .0469654
565.003 .0462532
565.799 .0455714
566.594 .0449168
567.388 .0442868
568.182 .0436785
568.976 .0430896
569.769 .0425186
570.562 .0419645
571.354 .0414274
572.145 .0409077
572.936 .0404065
573.727 .0399246
574.517 .0394631
575.307 .0390223
576.096 .0386023
576.885 .0382036
577.673 .0378262
578.461 .0374697
579.248 .0371339
580.035 .0368184
580.821 .0365227
581.607 .0362463
582.392 .0359888
583.177 .0357496
583.962 .0355278
584.746 .0353224
585.529 .0351323
586.313 .0349561
587.095 .0347930
587.878 .0346417
588.660 .0345013
589.441 .0343708
590.222 .0342493
591.003 .0341361
591.783 .0340306
592.563 .0339324
593.342 .0338407
594.121 .0337552
594.899 .0336751
595.678 .0335999
596.455 .0335289
597.233 .0334615
598.009 .0333973
598.786 .0333357
599.562 .0332764
600.338 .0332190
601.113 .0331632
601.888 .0330832
602.663 .0330308
603.437 .0329795
604.211 .0329293
604.984 .0328798
605.757 .0328312
606.530 .0327832
607.302 .0327360
608.074 .0326896
608.845 .0326442
609.616 .0326000
610.387 .0325813
611.158 .0325394
611.928 .0324988
612.697 .0324598
613.467 .0324222
614.236 .0323861
615.004 .0323514
615.773 .0323181
616.541 .0322860
617.308 .0322553
618.076 .0322257
618.843 .0321972
619.609 .0321697
620.375 .0321431
621.141 .0321173
621.907 .0320921
622.672 .0320675
623.437 .0320432
624.202 .0320191
624.966 .0319951
625.730 .0319710
626.493 .0319467
627.257 .0319220
628.020 .0318969
628.782 .0318713
629.545 .0318454
630.307 .0318191
631.068 .0317925
631.830 .0317659
632.591 .0317393
633.352 .0317127
634.112 .0316862
634.872 .0316598
635.632 .0316333
636.392 .0316068
637.151 .0315802
637.910 .0315535
638.668 .0315269
639.427 .0315005
640.185 .0314743
640.943 .0314487
641.700 .0314236
642.457 .0313992
643.214 .0313754
643.971 .0313521
644.727 .0313293
645.483 .0313068
646.239 .0312846
646.994 .0312624
647.750 .0312404
648.505 .0312183
649.259 .0311962
650.014 .0311740
650.768 .0311517
651.521 .0311294
652.275 .0311069
653.028 .0310843
653.781 .0310615
654.534 .0310385
655.286 .0310153
656.039 .0309917
656.791 .0309678
657.542 .0309437
658.294 .0309191
659.045 .0308944
659.796 .0308695
660.546 .0308445
661.297 .0308198
662.047 .0307952
662.796 .0307710
663.546 .0307472
664.295 .0307237
665.044 .0307006
665.793 .0306779
666.542 .0306557
667.290 .0306338
668.038 .0306122
668.786 .0305911
669.533 .0305703
670.281 .0305499
671.028 .0305299
671.774 .0305103
672.521 .0304910
673.267 .0304721
674.013 .0304535
674.759 .0304351
675.505 .0304169
676.250 .0303988
676.995 .0303807
677.740 .0303625
678.484 .0303443
679.229 .0303259
679.973 .0303074
680.717 .0302889
681.460 .0302705
682.204 .0302521
682.947 .0302337
683.690 .0302154
684.433 .0301971
685.175 .0301787
685.917 .0301602
686.659 .0301416
687.401 .0301229
688.142 .0301041
688.884 .0300853
689.625 .0300666
690.365 .0300480
691.106 .0300296
691.846 .0300114
692.586 .0299933
693.326 .0299753
694.066 .0299574
694.805 .0299394
695.545 .0299214
696.284 .0299034
697.022 .0298854
697.761 .0298673
698.499 .0298492
699.237 .0298312
699.975 .0298131
700.713 .0297951
701.450 .0297771
702.187 .0297593
702.924 .0297415
703.661 .0297238
704.397 .0297061
705.133 .0296886
705.869 .0296711
706.605 .0296536
707.341 .0296361
708.076 .0296186
708.811 .0296010
709.546 .0295834
710.281 .0295658
711.015 .0295481
711.749 .0295305
712.483 .0295129
713.217 .0294953
713.950 .0294777
714.684 .0294600
715.417 .0294420
716.150 .0294240
716.882 .0294056
717.615 .0293869
718.347 .0293680
719.079 .0293488
719.811 .0293293
720.542 .0293097
721.273 .0292901
722.005 .0292704
722.735 .0292508
723.466 .0292314
724.196 .0292122
724.927 .0291932
725.656 .0291745
726.386 .0291561
727.116 .0291381
727.845 .0291206
728.574 .0291034
729.303 .0290867
730.031 .0290705
730.760 .0290548
731.488 .0290396
732.216 .0290249
732.944 .0290107
733.671 .0289971
734.398 .0289841
735.125 .0289716
735.852 .0289596
736.579 .0289482
737.305 .0289371
738.031 .0289263
738.757 .0289158
739.483 .0289054
740.208 .0288951
740.933 .0288849
741.658 .0288746
742.383 .0288644
743.108 .0288540
743.832 .0288436
744.556 .0288331
745.280 .0288223
746.004 .0288113
746.727 .0287999
747.450 .0287882
748.173 .0287762
748.896 .0287638
749.618 .0287510
750.340 .0287381
751.062 .0287248
751.784 .0287113
752.506 .0286976
753.227 .0286836
753.948 .0286694
754.669 .0286550
755.389 .0286404
756.110 .0286257
756.830 .0286109
757.550 .0285960
758.269 .0285812
758.989 .0285663
759.708 .0285515
760.427 .0285366
761.146 .0285217
761.864 .0285068
762.582 .0284918
763.300 .0284767
764.018 .0284614
764.736 .0284461
765.453 .0284307
766.170 .0284153
766.887 .0283999
767.603 .0283844
768.320 .0283692
769.036 .0283541
769.751 .0283394
770.467 .0283250
771.182 .0283111
771.897 .0282977
772.612 .0282847
773.327 .0282721
774.041 .0282600
774.755 .0282485
775.469 .0282375
776.183 .0282271
776.896 .0282175
777.609 .0282088
778.322 .0282010
779.035 .0281942
779.747 .0281884
780.459 .0281836
781.171 .0281796
781.882 .0281764
782.594 .0281739
783.305 .0281719
784.016 .0281703
784.726 .0281691
785.436 .0281681
786.147 .0281667
786.856 .0281657
787.566 .0281645
788.275 .0281633
788.984 .0281619
789.693 .0281603
790.401 .0281584
791.110 .0281561
791.818 .0281535
792.525 .0281504
793.233 .0281468
793.940 .0281427
794.647 .0281390
795.353 .0281341
796.060 .0281287
796.766 .0281228
797.472 .0281163
798.177 .0281094
798.883 .0281022
799.588 .0280946
800.292 .0280866
800.997 .0280784
801.701 .0280697
802.405 .0280608
803.109 .0280514
803.812 .0280416
804.515 .0280314
805.218 .0280209
805.921 .0280099
806.623 .0279987
807.325 .0279872
808.027 .0279754
808.728 .0279634
809.429 .0279512
810.130 .0279388
810.831 .0279263
811.531 .0279136
812.231 .0279009
812.931 .0278880
813.630 .0278750
814.330 .0278620
815.029 .0278490
815.727 .0278361
816.426 .0278233
817.124 .0278106
817.821 .0277981
818.519 .0277858
819.216 .0277737
819.913 .0277619
820.609 .0277504
821.306 .0277392
822.002 .0277283
822.697 .0277178
823.393 .0277078
824.088 .0276981
824.783 .0276888
825.477 .0276798
826.171 .0276710
826.865 .0276623
827.559 .0276538
828.252 .0276452
828.945 .0276366
829.638 .0276279
830.330 .0276192
831.023 .0276104
831.714 .0276014
832.406 .0275924
833.097 .0275831
833.788 .0275736
834.479 .0275639
835.169 .0275539
835.859 .0275437
836.548 .0275333
837.238 .0275226
837.927 .0275117
838.615 .0275006
839.304 .0274893
839.992 .0274778
840.680 .0274661
841.367 .0274543
842.054 .0274423
842.741 .0274301
843.428 .0274178
844.114 .0274053
844.800 .0273927
845.485 .0273799
846.170 .0273668
846.855 .0273535
847.540 .0273399
848.224 .0273259
848.908 .0273116
849.592 .0272970
850.275 .0272820
850.958 .0272666
851.641 .0272510
852.323 .0272351
853.005 .0272190
853.687 .0272028
854.368 .0271864
855.049 .0271698
855.730 .0271531
856.410 .0271363
857.090 .0271192
857.769 .0271020
858.449 .0270846
859.128 .0270671
859.806 .0270497
860.485 .0270323
861.163 .0270153
861.840 .0269985
862.518 .0269821
863.195 .0269661
863.871 .0269505
864.548 .0269352
865.224 .0269203
865.899 .0269057
866.574 .0268913
867.249 .0268773
867.924 .0268635
868.598 .0268501
869.272 .0268371
869.946 .0268244
870.619 .0268121
871.292 .0268001
871.964 .0267885
872.636 .0267772
873.308 .0267663
873.979 .0267557
874.651 .0267454
875.321 .0267353
875.992 .0267257
876.662 .0267162
877.331 .0267071
878.001 .0266983
878.670 .0266899
879.338 .0266819
880.007 .0266744
880.675 .0266675
881.342 .0266612
882.009 .0266557
882.676 .0266509
883.343 .0266470
884.009 .0266437
884.675 .0266413
885.340 .0266395
886.005 .0266385
886.670 .0266381
887.334 .0266384
887.998 .0266393
888.662 .0266409
889.325 .0266431
889.988 .0266459
890.650 .0266492
891.312 .0266531
891.974 .0266574
892.636 .0266621
893.297 .0266671
893.957 .0266723
894.618 .0266775
895.278 .0266827
895.937 .0266878
896.596 .0266926
897.255 .0266971
897.914 .0267012
898.572 .0267047
899.230 .0267077
899.887 .0267101
900.544 .0267118
901.201 .0267127
901.857 .0267104
902.513 .0267090
903.168 .0267067
903.823 .0267034
904.478 .0266992
905.132 .0266940
905.786 .0266878
906.440 .0266807
907.093 .0266728
907.746 .0266641
908.399 .0266548
909.051 .0266450
909.703 .0266348
910.354 .0266285
911.005 .0266182
911.656 .0266077
912.306 .0265971
912.956 .0265863
913.605 .0265755
914.254 .0265646
914.903 .0265537
915.551 .0265429
916.199 .0265322
916.847 .0265216
917.494 .0265111
918.141 .0265007
918.788 .0264904
919.434 .0264802
920.079 .0264700
920.725 .0264597
921.370 .0264493
922.014 .0264388
922.658 .0264282
923.302 .0264175
923.946 .0264065
924.589 .0263954
925.231 .0263840
925.873 .0263722
926.515 .0263600
927.157 .0263473
927.798 .0263341
928.439 .0263204
929.079 .0263061
929.719 .0262914
930.359 .0262763
930.998 .0262608
931.637 .0262449
932.275 .0262289
932.913 .0262126
933.551 .0261961
934.188 .0261796
934.825 .0261632
935.462 .0261468
936.098 .0261307
936.733 .0261149
937.369 .0260995
938.004 .0260846
938.638 .0260703
939.273 .0260566
939.907 .0260436
940.540 .0260313
941.173 .0260196
941.806 .0260086
942.438 .0259983
943.070 .0259886
943.702 .0259796
944.333 .0259711
944.964 .0259630
945.594 .0259553
946.224 .0259478
946.854 .0259406
947.483 .0259334
948.112 .0259263
948.741 .0259192
949.369 .0259119
949.996 .0259046
950.624 .0258970
951.251 .0258892
951.878 .0258812
952.504 .0258728
953.130 .0258640
953.755 .0258548
954.380 .0258451
955.005 .0258349
955.629 .0258241
956.253 .0258129
956.877 .0258010
957.500 .0257886
958.123 .0257755
958.746 .0257619
959.368 .0257478
959.990 .0257332
960.611 .0257181
961.232 .0257028
961.853 .0256871
962.473 .0256712
963.093 .0256552
963.712 .0256390
964.331 .0256226
964.950 .0256061
965.569 .0255896
966.187 .0255730
966.804 .0255564
967.422 .0255399
968.039 .0255235
968.655 .0255070
969.272 .0254906
969.887 .0254742
970.503 .0254578
971.118 .0254412
971.733 .0254246
972.347 .0254079
972.961 .0253912
973.575 .0253744
974.188 .0253575
974.801 .0253407
975.414 .0253238
976.026 .0253068
976.638 .0252898
977.250 .0252726
977.861 .0252552
978.472 .0252378
979.083 .0252202
979.693 .0252026
980.303 .0251850
980.912 .0251583
981.521 .0251408
982.130 .0251233
982.738 .0251058
983.346 .0250883
983.954 .0250707
984.562 .0250532
985.169 .0250358
985.775 .0250186
986.382 .0250019
986.988 .0249857
987.594 .0249703
988.199 .0249556
988.804 .0249417
989.409 .0249370
990.013 .0249244
990.617 .0249125
991.221 .0249012
991.824 .0248906
992.427 .0248806
993.030 .0248712
993.632 .0248624
994.234 .0248543
994.836 .0248468
995.438 .0248399
996.039 .0248336
996.640 .0248278
997.240 .0248225
997.840 .0248175
998.440 .0248130
999.040 .0248087
999.639 .0248048
1000.238 .0248011
1000.836 .0247978
1001.435 .0247949
1002.033 .0247922
1002.630 .0247898
1003.228 .0247878
1003.825 .0247859
1004.422 .0247841
1005.018 .0247824
1005.614 .0247807
1006.210 .0247788
1006.806 .0247769
1007.401 .0247748
1007.996 .0247726
1008.591 .0247703
1009.186 .0247681
1009.780 .0247660
1010.374 .0247640
1010.967 .0247623
1011.561 .0247609
1012.154 .0247598
1012.746 .0247590
1013.339 .0247586
1013.931 .0247585
1014.523 .0247588
1015.115 .0247595
1015.706 .0247607
1016.298 .0247625
1016.888 .0247649
1017.479 .0247682
1018.069 .0247722
1018.660 .0247770
1019.250 .0247826
1019.839 .0247889
1020.429 .0247957
1021.018 .0248031
1021.607 .0248110
1022.195 .0248193
1022.784 .0248280
1023.372 .0248373
1023.960 .0248470
1024.547 .0248573
1025.135 .0248683
1025.722 .0248798
1026.309 .0248919
1026.896 .0249045
1027.483 .0249175
1028.069 .0249307
1028.655 .0249441
1029.241 .0249576
1029.827 .0249713
1030.412 .0249851
1030.997 .0249990
1031.582 .0250132
1032.167 .0250277
1032.752 .0250424
1033.336 .0250573
1033.921 .0250724
1034.505 .0250876
1035.089 .0251026
1035.672 .0251175
1036.256 .0251321
1036.839 .0251464
1037.422 .0251605
1038.005 .0251743
1038.588 .0251879
1039.171 .0252013
1039.753 .0252146
1040.335 .0252278
1040.918 .0252410
1041.500 .0252539
1042.081 .0252668
1042.663 .0252794
1043.244 .0252919
1043.826 .0253042
1044.407 .0253163
1044.988 .0253284
1045.569 .0253406
1046.150 .0253527
1046.730 .0253649
1047.311 .0253771
1047.891 .0253893
1048.471 .0254015
1049.052 .0254134
1049.632 .0254251
1050.211 .0254365
1050.791 .0254476
1051.371 .0254582
1051.950 .0254685
1052.530 .0254784
1053.109 .0254879
1053.688 .0254969
1054.268 .0255056
1054.847 .0255139
1055.426 .0255219
1056.005 .0255295
1056.583 .0255368
1057.162 .0255438
1057.741 .0255506
1058.319 .0255572
1058.898 .0255637
1059.476 .0255702
1060.055 .0255767
1060.633 .0255834
1061.211 .0255904
1061.790 .0255976
1062.368 .0256053
1062.946 .0256133
1063.524 .0256217
1064.102 .0256304
1064.680 .0256392
1065.258 .0256480
1065.836 .0256569
1066.414 .0256658
1066.992 .0256747
1067.570 .0256835
1068.148 .0256924
1068.726 .0257014
1069.304 .0257104
1069.882 .0257194
1070.460 .0257285
1071.038 .0257375
1071.616 .0257464
1072.194 .0257551
1072.772 .0257634
1073.350 .0257715
1073.928 .0257795
1074.506 .0257872
1075.084 .0257949
1075.662 .0258024
1076.240 .0258099
1076.819 .0258173
1077.397 .0258247
1077.976 .0258320
1078.554 .0258391
1079.133 .0258461
1079.711 .0258529
1080.290 .0258596
1080.869 .0258664
1081.448 .0258735
1082.027 .0258810
1082.606 .0258890
1083.185 .0258976
1083.764 .0259069
1084.343 .0259171
1084.923 .0259281
1085.502 .0259400
1086.082 .0259528
1086.662 .0259664
1087.242 .0259808
1087.822 .0259961
1088.402 .0260123
1088.983 .0260293
1089.563 .0260470
1090.144 .0260652
1090.725 .0260839
1091.306 .0261027
1091.887 .0261216
1092.469 .0261406
1093.050 .0261594
1093.632 .0261779
1094.214 .0261961
1094.796 .0262138
1095.379 .0262311
1095.961 .0262479
1096.544 .0262642
1097.127 .0262799
1097.710 .0262951
1098.294 .0263099
1098.877 .0263244
1099.461 .0263388
1100.046 .0263532
1100.630 .0263678
1101.215 .0263827
1101.800 .0263978
1102.385 .0264132
1102.970 .0264289
1103.556 .0264448
1104.142 .0264607
1104.728 .0264767
1105.315 .0264928
1105.902 .0265092
1106.489 .0265260
1107.077 .0265433
1107.664 .0265614
1108.253 .0265804
1108.841 .0266005
1109.430 .0266219
1110.019 .0266446
1110.609 .0266688
1111.198 .0266944
1111.789 .0267218
1112.379 .0267511
1112.970 .0267824
1113.561 .0268156
1114.153 .0268507
1114.745 .0268875
1115.338 .0269257
1115.931 .0269651
1116.524 .0270052
1117.117 .0270458
1117.712 .0270867
1118.306 .0271276
1118.901 .0271684
1119.496 .0272090
1120.092 .0272496
1120.689 .0272902
1121.285 .0273308
1121.882 .0273716
1122.480 .0274126
1123.078 .0274543
1123.677 .0274969
1124.276 .0275411
1124.875 .0275874
1125.476 .0276362
1126.076 .0276880
1126.677 .0277433
1127.279 .0278023
1127.881 .0278650
1128.484 .0279315
1129.087 .0279578
1129.691 .0280284
1130.295 .0281025
1130.900 .0281800
1131.505 .0282610
1132.111 .0283458
1132.718 .0284347
1133.325 .0285285
1133.933 .0286272
1134.541 .0287295
1135.150 .0288409
1135.760 .0289517
1136.370 .0290835
1136.981 .0290746
1137.592 .0292319
1138.204 .0293900
1138.817 .0295465
1139.431 .0297037
1140.045 .0298695
1140.660 .0300367
1141.275 .0302233
1141.891 .0304033
1142.508 .0305497
1143.126 .0308445
1143.744 .0308687
1144.363 .0314914
1144.983 .0311919
