Measurement Sequence started on: 15-12-46-377
Integration time: 28
Scans to Average: 2 
>>>>>Begin Spectral Data<<<<<
432.689 .0000100
433.621 .0000100
434.552 .0000100
435.482 .0000100
436.410 .0000100
437.337 .0000100
438.262 .0279102
439.187 .0589068
440.110 .0974378
441.031 .1408654
441.952 .1123985
442.871 .1173222
443.789 .1218937
444.705 .1261866
445.621 .1302508
446.535 .1341244
447.447 .1363679
448.359 .1368406
449.269 .1351650
450.178 .1310987
451.086 .1247229
451.993 .1165261
452.898 .1073104
453.803 .0979827
454.706 .0893143
455.608 .0817809
456.508 .0755413
457.408 .0713122
458.306 .0680501
459.204 .0653896
460.100 .0631479
460.995 .0612226
461.888 .0595433
462.781 .0580626
463.673 .0567451
464.563 .0555643
465.452 .0545001
466.340 .0535355
467.228 .0526575
468.114 .0518559
468.999 .0511227
469.882 .0504507
470.765 .0498347
471.647 .0492696
472.528 .0487522
473.407 .0482783
474.286 .0478448
475.163 .0474497
476.040 .0470902
476.915 .0467643
477.790 .0464699
478.663 .0462052
479.535 .0459686
480.407 .0457589
481.277 .0455746
482.147 .0454144
483.015 .0452769
483.883 .0451602
484.749 .0450635
485.615 .0449854
486.479 .0449252
487.343 .0448826
488.206 .0448585
489.067 .0448534
489.928 .0448683
490.788 .0449044
491.647 .0449627
492.505 .0450435
493.362 .0451472
494.218 .0452728
495.073 .0454201
495.928 .0457167
496.781 .0459139
497.634 .0461307
498.486 .0463674
499.337 .0466249
500.187 .0469049
501.036 .0472078
501.884 .0475346
502.731 .0478866
503.578 .0482637
504.424 .0485001
505.268 .0489180
506.113 .0493651
506.956 .0498438
507.798 .0503590
508.640 .0509173
509.480 .0515283
510.320 .0522040
511.160 .0529577
511.998 .0538031
512.836 .0547567
513.672 .0558344
514.508 .0570541
515.344 .0584355
516.178 .0599986
517.012 .0617645
517.845 .0637536
518.677 .0659852
519.508 .0684769
520.339 .0712388
521.169 .0742779
521.998 .0775766
522.826 .0811112
523.654 .0848375
524.481 .0887005
525.307 .0926376
526.133 .0965770
526.958 .1004380
527.782 .1041418
528.605 .1076137
529.428 .1107870
530.250 .1136003
531.072 .1160119
531.892 .1179835
532.712 .1194906
533.532 .1205149
534.350 .1210452
535.168 .1210776
535.986 .1206155
536.802 .1196588
537.618 .1182132
538.434 .1162873
539.249 .1139116
540.063 .1111239
540.876 .1079792
541.689 .1045426
542.501 .1008831
543.313 .0970752
544.124 .0931991
544.934 .0893290
545.744 .0855325
546.553 .0818668
547.361 .0783815
548.169 .0751063
548.976 .0720645
549.783 .0692625
550.589 .0667000
551.395 .0643682
552.200 .0622505
553.004 .0603248
553.808 .0585726
554.611 .0569773
555.414 .0555228
556.216 .0541940
557.018 .0529751
557.819 .0518516
558.619 .0508100
559.419 .0498384
560.218 .0489272
561.017 .0480672
561.815 .0472517
562.613 .0464754
563.410 .0457344
564.207 .0450252
565.003 .0443444
565.799 .0436895
566.594 .0430591
567.388 .0424512
568.182 .0418641
568.976 .0412967
569.769 .0407481
570.562 .0402188
571.354 .0397085
572.145 .0392178
572.936 .0387471
573.727 .0382967
574.517 .0378675
575.307 .0374593
576.096 .0370718
576.885 .0367044
577.673 .0363567
578.461 .0360280
579.248 .0357174
580.035 .0354246
580.821 .0351490
581.607 .0348903
582.392 .0346480
583.177 .0344215
583.962 .0342103
584.746 .0340140
585.529 .0338318
586.313 .0336631
587.095 .0335071
587.878 .0333629
588.660 .0332296
589.441 .0331066
590.222 .0329930
591.003 .0328880
591.783 .0327910
592.563 .0327012
593.342 .0326179
594.121 .0325404
594.899 .0324679
595.678 .0323998
596.455 .0323353
597.233 .0322738
598.009 .0322147
598.786 .0321576
599.562 .0321021
600.338 .0320481
601.113 .0319953
601.888 .0319202
602.663 .0318706
603.437 .0318224
604.211 .0317756
604.984 .0317302
605.757 .0316859
606.530 .0316429
607.302 .0316010
608.074 .0315604
608.845 .0315210
609.616 .0314829
610.387 .0314677
611.158 .0314319
611.928 .0313976
612.697 .0313648
613.467 .0313335
614.236 .0313036
615.004 .0312750
615.773 .0312476
616.541 .0312213
617.308 .0311959
618.076 .0311714
618.843 .0311476
619.609 .0311246
620.375 .0311022
621.141 .0310801
621.907 .0310583
622.672 .0310367
623.437 .0310152
624.202 .0309936
624.966 .0309721
625.730 .0309505
626.493 .0309288
627.257 .0309070
628.020 .0308851
628.782 .0308630
629.545 .0308406
630.307 .0308179
631.068 .0307950
631.830 .0307719
632.591 .0307486
633.352 .0307253
634.112 .0307020
634.872 .0306788
635.632 .0306557
636.392 .0306328
637.151 .0306099
637.910 .0305873
638.668 .0305650
639.427 .0305432
640.185 .0305218
640.943 .0305010
641.700 .0304808
642.457 .0304611
643.214 .0304420
643.971 .0304233
644.727 .0304048
645.483 .0303865
646.239 .0303683
646.994 .0303502
647.750 .0303323
648.505 .0303145
649.259 .0302968
650.014 .0302791
650.768 .0302613
651.521 .0302433
652.275 .0302249
653.028 .0302061
653.781 .0301868
654.534 .0301669
655.286 .0301465
656.039 .0301256
656.791 .0301042
657.542 .0300824
658.294 .0300601
659.045 .0300375
659.796 .0300146
660.546 .0299914
661.297 .0299680
662.047 .0299445
662.796 .0299209
663.546 .0298972
664.295 .0298735
665.044 .0298498
665.793 .0298261
666.542 .0298026
667.290 .0297793
668.038 .0297563
668.786 .0297336
669.533 .0297115
670.281 .0296899
671.028 .0296688
671.774 .0296483
672.521 .0296283
673.267 .0296087
674.013 .0295893
674.759 .0295703
675.505 .0295515
676.250 .0295329
676.995 .0295145
677.740 .0294963
678.484 .0294782
679.229 .0294602
679.973 .0294422
680.717 .0294244
681.460 .0294065
682.204 .0293886
682.947 .0293708
683.690 .0293529
684.433 .0293350
685.175 .0293171
685.917 .0292993
686.659 .0292815
687.401 .0292638
688.142 .0292463
688.884 .0292289
689.625 .0292117
690.365 .0291946
691.106 .0291777
691.846 .0291609
692.586 .0291443
693.326 .0291278
694.066 .0291114
694.805 .0290954
695.545 .0290796
696.284 .0290643
697.022 .0290493
697.761 .0290348
698.499 .0290207
699.237 .0290069
699.975 .0289934
700.713 .0289801
701.450 .0289670
702.187 .0289541
702.924 .0289413
703.661 .0289286
704.397 .0289162
705.133 .0289039
705.869 .0288918
706.605 .0288798
707.341 .0288678
708.076 .0288558
708.811 .0288437
709.546 .0288314
710.281 .0288190
711.015 .0288063
711.749 .0287934
712.483 .0287802
713.217 .0287667
713.950 .0287530
714.684 .0287390
715.417 .0287248
716.150 .0287105
716.882 .0286960
717.615 .0286813
718.347 .0286666
719.079 .0286518
719.811 .0286368
720.542 .0286216
721.273 .0286062
722.005 .0285906
722.735 .0285749
723.466 .0285590
724.196 .0285431
724.927 .0285274
725.656 .0285119
726.386 .0284967
727.116 .0284818
727.845 .0284672
728.574 .0284529
729.303 .0284389
730.031 .0284251
730.760 .0284115
731.488 .0283982
732.216 .0283850
732.944 .0283721
733.671 .0283595
734.398 .0283472
735.125 .0283352
735.852 .0283234
736.579 .0283120
737.305 .0283008
738.031 .0282899
738.757 .0282793
739.483 .0282689
740.208 .0282587
740.933 .0282486
741.658 .0282386
742.383 .0282285
743.108 .0282183
743.832 .0282080
744.556 .0281975
745.280 .0281867
746.004 .0281757
746.727 .0281643
747.450 .0281527
748.173 .0281407
748.896 .0281284
749.618 .0281155
750.340 .0281022
751.062 .0280882
751.784 .0280736
752.506 .0280583
753.227 .0280423
753.948 .0280256
754.669 .0280082
755.389 .0279901
756.110 .0279714
756.830 .0279521
757.550 .0279324
758.269 .0279122
758.989 .0278917
759.708 .0278710
760.427 .0278499
761.146 .0278287
761.864 .0278073
762.582 .0277857
763.300 .0277639
764.018 .0277422
764.736 .0277204
765.453 .0276989
766.170 .0276775
766.887 .0276565
767.603 .0276360
768.320 .0276159
769.036 .0275965
769.751 .0275777
770.467 .0275595
771.182 .0275421
771.897 .0275253
772.612 .0275092
773.327 .0274938
774.041 .0274790
774.755 .0274649
775.469 .0274516
776.183 .0274390
776.896 .0274271
777.609 .0274160
778.322 .0274057
779.035 .0273962
779.747 .0273873
780.459 .0273792
781.171 .0273716
781.882 .0273645
782.594 .0273579
783.305 .0273517
784.016 .0273458
784.726 .0273403
785.436 .0273352
786.147 .0273283
786.856 .0273235
787.566 .0273189
788.275 .0273143
788.984 .0273097
789.693 .0273051
790.401 .0273004
791.110 .0272955
791.818 .0272905
792.525 .0272853
793.233 .0272798
793.940 .0272740
794.647 .0272702
795.353 .0272639
796.060 .0272572
796.766 .0272502
797.472 .0272428
798.177 .0272350
798.883 .0272268
799.588 .0272183
800.292 .0272096
800.997 .0272005
801.701 .0271912
802.405 .0271816
803.109 .0271717
803.812 .0271614
804.515 .0271510
805.218 .0271403
805.921 .0271293
806.623 .0271183
807.325 .0271071
808.027 .0270958
808.728 .0270844
809.429 .0270729
810.130 .0270613
810.831 .0270496
811.531 .0270378
812.231 .0270259
812.931 .0270141
813.630 .0270024
814.330 .0269909
815.029 .0269797
815.727 .0269690
816.426 .0269586
817.124 .0269487
817.821 .0269394
818.519 .0269305
819.216 .0269221
819.913 .0269142
820.609 .0269069
821.306 .0269002
822.002 .0268942
822.697 .0268888
823.393 .0268840
824.088 .0268799
824.783 .0268762
825.477 .0268731
826.171 .0268703
826.865 .0268679
827.559 .0268657
828.252 .0268639
828.945 .0268623
829.638 .0268609
830.330 .0268597
831.023 .0268586
831.714 .0268574
832.406 .0268562
833.097 .0268548
833.788 .0268532
834.479 .0268513
835.169 .0268491
835.859 .0268467
836.548 .0268442
837.238 .0268414
837.927 .0268384
838.615 .0268350
839.304 .0268314
839.992 .0268272
840.680 .0268226
841.367 .0268175
842.054 .0268120
842.741 .0268059
843.428 .0267995
844.114 .0267926
844.800 .0267854
845.485 .0267778
846.170 .0267697
846.855 .0267612
847.540 .0267520
848.224 .0267423
848.908 .0267320
849.592 .0267210
850.275 .0267094
850.958 .0266972
851.641 .0266844
852.323 .0266710
853.005 .0266569
853.687 .0266421
854.368 .0266266
855.049 .0266104
855.730 .0265936
856.410 .0265763
857.090 .0265585
857.769 .0265403
858.449 .0265218
859.128 .0265030
859.806 .0264840
860.485 .0264647
861.163 .0264453
861.840 .0264257
862.518 .0264061
863.195 .0263866
863.871 .0263672
864.548 .0263480
865.224 .0263290
865.899 .0263103
866.574 .0262918
867.249 .0262736
867.924 .0262556
868.598 .0262378
869.272 .0262202
869.946 .0262028
870.619 .0261857
871.292 .0261687
871.964 .0261520
872.636 .0261355
873.308 .0261193
873.979 .0261033
874.651 .0260875
875.321 .0260721
875.992 .0260568
876.662 .0260419
877.331 .0260272
878.001 .0260129
878.670 .0259989
879.338 .0259852
880.007 .0259718
880.675 .0259588
881.342 .0259462
882.009 .0259339
882.676 .0259220
883.343 .0259104
884.009 .0258994
884.675 .0258888
885.340 .0258787
886.005 .0258691
886.670 .0258600
887.334 .0258514
887.998 .0258433
888.662 .0258356
889.325 .0258283
889.988 .0258214
890.650 .0258149
891.312 .0258088
891.974 .0258030
892.636 .0257976
893.297 .0257924
893.957 .0257873
894.618 .0257824
895.278 .0257775
895.937 .0257725
896.596 .0257674
897.255 .0257620
897.914 .0257563
898.572 .0257502
899.230 .0257437
899.887 .0257367
900.544 .0257292
901.201 .0257211
901.857 .0257062
902.513 .0256964
903.168 .0256860
903.823 .0256750
904.478 .0256633
905.132 .0256510
905.786 .0256381
906.440 .0256246
907.093 .0256106
907.746 .0255961
908.399 .0255812
909.051 .0255659
909.703 .0255504
910.354 .0255420
911.005 .0255265
911.656 .0255109
912.306 .0254952
912.956 .0254795
913.605 .0254637
914.254 .0254480
914.903 .0254323
915.551 .0254167
916.199 .0254011
916.847 .0253857
917.494 .0253704
918.141 .0253553
918.788 .0253403
919.434 .0253255
920.079 .0253108
920.725 .0252963
921.370 .0252820
922.014 .0252678
922.658 .0252538
923.302 .0252400
923.946 .0252263
924.589 .0252128
925.231 .0251995
925.873 .0251863
926.515 .0251733
927.157 .0251604
927.798 .0251477
928.439 .0251351
929.079 .0251228
929.719 .0251106
930.359 .0250988
930.998 .0250872
931.637 .0250761
932.275 .0250654
932.913 .0250552
933.551 .0250455
934.188 .0250363
934.825 .0250277
935.462 .0250197
936.098 .0250123
936.733 .0250055
937.369 .0249993
938.004 .0249938
938.638 .0249890
939.273 .0249849
939.907 .0249814
940.540 .0249785
941.173 .0249762
941.806 .0249743
942.438 .0249729
943.070 .0249718
943.702 .0249710
944.333 .0249705
944.964 .0249702
945.594 .0249701
946.224 .0249701
946.854 .0249703
947.483 .0249704
948.112 .0249705
948.741 .0249706
949.369 .0249707
949.996 .0249708
950.624 .0249709
951.251 .0249711
951.878 .0249713
952.504 .0249716
953.130 .0249719
953.755 .0249722
954.380 .0249724
955.005 .0249727
955.629 .0249729
956.253 .0249730
956.877 .0249733
957.500 .0249736
958.123 .0249740
958.746 .0249746
959.368 .0249753
959.990 .0249762
960.611 .0249771
961.232 .0249780
961.853 .0249790
962.473 .0249800
963.093 .0249811
963.712 .0249822
964.331 .0249835
964.950 .0249848
965.569 .0249863
966.187 .0249879
966.804 .0249894
967.422 .0249909
968.039 .0249922
968.655 .0249933
969.272 .0249943
969.887 .0249950
970.503 .0249956
971.118 .0249959
971.733 .0249960
972.347 .0249959
972.961 .0249954
973.575 .0249944
974.188 .0249929
974.801 .0249908
975.414 .0249881
976.026 .0249848
976.638 .0249809
977.250 .0249763
977.861 .0249712
978.472 .0249655
979.083 .0249591
979.693 .0249521
980.303 .0249444
980.912 .0249295
981.521 .0249201
982.130 .0249100
982.738 .0248995
983.346 .0248885
983.954 .0248773
984.562 .0248659
985.169 .0248544
985.775 .0248429
986.382 .0248316
986.988 .0248205
987.594 .0248096
988.199 .0247990
988.804 .0247887
989.409 .0247853
990.013 .0247759
990.617 .0247670
991.221 .0247585
991.824 .0247505
992.427 .0247430
993.030 .0247359
993.632 .0247293
994.234 .0247231
994.836 .0247173
995.438 .0247118
996.039 .0247068
996.640 .0247020
997.240 .0246977
997.840 .0246938
998.440 .0246903
999.040 .0246872
999.639 .0246844
1000.238 .0246818
1000.836 .0246795
1001.435 .0246773
1002.033 .0246752
1002.630 .0246732
1003.228 .0246711
1003.825 .0246689
1004.422 .0246665
1005.018 .0246638
1005.614 .0246608
1006.210 .0246574
1006.806 .0246536
1007.401 .0246494
1007.996 .0246448
1008.591 .0246399
1009.186 .0246346
1009.780 .0246290
1010.374 .0246231
1010.967 .0246170
1011.561 .0246107
1012.154 .0246042
1012.746 .0245975
1013.339 .0245907
1013.931 .0245838
1014.523 .0245769
1015.115 .0245701
1015.706 .0245635
1016.298 .0245571
1016.888 .0245509
1017.479 .0245451
1018.069 .0245395
1018.660 .0245343
1019.250 .0245294
1019.839 .0245249
1020.429 .0245207
1021.018 .0245170
1021.607 .0245136
1022.195 .0245106
1022.784 .0245080
1023.372 .0245057
1023.960 .0245037
1024.547 .0245020
1025.135 .0245006
1025.722 .0244995
1026.309 .0244986
1026.896 .0244979
1027.483 .0244976
1028.069 .0244975
1028.655 .0244976
1029.241 .0244979
1029.827 .0244984
1030.412 .0244991
1030.997 .0245002
1031.582 .0245015
1032.167 .0245032
1032.752 .0245052
1033.336 .0245075
1033.921 .0245099
1034.505 .0245123
1035.089 .0245147
1035.672 .0245168
1036.256 .0245185
1036.839 .0245197
1037.422 .0245203
1038.005 .0245204
1038.588 .0245200
1039.171 .0245191
1039.753 .0245178
1040.335 .0245159
1040.918 .0245136
1041.500 .0245107
1042.081 .0245072
1042.663 .0245031
1043.244 .0244983
1043.826 .0244930
1044.407 .0244872
1044.988 .0244809
1045.569 .0244743
1046.150 .0244675
1046.730 .0244604
1047.311 .0244529
1047.891 .0244450
1048.471 .0244366
1049.052 .0244277
1049.632 .0244182
1050.211 .0244083
1050.791 .0243981
1051.371 .0243877
1051.950 .0243774
1052.530 .0243673
1053.109 .0243576
1053.688 .0243483
1054.268 .0243395
1054.847 .0243311
1055.426 .0243233
1056.005 .0243160
1056.583 .0243093
1057.162 .0243032
1057.741 .0242977
1058.319 .0242931
1058.898 .0242891
1059.476 .0242858
1060.055 .0242831
1060.633 .0242809
1061.211 .0242790
1061.790 .0242776
1062.368 .0242764
1062.946 .0242754
1063.524 .0242749
1064.102 .0242746
1064.680 .0242748
1065.258 .0242752
1065.836 .0242758
1066.414 .0242766
1066.992 .0242774
1067.570 .0242782
1068.148 .0242787
1068.726 .0242791
1069.304 .0242791
1069.882 .0242789
1070.460 .0242783
1071.038 .0242773
1071.616 .0242758
1072.194 .0242740
1072.772 .0242715
1073.350 .0242686
1073.928 .0242651
1074.506 .0242612
1075.084 .0242570
1075.662 .0242525
1076.240 .0242479
1076.819 .0242433
1077.397 .0242390
1077.976 .0242349
1078.554 .0242312
1079.133 .0242280
1079.711 .0242253
1080.290 .0242233
1080.869 .0242221
1081.448 .0242218
1082.027 .0242224
1082.606 .0242242
1083.185 .0242269
1083.764 .0242307
1084.343 .0242355
1084.923 .0242413
1085.502 .0242481
1086.082 .0242557
1086.662 .0242641
1087.242 .0242733
1087.822 .0242832
1088.402 .0242938
1088.983 .0243052
1089.563 .0243172
1090.144 .0243300
1090.725 .0243433
1091.306 .0243571
1091.887 .0243716
1092.469 .0243865
1093.050 .0244021
1093.632 .0244182
1094.214 .0244351
1094.796 .0244528
1095.379 .0244714
1095.961 .0244910
1096.544 .0245115
1097.127 .0245330
1097.710 .0245553
1098.294 .0245783
1098.877 .0246021
1099.461 .0246266
1100.046 .0246518
1100.630 .0246778
1101.215 .0247044
1101.800 .0247317
1102.385 .0247596
1102.970 .0247879
1103.556 .0248167
1104.142 .0248457
1104.728 .0248750
1105.315 .0249046
1105.902 .0249345
1106.489 .0249650
1107.077 .0249961
1107.664 .0250279
1108.253 .0250607
1108.841 .0250944
1109.430 .0251290
1110.019 .0251644
1110.609 .0252004
1111.198 .0252371
1111.789 .0252742
1112.379 .0253119
1112.970 .0253502
1113.561 .0253890
1114.153 .0254285
1114.745 .0254688
1115.338 .0255098
1115.931 .0255514
1116.524 .0255937
1117.117 .0256365
1117.712 .0256799
1118.306 .0257237
1118.901 .0257679
1119.496 .0258130
1120.092 .0258593
1120.689 .0259073
1121.285 .0259569
1121.882 .0260085
1122.480 .0260621
1123.078 .0261177
1123.677 .0261751
1124.276 .0262339
1124.875 .0262941
1125.476 .0263558
1126.076 .0264188
1126.677 .0264836
1127.279 .0265508
1127.881 .0266206
1128.484 .0266935
1129.087 .0267264
1129.691 .0268032
1130.295 .0268825
1130.900 .0269643
1131.505 .0270483
1132.111 .0271343
1132.718 .0272225
1133.325 .0273129
1133.933 .0274060
1134.541 .0275002
1135.150 .0276013
1135.760 .0277076
1136.370 .0278117
1136.981 .0278412
1137.592 .0279709
1138.204 .0280944
1138.817 .0282224
1139.431 .0283463
1140.045 .0284696
1140.660 .0285977
1141.275 .0287263
1141.891 .0288657
1142.508 .0289604
1143.126 .0292152
1143.744 .0294195
1144.363 .0294134
1144.983 .0297059
