Measurement Sequence started on: 15-12-46-377
Integration time: 28
Scans to Average: 2 
>>>>>Begin Spectral Data<<<<<
432.689 .0000100
433.621 .0000100
434.552 .0000100
435.482 .0000100
436.410 .0000100
437.337 .0000100
438.262 .0273126
439.187 .0578736
440.110 .0958377
441.031 .1386621
441.952 .1110784
442.871 .1160047
443.789 .1205911
444.705 .1249086
445.621 .1290047
446.535 .1329164
447.447 .1352328
448.359 .1358045
449.269 .1342593
450.178 .1303548
451.086 .1241694
451.993 .1161805
452.898 .1071762
453.803 .0980511
454.706 .0895642
455.608 .0821881
456.508 .0760805
457.408 .0719423
458.306 .0687581
459.204 .0661606
460.100 .0639679
460.995 .0620781
461.888 .0604217
462.781 .0589541
463.673 .0576406
464.563 .0564577
465.452 .0553861
466.340 .0544105
467.228 .0535196
468.114 .0527032
468.999 .0519528
469.882 .0512600
470.765 .0506180
471.647 .0500217
472.528 .0494676
473.407 .0489527
474.286 .0484760
475.163 .0480372
476.040 .0476363
476.915 .0472733
477.790 .0469474
478.663 .0466580
479.535 .0464039
480.407 .0461829
481.277 .0459934
482.147 .0458329
483.015 .0457001
483.883 .0455941
484.749 .0455145
485.615 .0454615
486.479 .0454350
487.343 .0454339
488.206 .0454574
489.067 .0455026
489.928 .0455674
490.788 .0456491
491.647 .0457451
492.505 .0458536
493.362 .0459733
494.218 .0461041
495.073 .0462472
495.928 .0465042
496.781 .0466853
497.634 .0468837
498.486 .0471013
499.337 .0473401
500.187 .0476022
501.036 .0478898
501.884 .0482068
502.731 .0485578
503.578 .0489474
504.424 .0492377
505.268 .0497085
506.113 .0502351
506.956 .0508244
507.798 .0514847
508.640 .0522245
509.480 .0530536
510.320 .0539824
511.160 .0550223
511.998 .0561852
512.836 .0574867
513.672 .0589422
514.508 .0605711
515.344 .0623953
516.178 .0644366
517.012 .0667181
517.845 .0692636
518.677 .0720883
519.508 .0752044
520.339 .0786149
521.169 .0823153
521.998 .0862758
522.826 .0904580
523.654 .0948062
524.481 .0992550
525.307 .1037314
526.133 .1081516
526.958 .1124253
527.782 .1164696
528.605 .1202002
529.428 .1235439
530.250 .1264347
531.072 .1288282
531.892 .1306851
532.712 .1319826
533.532 .1327077
534.350 .1328571
535.168 .1324331
535.986 .1314490
536.802 .1299149
537.618 .1278465
538.434 .1252633
539.249 .1222072
540.063 .1187272
540.876 .1148867
541.689 .1107560
542.501 .1064136
543.313 .1019449
544.124 .0974407
544.934 .0929816
545.744 .0886477
546.553 .0845058
547.361 .0806108
548.169 .0769952
548.976 .0736826
549.783 .0706757
550.589 .0679660
551.395 .0655338
552.200 .0633511
553.004 .0613866
553.808 .0596139
554.611 .0580091
555.414 .0565525
556.216 .0552258
557.018 .0540128
557.819 .0528997
558.619 .0518753
559.419 .0509276
560.218 .0500468
561.017 .0492229
561.815 .0484472
562.613 .0477110
563.410 .0470072
564.207 .0463301
565.003 .0456743
565.799 .0450352
566.594 .0444103
567.388 .0437985
568.182 .0431989
568.976 .0426117
569.769 .0420383
570.562 .0414803
571.354 .0409391
572.145 .0404158
572.936 .0399117
573.727 .0394271
574.517 .0389625
575.307 .0385180
576.096 .0380932
576.885 .0376884
577.673 .0373035
578.461 .0369393
579.248 .0365965
580.035 .0362756
580.821 .0359766
581.607 .0356995
582.392 .0354439
583.177 .0352090
583.962 .0349935
584.746 .0347959
585.529 .0346148
586.313 .0344485
587.095 .0342953
587.878 .0341541
588.660 .0340239
589.441 .0339038
590.222 .0337931
591.003 .0336913
591.783 .0335977
592.563 .0335113
593.342 .0334316
594.121 .0333578
594.899 .0332887
595.678 .0332237
596.455 .0331621
597.233 .0331030
598.009 .0330461
598.786 .0329911
599.562 .0329376
600.338 .0328854
601.113 .0328344
601.888 .0327607
602.663 .0327120
603.437 .0326642
604.211 .0326172
604.984 .0325710
605.757 .0325254
606.530 .0324804
607.302 .0324360
608.074 .0323923
608.845 .0323495
609.616 .0323077
610.387 .0322893
611.158 .0322495
611.928 .0322109
612.697 .0321736
613.467 .0321374
614.236 .0321026
615.004 .0320688
615.773 .0320361
616.541 .0320045
617.308 .0319738
618.076 .0319439
618.843 .0319150
619.609 .0318868
620.375 .0318593
621.141 .0318323
621.907 .0318058
622.672 .0317797
623.437 .0317540
624.202 .0317287
624.966 .0317036
625.730 .0316787
626.493 .0316540
627.257 .0316293
628.020 .0316047
628.782 .0315800
629.545 .0315553
630.307 .0315308
631.068 .0315064
631.830 .0314824
632.591 .0314589
633.352 .0314360
634.112 .0314137
634.872 .0313921
635.632 .0313712
636.392 .0313509
637.151 .0313312
637.910 .0313120
638.668 .0312934
639.427 .0312755
640.185 .0312582
640.943 .0312416
641.700 .0312257
642.457 .0312104
643.214 .0311956
643.971 .0311813
644.727 .0311672
645.483 .0311533
646.239 .0311394
646.994 .0311254
647.750 .0311111
648.505 .0310966
649.259 .0310816
650.014 .0310660
650.768 .0310499
651.521 .0310331
652.275 .0310156
653.028 .0309975
653.781 .0309788
654.534 .0309594
655.286 .0309394
656.039 .0309188
656.791 .0308976
657.542 .0308756
658.294 .0308530
659.045 .0308296
659.796 .0308055
660.546 .0307807
661.297 .0307553
662.047 .0307294
662.796 .0307030
663.546 .0306761
664.295 .0306489
665.044 .0306214
665.793 .0305937
666.542 .0305658
667.290 .0305379
668.038 .0305099
668.786 .0304820
669.533 .0304542
670.281 .0304266
671.028 .0303994
671.774 .0303725
672.521 .0303461
673.267 .0303202
674.013 .0302949
674.759 .0302701
675.505 .0302459
676.250 .0302224
676.995 .0301993
677.740 .0301768
678.484 .0301549
679.229 .0301334
679.973 .0301126
680.717 .0300923
681.460 .0300725
682.204 .0300532
682.947 .0300343
683.690 .0300157
684.433 .0299974
685.175 .0299791
685.917 .0299609
686.659 .0299427
687.401 .0299243
688.142 .0299058
688.884 .0298872
689.625 .0298684
690.365 .0298494
691.106 .0298302
691.846 .0298109
692.586 .0297915
693.326 .0297720
694.066 .0297524
694.805 .0297328
695.545 .0297133
696.284 .0296940
697.022 .0296749
697.761 .0296561
698.499 .0296376
699.237 .0296195
699.975 .0296018
700.713 .0295846
701.450 .0295679
702.187 .0295520
702.924 .0295368
703.661 .0295223
704.397 .0295087
705.133 .0294958
705.869 .0294835
706.605 .0294719
707.341 .0294607
708.076 .0294499
708.811 .0294394
709.546 .0294293
710.281 .0294195
711.015 .0294100
711.749 .0294009
712.483 .0293921
713.217 .0293835
713.950 .0293752
714.684 .0293670
715.417 .0293588
716.150 .0293504
716.882 .0293419
717.615 .0293331
718.347 .0293239
719.079 .0293144
719.811 .0293044
720.542 .0292940
721.273 .0292832
722.005 .0292721
722.735 .0292607
723.466 .0292491
724.196 .0292373
724.927 .0292255
725.656 .0292136
726.386 .0292017
727.116 .0291897
727.845 .0291778
728.574 .0291657
729.303 .0291536
730.031 .0291414
730.760 .0291292
731.488 .0291169
732.216 .0291047
732.944 .0290925
733.671 .0290804
734.398 .0290685
735.125 .0290566
735.852 .0290448
736.579 .0290331
737.305 .0290213
738.031 .0290094
738.757 .0289974
739.483 .0289852
740.208 .0289729
740.933 .0289603
741.658 .0289476
742.383 .0289347
743.108 .0289217
743.832 .0289085
744.556 .0288950
745.280 .0288813
746.004 .0288673
746.727 .0288531
747.450 .0288385
748.173 .0288236
748.896 .0288083
749.618 .0287925
750.340 .0287764
751.062 .0287597
751.784 .0287425
752.506 .0287248
753.227 .0287065
753.948 .0286877
754.669 .0286684
755.389 .0286487
756.110 .0286287
756.830 .0286085
757.550 .0285880
758.269 .0285673
758.989 .0285464
759.708 .0285253
760.427 .0285039
761.146 .0284825
761.864 .0284609
762.582 .0284392
763.300 .0284176
764.018 .0283961
764.736 .0283748
765.453 .0283537
766.170 .0283330
766.887 .0283127
767.603 .0282928
768.320 .0282735
769.036 .0282549
769.751 .0282370
770.467 .0282199
771.182 .0282036
771.897 .0281883
772.612 .0281739
773.327 .0281604
774.041 .0281479
774.755 .0281364
775.469 .0281258
776.183 .0281163
776.896 .0281077
777.609 .0281001
778.322 .0280934
779.035 .0280875
779.747 .0280823
780.459 .0280778
781.171 .0280739
781.882 .0280704
782.594 .0280674
783.305 .0280648
784.016 .0280625
784.726 .0280605
785.436 .0280586
786.147 .0280558
786.856 .0280539
787.566 .0280521
788.275 .0280503
788.984 .0280485
789.693 .0280467
790.401 .0280448
791.110 .0280427
791.818 .0280405
792.525 .0280381
793.233 .0280354
793.940 .0280325
794.647 .0280306
795.353 .0280274
796.060 .0280240
796.766 .0280203
797.472 .0280164
798.177 .0280122
798.883 .0280076
799.588 .0280028
800.292 .0279977
800.997 .0279923
801.701 .0279868
802.405 .0279811
803.109 .0279753
803.812 .0279695
804.515 .0279635
805.218 .0279574
805.921 .0279510
806.623 .0279442
807.325 .0279371
808.027 .0279297
808.728 .0279219
809.429 .0279138
810.130 .0279055
810.831 .0278971
811.531 .0278886
812.231 .0278800
812.931 .0278714
813.630 .0278628
814.330 .0278543
815.029 .0278459
815.727 .0278377
816.426 .0278297
817.124 .0278222
817.821 .0278151
818.519 .0278084
819.216 .0278022
819.913 .0277964
820.609 .0277911
821.306 .0277861
822.002 .0277815
822.697 .0277773
823.393 .0277735
824.088 .0277701
824.783 .0277670
825.477 .0277642
826.171 .0277616
826.865 .0277593
827.559 .0277571
828.252 .0277549
828.945 .0277527
829.638 .0277505
830.330 .0277483
831.023 .0277460
831.714 .0277436
832.406 .0277412
833.097 .0277385
833.788 .0277356
834.479 .0277323
835.169 .0277287
835.859 .0277247
836.548 .0277203
837.238 .0277155
837.927 .0277102
838.615 .0277045
839.304 .0276983
839.992 .0276915
840.680 .0276841
841.367 .0276761
842.054 .0276673
842.741 .0276577
843.428 .0276475
844.114 .0276365
844.800 .0276248
845.485 .0276125
846.170 .0275995
846.855 .0275857
847.540 .0275711
848.224 .0275556
848.908 .0275392
849.592 .0275219
850.275 .0275037
850.958 .0274847
851.641 .0274649
852.323 .0274445
853.005 .0274235
853.687 .0274020
854.368 .0273800
855.049 .0273576
855.730 .0273348
856.410 .0273117
857.090 .0272882
857.769 .0272645
858.449 .0272407
859.128 .0272169
859.806 .0271932
860.485 .0271697
861.163 .0271463
861.840 .0271232
862.518 .0271005
863.195 .0270780
863.871 .0270559
864.548 .0270343
865.224 .0270130
865.899 .0269923
866.574 .0269721
867.249 .0269525
867.924 .0269334
868.598 .0269148
869.272 .0268967
869.946 .0268791
870.619 .0268618
871.292 .0268450
871.964 .0268284
872.636 .0268123
873.308 .0267966
873.979 .0267813
874.651 .0267664
875.321 .0267520
875.992 .0267381
876.662 .0267247
877.331 .0267118
878.001 .0266993
878.670 .0266874
879.338 .0266761
880.007 .0266653
880.675 .0266552
881.342 .0266457
882.009 .0266370
882.676 .0266290
883.343 .0266218
884.009 .0266154
884.675 .0266098
885.340 .0266049
886.005 .0266008
886.670 .0265973
887.334 .0265945
887.998 .0265923
888.662 .0265907
889.325 .0265896
889.988 .0265889
890.650 .0265887
891.312 .0265890
891.974 .0265895
892.636 .0265904
893.297 .0265915
893.957 .0265929
894.618 .0265943
895.278 .0265958
895.937 .0265972
896.596 .0265985
897.255 .0265994
897.914 .0266001
898.572 .0266003
899.230 .0266001
899.887 .0265995
900.544 .0265983
901.201 .0265967
901.857 .0265919
902.513 .0265889
903.168 .0265853
903.823 .0265812
904.478 .0265764
905.132 .0265712
905.786 .0265656
906.440 .0265597
907.093 .0265535
907.746 .0265470
908.399 .0265405
909.051 .0265339
909.703 .0265272
910.354 .0265237
911.005 .0265170
911.656 .0265102
912.306 .0265033
912.956 .0264964
913.605 .0264895
914.254 .0264826
914.903 .0264757
915.551 .0264688
916.199 .0264619
916.847 .0264550
917.494 .0264479
918.141 .0264407
918.788 .0264333
919.434 .0264257
920.079 .0264179
920.725 .0264100
921.370 .0264019
922.014 .0263937
922.658 .0263853
923.302 .0263767
923.946 .0263679
924.589 .0263588
925.231 .0263495
925.873 .0263400
926.515 .0263302
927.157 .0263202
927.798 .0263102
928.439 .0263000
929.079 .0262898
929.719 .0262797
930.359 .0262696
930.998 .0262597
931.637 .0262499
932.275 .0262402
932.913 .0262307
933.551 .0262216
934.188 .0262128
934.825 .0262044
935.462 .0261965
936.098 .0261893
936.733 .0261826
937.369 .0261765
938.004 .0261710
938.638 .0261661
939.273 .0261616
939.907 .0261577
940.540 .0261542
941.173 .0261511
941.806 .0261485
942.438 .0261462
943.070 .0261443
943.702 .0261427
944.333 .0261414
944.964 .0261403
945.594 .0261392
946.224 .0261381
946.854 .0261369
947.483 .0261356
948.112 .0261341
948.741 .0261323
949.369 .0261302
949.996 .0261278
950.624 .0261250
951.251 .0261217
951.878 .0261179
952.504 .0261134
953.130 .0261083
953.755 .0261025
954.380 .0260959
955.005 .0260886
955.629 .0260807
956.253 .0260721
956.877 .0260629
957.500 .0260529
958.123 .0260423
958.746 .0260311
959.368 .0260193
959.990 .0260068
960.611 .0259939
961.232 .0259806
961.853 .0259670
962.473 .0259531
963.093 .0259391
963.712 .0259251
964.331 .0259111
964.950 .0258971
965.569 .0258832
966.187 .0258695
966.804 .0258559
967.422 .0258427
968.039 .0258297
968.655 .0258171
969.272 .0258047
969.887 .0257926
970.503 .0257806
971.118 .0257688
971.733 .0257571
972.347 .0257453
972.961 .0257335
973.575 .0257216
974.188 .0257098
974.801 .0256978
975.414 .0256858
976.026 .0256736
976.638 .0256612
977.250 .0256484
977.861 .0256350
978.472 .0256211
979.083 .0256065
979.693 .0255913
980.303 .0255755
980.912 .0255487
981.521 .0255317
982.130 .0255144
982.738 .0254967
983.346 .0254786
983.954 .0254601
984.562 .0254413
985.169 .0254222
985.775 .0254031
986.382 .0253840
986.988 .0253650
987.594 .0253463
988.199 .0253281
988.804 .0253104
989.409 .0253036
990.013 .0252869
990.617 .0252708
991.221 .0252553
991.824 .0252403
992.427 .0252260
993.030 .0252123
993.632 .0251992
994.234 .0251868
994.836 .0251751
995.438 .0251640
996.039 .0251537
996.640 .0251440
997.240 .0251349
997.840 .0251264
998.440 .0251185
999.040 .0251112
999.639 .0251044
1000.238 .0250981
1000.836 .0250923
1001.435 .0250868
1002.033 .0250817
1002.630 .0250769
1003.228 .0250723
1003.825 .0250679
1004.422 .0250636
1005.018 .0250593
1005.614 .0250551
1006.210 .0250507
1006.806 .0250463
1007.401 .0250417
1007.996 .0250368
1008.591 .0250317
1009.186 .0250263
1009.780 .0250207
1010.374 .0250150
1010.967 .0250092
1011.561 .0250035
1012.154 .0249979
1012.746 .0249926
1013.339 .0249876
1013.931 .0249829
1014.523 .0249787
1015.115 .0249747
1015.706 .0249711
1016.298 .0249679
1016.888 .0249651
1017.479 .0249627
1018.069 .0249609
1018.660 .0249598
1019.250 .0249595
1019.839 .0249599
1020.429 .0249612
1021.018 .0249633
1021.607 .0249661
1022.195 .0249697
1022.784 .0249739
1023.372 .0249787
1023.960 .0249842
1024.547 .0249903
1025.135 .0249972
1025.722 .0250047
1026.309 .0250130
1026.896 .0250218
1027.483 .0250312
1028.069 .0250410
1028.655 .0250510
1029.241 .0250611
1029.827 .0250711
1030.412 .0250810
1030.997 .0250908
1031.582 .0251005
1032.167 .0251100
1032.752 .0251195
1033.336 .0251290
1033.921 .0251384
1034.505 .0251476
1035.089 .0251567
1035.672 .0251654
1036.256 .0251736
1036.839 .0251814
1037.422 .0251887
1038.005 .0251954
1038.588 .0252017
1039.171 .0252077
1039.753 .0252134
1040.335 .0252188
1040.918 .0252241
1041.500 .0252291
1042.081 .0252339
1042.663 .0252385
1043.244 .0252427
1043.826 .0252468
1044.407 .0252508
1044.988 .0252549
1045.569 .0252592
1046.150 .0252638
1046.730 .0252688
1047.311 .0252742
1047.891 .0252801
1048.471 .0252862
1049.052 .0252924
1049.632 .0252985
1050.211 .0253044
1050.791 .0253100
1051.371 .0253153
1051.950 .0253202
1052.530 .0253250
1053.109 .0253297
1053.688 .0253343
1054.268 .0253389
1054.847 .0253435
1055.426 .0253483
1056.005 .0253531
1056.583 .0253579
1057.162 .0253629
1057.741 .0253681
1058.319 .0253736
1058.898 .0253794
1059.476 .0253858
1060.055 .0253927
1060.633 .0254002
1061.211 .0254081
1061.790 .0254164
1062.368 .0254250
1062.946 .0254337
1063.524 .0254426
1064.102 .0254514
1064.680 .0254603
1065.258 .0254692
1065.836 .0254783
1066.414 .0254877
1066.992 .0254974
1067.570 .0255074
1068.148 .0255180
1068.726 .0255290
1069.304 .0255404
1069.882 .0255522
1070.460 .0255645
1071.038 .0255772
1071.616 .0255902
1072.194 .0256035
1072.772 .0256169
1073.350 .0256304
1073.928 .0256439
1074.506 .0256573
1075.084 .0256704
1075.662 .0256832
1076.240 .0256957
1076.819 .0257077
1077.397 .0257195
1077.976 .0257308
1078.554 .0257420
1079.133 .0257529
1079.711 .0257637
1080.290 .0257744
1080.869 .0257850
1081.448 .0257957
1082.027 .0258066
1082.606 .0258176
1083.185 .0258289
1083.764 .0258404
1084.343 .0258523
1084.923 .0258646
1085.502 .0258773
1086.082 .0258904
1086.662 .0259039
1087.242 .0259177
1087.822 .0259318
1088.402 .0259462
1088.983 .0259607
1089.563 .0259756
1090.144 .0259908
1090.725 .0260064
1091.306 .0260225
1091.887 .0260393
1092.469 .0260567
1093.050 .0260748
1093.632 .0260935
1094.214 .0261129
1094.796 .0261326
1095.379 .0261525
1095.961 .0261725
1096.544 .0261926
1097.127 .0262126
1097.710 .0262327
1098.294 .0262528
1098.877 .0262731
1099.461 .0262936
1100.046 .0263144
1100.630 .0263355
1101.215 .0263567
1101.800 .0263779
1102.385 .0263988
1102.970 .0264194
1103.556 .0264397
1104.142 .0264598
1104.728 .0264798
1105.315 .0265001
1105.902 .0265210
1106.489 .0265427
1107.077 .0265655
1107.664 .0265896
1108.253 .0266151
1108.841 .0266418
1109.430 .0266697
1110.019 .0266987
1110.609 .0267286
1111.198 .0267593
1111.789 .0267911
1112.379 .0268239
1112.970 .0268577
1113.561 .0268925
1114.153 .0269282
1114.745 .0269647
1115.338 .0270018
1115.931 .0270392
1116.524 .0270767
1117.117 .0271142
1117.712 .0271515
1118.306 .0271887
1118.901 .0272260
1119.496 .0272638
1120.092 .0273021
1120.689 .0273410
1121.285 .0273806
1121.882 .0274207
1122.480 .0274613
1123.078 .0275022
1123.677 .0275434
1124.276 .0275848
1124.875 .0276267
1125.476 .0276691
1126.076 .0277126
1126.677 .0277575
1127.279 .0278042
1127.881 .0278529
1128.484 .0279037
1129.087 .0279229
1129.691 .0279759
1130.295 .0280312
1130.900 .0280889
1131.505 .0281493
1132.111 .0282127
1132.718 .0282793
1133.325 .0283492
1133.933 .0284224
1134.541 .0285047
1135.150 .0285921
1135.760 .0286752
1136.370 .0287538
1136.981 .0287913
1137.592 .0288963
1138.204 .0290014
1138.817 .0291088
1139.431 .0292207
1140.045 .0293406
1140.660 .0294626
1141.275 .0295817
1141.891 .0297008
1142.508 .0299784
1143.126 .0301428
1143.744 .0300417
1144.363 .0299410
1144.983 .0301033
