Measurement Sequence started on: 15-12-46-377
Integration time: 28
Scans to Average: 2 
>>>>>Begin Spectral Data<<<<<
432.689 .0000100
433.621 .0000100
434.552 .0000100
435.482 .0000100
436.410 .0000100
437.337 .0000100
438.262 .0280099
439.187 .0593744
440.110 .0983813
441.031 .1423625
441.952 .1141922
442.871 .1192617
443.789 .1239847
444.705 .1284369
445.621 .1326701
446.535 .1367232
447.447 .1391502
448.359 .1397948
449.269 .1382706
450.178 .1343276
451.086 .1280420
451.993 .1199003
452.898 .1107106
453.803 .1013896
454.706 .0927196
455.608 .0851878
456.508 .0789583
457.408 .0747514
458.306 .0715269
459.204 .0689082
460.100 .0667042
460.995 .0648081
461.888 .0631461
462.781 .0616690
463.673 .0603409
464.563 .0591371
465.452 .0580400
466.340 .0570366
467.228 .0561183
468.114 .0552766
468.999 .0545054
469.882 .0537981
470.765 .0531487
471.647 .0525519
472.528 .0520022
473.407 .0514955
474.286 .0510290
475.163 .0506007
476.040 .0502089
476.915 .0498524
477.790 .0495298
478.663 .0492394
479.535 .0489800
480.407 .0487497
481.277 .0485465
482.147 .0483687
483.015 .0482149
483.883 .0480840
484.749 .0479756
485.615 .0478900
486.479 .0478268
487.343 .0477866
488.206 .0477702
489.067 .0477775
489.928 .0478090
490.788 .0478646
491.647 .0479444
492.505 .0480489
493.362 .0481780
494.218 .0483322
495.073 .0485111
495.928 .0488663
496.781 .0491050
497.634 .0493673
498.486 .0496528
499.337 .0499615
500.187 .0502943
501.036 .0506525
501.884 .0510386
502.731 .0514561
503.578 .0519093
504.424 .0522095
505.268 .0527345
506.113 .0533099
506.956 .0539418
507.798 .0546367
508.640 .0554025
509.480 .0562480
510.320 .0571833
511.160 .0582202
511.998 .0593731
512.836 .0606598
513.672 .0620992
514.508 .0637134
515.344 .0655247
516.178 .0675558
517.012 .0698294
517.845 .0723654
518.677 .0751825
519.508 .0782943
520.339 .0817076
521.169 .0854218
521.998 .0894127
522.826 .0936466
523.654 .0980721
524.481 .1026229
525.307 .1072230
526.133 .1117895
526.958 .1162320
527.782 .1204624
528.605 .1243965
529.428 .1279588
530.250 .1310793
531.072 .1337067
531.892 .1357946
532.712 .1373122
533.532 .1382414
534.350 .1385728
535.168 .1383067
535.986 .1374522
536.802 .1360184
537.618 .1340178
538.434 .1314678
539.249 .1284088
540.063 .1248885
540.876 .1209689
541.689 .1167250
542.501 .1122394
543.313 .1075984
544.124 .1028923
544.934 .0982074
545.744 .0936232
546.553 .0892094
547.361 .0850242
548.169 .0811061
548.976 .0774859
549.783 .0741766
550.589 .0711768
551.395 .0684751
552.200 .0660507
553.004 .0638743
553.808 .0619192
554.611 .0601616
555.414 .0585784
556.216 .0571473
557.018 .0558480
557.819 .0546640
558.619 .0535796
559.419 .0525818
560.218 .0516594
561.017 .0508037
561.815 .0500065
562.613 .0492603
563.410 .0485567
564.207 .0478890
565.003 .0472503
565.799 .0466344
566.594 .0460358
567.388 .0454511
568.182 .0448775
568.976 .0443142
569.769 .0437607
570.562 .0432181
571.354 .0426868
572.145 .0421689
572.936 .0416659
573.727 .0411790
574.517 .0407088
575.307 .0402562
576.096 .0398209
576.885 .0394026
577.673 .0390014
578.461 .0386172
579.248 .0382498
580.035 .0378999
580.821 .0375677
581.607 .0372539
582.392 .0369588
583.177 .0366826
583.962 .0364253
584.746 .0361868
585.529 .0359664
586.313 .0357630
587.095 .0355758
587.878 .0354040
588.660 .0352464
589.441 .0351019
590.222 .0349695
591.003 .0348480
591.783 .0347363
592.563 .0346335
593.342 .0345384
594.121 .0344501
594.899 .0343677
595.678 .0342901
596.455 .0342166
597.233 .0341462
598.009 .0340783
598.786 .0340124
599.562 .0339479
600.338 .0338847
601.113 .0338224
601.888 .0337326
602.663 .0336735
603.437 .0336159
604.211 .0335599
604.984 .0335056
605.757 .0334532
606.530 .0334026
607.302 .0333539
608.074 .0333070
608.845 .0332621
609.616 .0332191
610.387 .0332032
611.158 .0331635
611.928 .0331261
612.697 .0330908
613.467 .0330579
614.236 .0330274
615.004 .0329990
615.773 .0329726
616.541 .0329481
617.308 .0329251
618.076 .0329034
618.843 .0328829
619.609 .0328633
620.375 .0328444
621.141 .0328262
621.907 .0328084
622.672 .0327909
623.437 .0327738
624.202 .0327568
624.966 .0327399
625.730 .0327230
626.493 .0327057
627.257 .0326881
628.020 .0326698
628.782 .0326507
629.545 .0326308
630.307 .0326100
631.068 .0325882
631.830 .0325655
632.591 .0325420
633.352 .0325176
634.112 .0324926
634.872 .0324670
635.632 .0324407
636.392 .0324136
637.151 .0323859
637.910 .0323573
638.668 .0323279
639.427 .0322977
640.185 .0322668
640.943 .0322351
641.700 .0322029
642.457 .0321704
643.214 .0321376
643.971 .0321048
644.727 .0320721
645.483 .0320398
646.239 .0320078
646.994 .0319762
647.750 .0319449
648.505 .0319140
649.259 .0318833
650.014 .0318528
650.768 .0318225
651.521 .0317924
652.275 .0317625
653.028 .0317329
653.781 .0317038
654.534 .0316750
655.286 .0316467
656.039 .0316188
656.791 .0315912
657.542 .0315640
658.294 .0315370
659.045 .0315102
659.796 .0314836
660.546 .0314571
661.297 .0314307
662.047 .0314043
662.796 .0313780
663.546 .0313517
664.295 .0313255
665.044 .0312994
665.793 .0312734
666.542 .0312476
667.290 .0312220
668.038 .0311967
668.786 .0311719
669.533 .0311474
670.281 .0311235
671.028 .0311001
671.774 .0310773
672.521 .0310552
673.267 .0310338
674.013 .0310131
674.759 .0309932
675.505 .0309741
676.250 .0309558
676.995 .0309383
677.740 .0309215
678.484 .0309054
679.229 .0308900
679.973 .0308752
680.717 .0308610
681.460 .0308474
682.204 .0308343
682.947 .0308216
683.690 .0308093
684.433 .0307972
685.175 .0307852
685.917 .0307733
686.659 .0307613
687.401 .0307492
688.142 .0307370
688.884 .0307245
689.625 .0307118
690.365 .0306988
691.106 .0306855
691.846 .0306716
692.586 .0306573
693.326 .0306423
694.066 .0306267
694.805 .0306104
695.545 .0305935
696.284 .0305760
697.022 .0305579
697.761 .0305392
698.499 .0305200
699.237 .0305003
699.975 .0304803
700.713 .0304600
701.450 .0304395
702.187 .0304189
702.924 .0303982
703.661 .0303774
704.397 .0303565
705.133 .0303356
705.869 .0303147
706.605 .0302936
707.341 .0302724
708.076 .0302511
708.811 .0302297
709.546 .0302083
710.281 .0301868
711.015 .0301654
711.749 .0301438
712.483 .0301222
713.217 .0301004
713.950 .0300783
714.684 .0300558
715.417 .0300329
716.150 .0300096
716.882 .0299856
717.615 .0299611
718.347 .0299360
719.079 .0299104
719.811 .0298842
720.542 .0298575
721.273 .0298303
722.005 .0298027
722.735 .0297747
723.466 .0297463
724.196 .0297175
724.927 .0296886
725.656 .0296594
726.386 .0296302
727.116 .0296011
727.845 .0295722
728.574 .0295436
729.303 .0295156
730.031 .0294882
730.760 .0294615
731.488 .0294357
732.216 .0294107
732.944 .0293866
733.671 .0293636
734.398 .0293415
735.125 .0293206
735.852 .0293009
736.579 .0292822
737.305 .0292648
738.031 .0292484
738.757 .0292331
739.483 .0292189
740.208 .0292055
740.933 .0291931
741.658 .0291815
742.383 .0291707
743.108 .0291606
743.832 .0291511
744.556 .0291420
745.280 .0291334
746.004 .0291249
746.727 .0291165
747.450 .0291080
748.173 .0290995
748.896 .0290908
749.618 .0290819
750.340 .0290729
751.062 .0290637
751.784 .0290544
752.506 .0290449
753.227 .0290353
753.948 .0290256
754.669 .0290157
755.389 .0290056
756.110 .0289954
756.830 .0289851
757.550 .0289747
758.269 .0289644
758.989 .0289540
759.708 .0289438
760.427 .0289336
761.146 .0289235
761.864 .0289134
762.582 .0289036
763.300 .0288939
764.018 .0288844
764.736 .0288752
765.453 .0288663
766.170 .0288576
766.887 .0288493
767.603 .0288413
768.320 .0288335
769.036 .0288260
769.751 .0288189
770.467 .0288120
771.182 .0288054
771.897 .0287992
772.612 .0287932
773.327 .0287875
774.041 .0287821
774.755 .0287769
775.469 .0287719
776.183 .0287671
776.896 .0287624
777.609 .0287578
778.322 .0287532
779.035 .0287486
779.747 .0287440
780.459 .0287393
781.171 .0287346
781.882 .0287297
782.594 .0287247
783.305 .0287195
784.016 .0287140
784.726 .0287082
785.436 .0287019
786.147 .0286903
786.856 .0286825
787.566 .0286740
788.275 .0286648
788.984 .0286549
789.693 .0286443
790.401 .0286330
791.110 .0286209
791.818 .0286080
792.525 .0285943
793.233 .0285797
793.940 .0285643
794.647 .0285545
795.353 .0285379
796.060 .0285206
796.766 .0285027
797.472 .0284841
798.177 .0284649
798.883 .0284450
799.588 .0284245
800.292 .0284034
800.997 .0283817
801.701 .0283594
802.405 .0283366
803.109 .0283133
803.812 .0282895
804.515 .0282654
805.218 .0282409
805.921 .0282160
806.623 .0281909
807.325 .0281654
808.027 .0281396
808.728 .0281136
809.429 .0280874
810.130 .0280611
810.831 .0280348
811.531 .0280085
812.231 .0279822
812.931 .0279560
813.630 .0279299
814.330 .0279040
815.029 .0278782
815.727 .0278527
816.426 .0278275
817.124 .0278026
817.821 .0277782
818.519 .0277544
819.216 .0277312
819.913 .0277086
820.609 .0276866
821.306 .0276655
822.002 .0276450
822.697 .0276254
823.393 .0276065
824.088 .0275886
824.783 .0275715
825.477 .0275554
826.171 .0275402
826.865 .0275258
827.559 .0275123
828.252 .0274997
828.945 .0274880
829.638 .0274770
830.330 .0274669
831.023 .0274576
831.714 .0274490
832.406 .0274410
833.097 .0274337
833.788 .0274270
834.479 .0274208
835.169 .0274151
835.859 .0274098
836.548 .0274050
837.238 .0274006
837.927 .0273966
838.615 .0273931
839.304 .0273899
839.992 .0273870
840.680 .0273842
841.367 .0273816
842.054 .0273791
842.741 .0273768
843.428 .0273745
844.114 .0273723
844.800 .0273702
845.485 .0273682
846.170 .0273661
846.855 .0273639
847.540 .0273615
848.224 .0273589
848.908 .0273560
849.592 .0273528
850.275 .0273493
850.958 .0273455
851.641 .0273413
852.323 .0273369
853.005 .0273321
853.687 .0273270
854.368 .0273214
855.049 .0273154
855.730 .0273090
856.410 .0273022
857.090 .0272952
857.769 .0272880
858.449 .0272807
859.128 .0272734
859.806 .0272662
860.485 .0272590
861.163 .0272520
861.840 .0272450
862.518 .0272382
863.195 .0272315
863.871 .0272250
864.548 .0272187
865.224 .0272129
865.899 .0272074
866.574 .0272023
867.249 .0271977
867.924 .0271935
868.598 .0271898
869.272 .0271864
869.946 .0271834
870.619 .0271808
871.292 .0271785
871.964 .0271765
872.636 .0271749
873.308 .0271736
873.979 .0271726
874.651 .0271719
875.321 .0271714
875.992 .0271711
876.662 .0271708
877.331 .0271705
878.001 .0271702
878.670 .0271698
879.338 .0271693
880.007 .0271688
880.675 .0271684
881.342 .0271679
882.009 .0271674
882.676 .0271669
883.343 .0271664
884.009 .0271658
884.675 .0271651
885.340 .0271643
886.005 .0271634
886.670 .0271624
887.334 .0271612
887.998 .0271598
888.662 .0271583
889.325 .0271567
889.988 .0271547
890.650 .0271525
891.312 .0271499
891.974 .0271468
892.636 .0271432
893.297 .0271391
893.957 .0271343
894.618 .0271288
895.278 .0271225
895.937 .0271154
896.596 .0271072
897.255 .0270980
897.914 .0270876
898.572 .0270759
899.230 .0270629
899.887 .0270487
900.544 .0270331
901.201 .0270162
901.857 .0269852
902.513 .0269652
903.168 .0269439
903.823 .0269213
904.478 .0268977
905.132 .0268729
905.786 .0268470
906.440 .0268201
907.093 .0267923
907.746 .0267637
908.399 .0267344
909.051 .0267045
909.703 .0266741
910.354 .0266582
911.005 .0266274
911.656 .0265963
912.306 .0265649
912.956 .0265333
913.605 .0265016
914.254 .0264699
914.903 .0264381
915.551 .0264064
916.199 .0263749
916.847 .0263434
917.494 .0263119
918.141 .0262806
918.788 .0262492
919.434 .0262180
920.079 .0261868
920.725 .0261557
921.370 .0261247
922.014 .0260938
922.658 .0260631
923.302 .0260324
923.946 .0260018
924.589 .0259712
925.231 .0259407
925.873 .0259102
926.515 .0258796
927.157 .0258491
927.798 .0258187
928.439 .0257884
929.079 .0257584
929.719 .0257288
930.359 .0256995
930.998 .0256708
931.637 .0256425
932.275 .0256149
932.913 .0255878
933.551 .0255614
934.188 .0255356
934.825 .0255106
935.462 .0254864
936.098 .0254629
936.733 .0254404
937.369 .0254187
938.004 .0253979
938.638 .0253780
939.273 .0253589
939.907 .0253408
940.540 .0253236
941.173 .0253072
941.806 .0252917
942.438 .0252772
943.070 .0252635
943.702 .0252507
944.333 .0252388
944.964 .0252277
945.594 .0252173
946.224 .0252075
946.854 .0251984
947.483 .0251897
948.112 .0251814
948.741 .0251736
949.369 .0251661
949.996 .0251590
950.624 .0251524
951.251 .0251462
951.878 .0251404
952.504 .0251351
953.130 .0251302
953.755 .0251259
954.380 .0251221
955.005 .0251190
955.629 .0251164
956.253 .0251144
956.877 .0251131
957.500 .0251125
958.123 .0251125
958.746 .0251132
959.368 .0251145
959.990 .0251164
960.611 .0251189
961.232 .0251219
961.853 .0251253
962.473 .0251292
963.093 .0251334
963.712 .0251380
964.331 .0251429
964.950 .0251480
965.569 .0251534
966.187 .0251590
966.804 .0251647
967.422 .0251706
968.039 .0251764
968.655 .0251823
969.272 .0251881
969.887 .0251939
970.503 .0251995
971.118 .0252051
971.733 .0252105
972.347 .0252157
972.961 .0252208
973.575 .0252256
974.188 .0252301
974.801 .0252342
975.414 .0252380
976.026 .0252414
976.638 .0252444
977.250 .0252472
977.861 .0252498
978.472 .0252522
979.083 .0252547
979.693 .0252572
980.303 .0252598
980.912 .0252645
981.521 .0252675
982.130 .0252705
982.738 .0252735
983.346 .0252767
983.954 .0252800
984.562 .0252835
985.169 .0252873
985.775 .0252913
986.382 .0252957
986.988 .0253004
987.594 .0253052
988.199 .0253102
988.804 .0253152
989.409 .0253180
990.013 .0253230
990.617 .0253280
991.221 .0253331
991.824 .0253384
992.427 .0253438
993.030 .0253493
993.632 .0253551
994.234 .0253609
994.836 .0253666
995.438 .0253723
996.039 .0253778
996.640 .0253831
997.240 .0253883
997.840 .0253933
998.440 .0253983
999.040 .0254033
999.639 .0254085
1000.238 .0254138
1000.836 .0254193
1001.435 .0254250
1002.033 .0254307
1002.630 .0254366
1003.228 .0254424
1003.825 .0254482
1004.422 .0254539
1005.018 .0254596
1005.614 .0254652
1006.210 .0254709
1006.806 .0254766
1007.401 .0254823
1007.996 .0254880
1008.591 .0254936
1009.186 .0254991
1009.780 .0255043
1010.374 .0255093
1010.967 .0255140
1011.561 .0255184
1012.154 .0255225
1012.746 .0255263
1013.339 .0255299
1013.931 .0255332
1014.523 .0255364
1015.115 .0255394
1015.706 .0255422
1016.298 .0255446
1016.888 .0255467
1017.479 .0255484
1018.069 .0255496
1018.660 .0255504
1019.250 .0255508
1019.839 .0255509
1020.429 .0255505
1021.018 .0255499
1021.607 .0255491
1022.195 .0255480
1022.784 .0255469
1023.372 .0255456
1023.960 .0255441
1024.547 .0255426
1025.135 .0255409
1025.722 .0255391
1026.309 .0255372
1026.896 .0255351
1027.483 .0255329
1028.069 .0255306
1028.655 .0255283
1029.241 .0255259
1029.827 .0255234
1030.412 .0255208
1030.997 .0255181
1031.582 .0255151
1032.167 .0255119
1032.752 .0255084
1033.336 .0255045
1033.921 .0255002
1034.505 .0254956
1035.089 .0254905
1035.672 .0254852
1036.256 .0254796
1036.839 .0254736
1037.422 .0254673
1038.005 .0254607
1038.588 .0254538
1039.171 .0254465
1039.753 .0254387
1040.335 .0254305
1040.918 .0254218
1041.500 .0254127
1042.081 .0254033
1042.663 .0253935
1043.244 .0253834
1043.826 .0253731
1044.407 .0253626
1044.988 .0253519
1045.569 .0253410
1046.150 .0253298
1046.730 .0253184
1047.311 .0253067
1047.891 .0252948
1048.471 .0252826
1049.052 .0252704
1049.632 .0252582
1050.211 .0252460
1050.791 .0252341
1051.371 .0252223
1051.950 .0252107
1052.530 .0251993
1053.109 .0251881
1053.688 .0251770
1054.268 .0251659
1054.847 .0251546
1055.426 .0251433
1056.005 .0251318
1056.583 .0251200
1057.162 .0251081
1057.741 .0250959
1058.319 .0250834
1058.898 .0250705
1059.476 .0250572
1060.055 .0250434
1060.633 .0250292
1061.211 .0250145
1061.790 .0249995
1062.368 .0249841
1062.946 .0249685
1063.524 .0249529
1064.102 .0249371
1064.680 .0249214
1065.258 .0249058
1065.836 .0248901
1066.414 .0248743
1066.992 .0248585
1067.570 .0248426
1068.148 .0248265
1068.726 .0248104
1069.304 .0247943
1069.882 .0247783
1070.460 .0247624
1071.038 .0247468
1071.616 .0247315
1072.194 .0247165
1072.772 .0247019
1073.350 .0246877
1073.928 .0246739
1074.506 .0246606
1075.084 .0246480
1075.662 .0246364
1076.240 .0246260
1076.819 .0246170
1077.397 .0246095
1077.976 .0246036
1078.554 .0245993
1079.133 .0245965
1079.711 .0245950
1080.290 .0245947
1080.869 .0245955
1081.448 .0245972
1082.027 .0245998
1082.606 .0246033
1083.185 .0246077
1083.764 .0246129
1084.343 .0246191
1084.923 .0246261
1085.502 .0246339
1086.082 .0246422
1086.662 .0246512
1087.242 .0246606
1087.822 .0246705
1088.402 .0246810
1088.983 .0246921
1089.563 .0247039
1090.144 .0247166
1090.725 .0247300
1091.306 .0247442
1091.887 .0247590
1092.469 .0247743
1093.050 .0247898
1093.632 .0248053
1094.214 .0248208
1094.796 .0248362
1095.379 .0248515
1095.961 .0248667
1096.544 .0248820
1097.127 .0248973
1097.710 .0249127
1098.294 .0249282
1098.877 .0249437
1099.461 .0249592
1100.046 .0249746
1100.630 .0249900
1101.215 .0250054
1101.800 .0250210
1102.385 .0250369
1102.970 .0250532
1103.556 .0250703
1104.142 .0250880
1104.728 .0251066
1105.315 .0251260
1105.902 .0251461
1106.489 .0251670
1107.077 .0251888
1107.664 .0252112
1108.253 .0252345
1108.841 .0252587
1109.430 .0252840
1110.019 .0253104
1110.609 .0253380
1111.198 .0253669
1111.789 .0253971
1112.379 .0254285
1112.970 .0254611
1113.561 .0254948
1114.153 .0255297
1114.745 .0255659
1115.338 .0256033
1115.931 .0256422
1116.524 .0256826
1117.117 .0257247
1117.712 .0257684
1118.306 .0258136
1118.901 .0258601
1119.496 .0259075
1120.092 .0259556
1120.689 .0260040
1121.285 .0260528
1121.882 .0261020
1122.480 .0261518
1123.078 .0262025
1123.677 .0262544
1124.276 .0263079
1124.875 .0263632
1125.476 .0264206
1126.076 .0264805
1126.677 .0265430
1127.279 .0266087
1127.881 .0266776
1128.484 .0267504
1129.087 .0267797
1129.691 .0268573
1130.295 .0269395
1130.900 .0270264
1131.505 .0271183
1132.111 .0272154
1132.718 .0273177
1133.325 .0274245
1133.933 .0275345
1134.541 .0276568
1135.150 .0277829
1135.760 .0279104
1136.370 .0280265
1136.981 .0279850
1137.592 .0281589
1138.204 .0283442
1138.817 .0285289
1139.431 .0287219
1140.045 .0289187
1140.660 .0291166
1141.275 .0292994
1141.891 .0294436
1142.508 .0298489
1143.126 .0300146
1143.744 .0301120
1144.363 .0298449
1144.983 .0291966
