Measurement Sequence started on: 15-12-46-377
Integration time: 28
Scans to Average: 2 
>>>>>Begin Spectral Data<<<<<
432.689 .0000100
433.621 .0000100
434.552 .0000100
435.482 .0000100
436.410 .0000100
437.337 .0000100
438.262 .0269876
439.187 .0571309
440.110 .0945678
441.031 .1367862
441.952 .1101820
442.871 .1151795
443.789 .1198452
444.705 .1242483
445.621 .1284344
446.535 .1324400
447.447 .1348684
448.359 .1355730
449.269 .1341853
450.178 .1304668
451.086 .1244883
451.993 .1167179
452.898 .1079278
453.803 .0989977
454.706 .0906738
455.608 .0834208
456.508 .0773941
457.408 .0732896
458.306 .0701062
459.204 .0674878
460.100 .0652583
460.995 .0633230
461.888 .0616147
462.781 .0600909
463.673 .0587181
464.563 .0574763
465.452 .0563481
466.340 .0553213
467.228 .0543846
468.114 .0535302
468.999 .0527502
469.882 .0520389
470.765 .0513896
471.647 .0507962
472.528 .0502532
473.407 .0497557
474.286 .0493003
475.163 .0488846
476.040 .0485062
476.915 .0481638
477.790 .0478554
478.663 .0475801
479.535 .0473357
480.407 .0471203
481.277 .0469313
482.147 .0467664
483.015 .0466230
483.883 .0464996
484.749 .0463946
485.615 .0463075
486.479 .0462384
487.343 .0461878
488.206 .0461562
489.067 .0461442
489.928 .0461525
490.788 .0461813
491.647 .0462313
492.505 .0463018
493.362 .0463927
494.218 .0465038
495.073 .0466354
495.928 .0469109
496.781 .0470978
497.634 .0473078
498.486 .0475422
499.337 .0478027
500.187 .0480903
501.036 .0484077
501.884 .0487570
502.731 .0491406
503.578 .0495607
504.424 .0498478
505.268 .0503365
506.113 .0508732
506.956 .0514630
507.798 .0521121
508.640 .0528280
509.480 .0536213
510.320 .0545048
511.160 .0554932
511.998 .0566028
512.836 .0578526
513.672 .0592596
514.508 .0608439
515.344 .0626263
516.178 .0646275
517.012 .0668706
517.845 .0693799
518.677 .0721768
519.508 .0752828
520.339 .0787145
521.169 .0824820
521.998 .0865671
522.826 .0909402
523.654 .0955492
524.481 .1003254
525.307 .1051837
526.133 .1100273
526.958 .1147516
527.782 .1192583
528.605 .1234525
529.428 .1272519
530.250 .1305862
531.072 .1334093
531.892 .1356795
532.712 .1373706
533.532 .1384653
534.350 .1389559
535.168 .1388382
535.986 .1381153
536.802 .1367870
537.618 .1348582
538.434 .1323395
539.249 .1292676
540.063 .1256897
540.876 .1216713
541.689 .1172908
542.501 .1126410
543.313 .1078218
544.124 .1029379
544.934 .0980839
545.744 .0933474
546.553 .0888022
547.361 .0845061
548.169 .0804924
548.976 .0767877
549.783 .0734009
550.589 .0703302
551.395 .0675613
552.200 .0650751
553.004 .0628461
553.808 .0608507
554.611 .0590651
555.414 .0574656
556.216 .0560283
557.018 .0547303
557.819 .0535519
558.619 .0524757
559.419 .0514865
560.218 .0505717
561.017 .0497196
561.815 .0489218
562.613 .0481705
563.410 .0474584
564.207 .0467792
565.003 .0461285
565.799 .0455008
566.594 .0448919
567.388 .0442997
568.182 .0437217
568.976 .0431563
569.769 .0426025
570.562 .0420603
571.354 .0415298
572.145 .0410119
572.936 .0405077
573.727 .0400184
574.517 .0395454
575.307 .0390905
576.096 .0386545
576.885 .0382388
577.673 .0378442
578.461 .0374707
579.248 .0371180
580.035 .0367856
580.821 .0364728
581.607 .0361787
582.392 .0359030
583.177 .0356454
583.962 .0354054
584.746 .0351825
585.529 .0349765
586.313 .0347868
587.095 .0346127
587.878 .0344532
588.660 .0343072
589.441 .0341733
590.222 .0340504
591.003 .0339374
591.783 .0338334
592.563 .0337374
593.342 .0336485
594.121 .0335658
594.899 .0334883
595.678 .0334155
596.455 .0333465
597.233 .0332806
598.009 .0332172
598.786 .0331560
599.562 .0330964
600.338 .0330381
601.113 .0329808
601.888 .0328975
602.663 .0328427
603.437 .0327890
604.211 .0327364
604.984 .0326852
605.757 .0326356
606.530 .0325878
607.302 .0325418
608.074 .0324979
608.845 .0324561
609.616 .0324164
610.387 .0324021
611.158 .0323653
611.928 .0323304
612.697 .0322972
613.467 .0322658
614.236 .0322361
615.004 .0322078
615.773 .0321808
616.541 .0321550
617.308 .0321301
618.076 .0321059
618.843 .0320823
619.609 .0320591
620.375 .0320360
621.141 .0320129
621.907 .0319895
622.672 .0319656
623.437 .0319412
624.202 .0319162
624.966 .0318904
625.730 .0318640
626.493 .0318370
627.257 .0318094
628.020 .0317813
628.782 .0317529
629.545 .0317242
630.307 .0316951
631.068 .0316658
631.830 .0316363
632.591 .0316067
633.352 .0315770
634.112 .0315476
634.872 .0315185
635.632 .0314900
636.392 .0314620
637.151 .0314347
637.910 .0314082
638.668 .0313824
639.427 .0313574
640.185 .0313331
640.943 .0313096
641.700 .0312869
642.457 .0312649
643.214 .0312435
643.971 .0312228
644.727 .0312026
645.483 .0311829
646.239 .0311634
646.994 .0311442
647.750 .0311251
648.505 .0311061
649.259 .0310872
650.014 .0310682
650.768 .0310491
651.521 .0310299
652.275 .0310104
653.028 .0309905
653.781 .0309703
654.534 .0309497
655.286 .0309285
656.039 .0309069
656.791 .0308849
657.542 .0308624
658.294 .0308396
659.045 .0308163
659.796 .0307928
660.546 .0307689
661.297 .0307447
662.047 .0307203
662.796 .0306956
663.546 .0306708
664.295 .0306458
665.044 .0306208
665.793 .0305960
666.542 .0305713
667.290 .0305468
668.038 .0305228
668.786 .0304991
669.533 .0304759
670.281 .0304531
671.028 .0304308
671.774 .0304089
672.521 .0303873
673.267 .0303660
674.013 .0303450
674.759 .0303242
675.505 .0303037
676.250 .0302834
676.995 .0302633
677.740 .0302434
678.484 .0302238
679.229 .0302044
679.973 .0301854
680.717 .0301665
681.460 .0301480
682.204 .0301295
682.947 .0301111
683.690 .0300927
684.433 .0300742
685.175 .0300556
685.917 .0300367
686.659 .0300176
687.401 .0299984
688.142 .0299789
688.884 .0299593
689.625 .0299394
690.365 .0299195
691.106 .0298994
691.846 .0298791
692.586 .0298586
693.326 .0298380
694.066 .0298172
694.805 .0297964
695.545 .0297756
696.284 .0297547
697.022 .0297340
697.761 .0297133
698.499 .0296929
699.237 .0296727
699.975 .0296528
700.713 .0296333
701.450 .0296142
702.187 .0295955
702.924 .0295772
703.661 .0295592
704.397 .0295414
705.133 .0295239
705.869 .0295066
706.605 .0294894
707.341 .0294723
708.076 .0294553
708.811 .0294384
709.546 .0294217
710.281 .0294051
711.015 .0293886
711.749 .0293722
712.483 .0293557
713.217 .0293391
713.950 .0293224
714.684 .0293057
715.417 .0292888
716.150 .0292717
716.882 .0292544
717.615 .0292369
718.347 .0292192
719.079 .0292013
719.811 .0291833
720.542 .0291651
721.273 .0291468
722.005 .0291285
722.735 .0291101
723.466 .0290918
724.196 .0290736
724.927 .0290556
725.656 .0290378
726.386 .0290201
727.116 .0290027
727.845 .0289854
728.574 .0289685
729.303 .0289518
730.031 .0289354
730.760 .0289193
731.488 .0289034
732.216 .0288877
732.944 .0288723
733.671 .0288571
734.398 .0288422
735.125 .0288275
735.852 .0288131
736.579 .0287990
737.305 .0287852
738.031 .0287718
738.757 .0287588
739.483 .0287460
740.208 .0287335
740.933 .0287213
741.658 .0287092
742.383 .0286974
743.108 .0286858
743.832 .0286744
744.556 .0286632
745.280 .0286521
746.004 .0286411
746.727 .0286302
747.450 .0286193
748.173 .0286083
748.896 .0285972
749.618 .0285860
750.340 .0285745
751.062 .0285629
751.784 .0285509
752.506 .0285387
753.227 .0285260
753.948 .0285130
754.669 .0284995
755.389 .0284857
756.110 .0284714
756.830 .0284568
757.550 .0284418
758.269 .0284267
758.989 .0284113
759.708 .0283958
760.427 .0283801
761.146 .0283642
761.864 .0283482
762.582 .0283320
763.300 .0283158
764.018 .0282994
764.736 .0282832
765.453 .0282671
766.170 .0282512
766.887 .0282357
767.603 .0282206
768.320 .0282060
769.036 .0281919
769.751 .0281783
770.467 .0281652
771.182 .0281527
771.897 .0281407
772.612 .0281292
773.327 .0281182
774.041 .0281077
774.755 .0280976
775.469 .0280881
776.183 .0280789
776.896 .0280701
777.609 .0280618
778.322 .0280538
779.035 .0280462
779.747 .0280389
780.459 .0280318
781.171 .0280250
781.882 .0280182
782.594 .0280115
783.305 .0280048
784.016 .0279979
784.726 .0279909
785.436 .0279837
786.147 .0279723
786.856 .0279645
787.566 .0279565
788.275 .0279483
788.984 .0279398
789.693 .0279311
790.401 .0279221
791.110 .0279129
791.818 .0279034
792.525 .0278936
793.233 .0278836
793.940 .0278732
794.647 .0278671
795.353 .0278564
796.060 .0278454
796.766 .0278343
797.472 .0278229
798.177 .0278114
798.883 .0277997
799.588 .0277879
800.292 .0277760
800.997 .0277639
801.701 .0277516
802.405 .0277392
803.109 .0277266
803.812 .0277138
804.515 .0277008
805.218 .0276878
805.921 .0276748
806.623 .0276618
807.325 .0276489
808.027 .0276359
808.728 .0276230
809.429 .0276101
810.130 .0275973
810.831 .0275844
811.531 .0275717
812.231 .0275590
812.931 .0275464
813.630 .0275339
814.330 .0275215
815.029 .0275092
815.727 .0274970
816.426 .0274850
817.124 .0274732
817.821 .0274615
818.519 .0274502
819.216 .0274392
819.913 .0274286
820.609 .0274184
821.306 .0274087
822.002 .0273993
822.697 .0273904
823.393 .0273818
824.088 .0273736
824.783 .0273658
825.477 .0273583
826.171 .0273512
826.865 .0273445
827.559 .0273381
828.252 .0273321
828.945 .0273264
829.638 .0273209
830.330 .0273157
831.023 .0273106
831.714 .0273057
832.406 .0273009
833.097 .0272962
833.788 .0272916
834.479 .0272871
835.169 .0272827
835.859 .0272783
836.548 .0272739
837.238 .0272696
837.927 .0272651
838.615 .0272606
839.304 .0272559
839.992 .0272511
840.680 .0272460
841.367 .0272407
842.054 .0272350
842.741 .0272291
843.428 .0272229
844.114 .0272164
844.800 .0272095
845.485 .0272023
846.170 .0271947
846.855 .0271867
847.540 .0271784
848.224 .0271696
848.908 .0271605
849.592 .0271510
850.275 .0271411
850.958 .0271309
851.641 .0271203
852.323 .0271093
853.005 .0270980
853.687 .0270864
854.368 .0270744
855.049 .0270622
855.730 .0270497
856.410 .0270370
857.090 .0270243
857.769 .0270115
858.449 .0269987
859.128 .0269859
859.806 .0269732
860.485 .0269605
861.163 .0269479
861.840 .0269355
862.518 .0269232
863.195 .0269111
863.871 .0268994
864.548 .0268879
865.224 .0268767
865.899 .0268658
866.574 .0268553
867.249 .0268451
867.924 .0268351
868.598 .0268255
869.272 .0268160
869.946 .0268069
870.619 .0267981
871.292 .0267897
871.964 .0267815
872.636 .0267738
873.308 .0267663
873.979 .0267591
874.651 .0267520
875.321 .0267451
875.992 .0267383
876.662 .0267315
877.331 .0267247
878.001 .0267179
878.670 .0267111
879.338 .0267043
880.007 .0266975
880.675 .0266907
881.342 .0266840
882.009 .0266773
882.676 .0266706
883.343 .0266640
884.009 .0266575
884.675 .0266511
885.340 .0266449
886.005 .0266388
886.670 .0266330
887.334 .0266273
887.998 .0266218
888.662 .0266165
889.325 .0266115
889.988 .0266067
890.650 .0266022
891.312 .0265979
891.974 .0265939
892.636 .0265901
893.297 .0265865
893.957 .0265830
894.618 .0265795
895.278 .0265760
895.937 .0265724
896.596 .0265687
897.255 .0265647
897.914 .0265606
898.572 .0265560
899.230 .0265511
899.887 .0265458
900.544 .0265399
901.201 .0265335
901.857 .0265209
902.513 .0265129
903.168 .0265043
903.823 .0264951
904.478 .0264852
905.132 .0264746
905.786 .0264632
906.440 .0264511
907.093 .0264382
907.746 .0264246
908.399 .0264103
909.051 .0263955
909.703 .0263802
910.354 .0263718
911.005 .0263563
911.656 .0263406
912.306 .0263248
912.956 .0263088
913.605 .0262926
914.254 .0262763
914.903 .0262599
915.551 .0262433
916.199 .0262267
916.847 .0262099
917.494 .0261932
918.141 .0261764
918.788 .0261596
919.434 .0261428
920.079 .0261259
920.725 .0261088
921.370 .0260916
922.014 .0260741
922.658 .0260565
923.302 .0260385
923.946 .0260204
924.589 .0260020
925.231 .0259833
925.873 .0259644
926.515 .0259453
927.157 .0259259
927.798 .0259063
928.439 .0258865
929.079 .0258665
929.719 .0258464
930.359 .0258261
930.998 .0258059
931.637 .0257857
932.275 .0257656
932.913 .0257456
933.551 .0257259
934.188 .0257064
934.825 .0256873
935.462 .0256684
936.098 .0256500
936.733 .0256319
937.369 .0256142
938.004 .0255970
938.638 .0255802
939.273 .0255641
939.907 .0255485
940.540 .0255337
941.173 .0255196
941.806 .0255062
942.438 .0254937
943.070 .0254818
943.702 .0254705
944.333 .0254598
944.964 .0254495
945.594 .0254395
946.224 .0254299
946.854 .0254207
947.483 .0254117
948.112 .0254030
948.741 .0253946
949.369 .0253863
949.996 .0253781
950.624 .0253698
951.251 .0253614
951.878 .0253528
952.504 .0253440
953.130 .0253349
953.755 .0253256
954.380 .0253161
955.005 .0253066
955.629 .0252971
956.253 .0252875
956.877 .0252779
957.500 .0252683
958.123 .0252587
958.746 .0252491
959.368 .0252396
959.990 .0252303
960.611 .0252213
961.232 .0252126
961.853 .0252043
962.473 .0251965
963.093 .0251889
963.712 .0251817
964.331 .0251748
964.950 .0251679
965.569 .0251611
966.187 .0251545
966.804 .0251478
967.422 .0251413
968.039 .0251349
968.655 .0251286
969.272 .0251224
969.887 .0251162
970.503 .0251100
971.118 .0251037
971.733 .0250972
972.347 .0250904
972.961 .0250833
973.575 .0250759
974.188 .0250680
974.801 .0250597
975.414 .0250510
976.026 .0250417
976.638 .0250319
977.250 .0250216
977.861 .0250107
978.472 .0249994
979.083 .0249876
979.693 .0249754
980.303 .0249628
980.912 .0249434
981.521 .0249307
982.130 .0249179
982.738 .0249053
983.346 .0248928
983.954 .0248805
984.562 .0248686
985.169 .0248571
985.775 .0248461
986.382 .0248356
986.988 .0248257
987.594 .0248163
988.199 .0248076
988.804 .0247996
989.409 .0247976
990.013 .0247904
990.617 .0247838
991.221 .0247779
991.824 .0247724
992.427 .0247676
993.030 .0247633
993.632 .0247596
994.234 .0247564
994.836 .0247538
995.438 .0247517
996.039 .0247501
996.640 .0247490
997.240 .0247484
997.840 .0247482
998.440 .0247484
999.040 .0247489
999.639 .0247497
1000.238 .0247507
1000.836 .0247518
1001.435 .0247530
1002.033 .0247544
1002.630 .0247558
1003.228 .0247574
1003.825 .0247590
1004.422 .0247608
1005.018 .0247625
1005.614 .0247643
1006.210 .0247661
1006.806 .0247679
1007.401 .0247696
1007.996 .0247713
1008.591 .0247731
1009.186 .0247748
1009.780 .0247766
1010.374 .0247785
1010.967 .0247804
1011.561 .0247825
1012.154 .0247845
1012.746 .0247866
1013.339 .0247886
1013.931 .0247906
1014.523 .0247926
1015.115 .0247946
1015.706 .0247966
1016.298 .0247987
1016.888 .0248010
1017.479 .0248036
1018.069 .0248065
1018.660 .0248098
1019.250 .0248134
1019.839 .0248174
1020.429 .0248219
1021.018 .0248268
1021.607 .0248321
1022.195 .0248379
1022.784 .0248442
1023.372 .0248510
1023.960 .0248582
1024.547 .0248658
1025.135 .0248737
1025.722 .0248819
1026.309 .0248904
1026.896 .0248990
1027.483 .0249077
1028.069 .0249164
1028.655 .0249251
1029.241 .0249337
1029.827 .0249421
1030.412 .0249503
1030.997 .0249583
1031.582 .0249659
1032.167 .0249733
1032.752 .0249804
1033.336 .0249872
1033.921 .0249938
1034.505 .0250002
1035.089 .0250064
1035.672 .0250124
1036.256 .0250181
1036.839 .0250235
1037.422 .0250287
1038.005 .0250335
1038.588 .0250378
1039.171 .0250419
1039.753 .0250455
1040.335 .0250489
1040.918 .0250521
1041.500 .0250551
1042.081 .0250580
1042.663 .0250609
1043.244 .0250637
1043.826 .0250664
1044.407 .0250692
1044.988 .0250721
1045.569 .0250750
1046.150 .0250783
1046.730 .0250818
1047.311 .0250858
1047.891 .0250901
1048.471 .0250949
1049.052 .0251000
1049.632 .0251054
1050.211 .0251108
1050.791 .0251162
1051.371 .0251216
1051.950 .0251268
1052.530 .0251318
1053.109 .0251366
1053.688 .0251412
1054.268 .0251456
1054.847 .0251496
1055.426 .0251535
1056.005 .0251571
1056.583 .0251605
1057.162 .0251636
1057.741 .0251665
1058.319 .0251693
1058.898 .0251722
1059.476 .0251754
1060.055 .0251790
1060.633 .0251831
1061.211 .0251876
1061.790 .0251926
1062.368 .0251980
1062.946 .0252036
1063.524 .0252094
1064.102 .0252152
1064.680 .0252211
1065.258 .0252271
1065.836 .0252331
1066.414 .0252392
1066.992 .0252454
1067.570 .0252518
1068.148 .0252582
1068.726 .0252646
1069.304 .0252709
1069.882 .0252772
1070.460 .0252833
1071.038 .0252894
1071.616 .0252955
1072.194 .0253017
1072.772 .0253081
1073.350 .0253148
1073.928 .0253220
1074.506 .0253297
1075.084 .0253377
1075.662 .0253460
1076.240 .0253545
1076.819 .0253629
1077.397 .0253714
1077.976 .0253798
1078.554 .0253881
1079.133 .0253963
1079.711 .0254046
1080.290 .0254128
1080.869 .0254211
1081.448 .0254294
1082.027 .0254376
1082.606 .0254458
1083.185 .0254539
1083.764 .0254619
1084.343 .0254700
1084.923 .0254782
1085.502 .0254865
1086.082 .0254953
1086.662 .0255044
1087.242 .0255141
1087.822 .0255245
1088.402 .0255354
1088.983 .0255469
1089.563 .0255589
1090.144 .0255714
1090.725 .0255842
1091.306 .0255975
1091.887 .0256111
1092.469 .0256250
1093.050 .0256394
1093.632 .0256543
1094.214 .0256697
1094.796 .0256857
1095.379 .0257022
1095.961 .0257192
1096.544 .0257368
1097.127 .0257548
1097.710 .0257733
1098.294 .0257924
1098.877 .0258119
1099.461 .0258320
1100.046 .0258525
1100.630 .0258736
1101.215 .0258951
1101.800 .0259168
1102.385 .0259387
1102.970 .0259605
1103.556 .0259822
1104.142 .0260035
1104.728 .0260246
1105.315 .0260454
1105.902 .0260661
1106.489 .0260867
1107.077 .0261073
1107.664 .0261278
1108.253 .0261481
1108.841 .0261680
1109.430 .0261874
1110.019 .0262061
1110.609 .0262240
1111.198 .0262412
1111.789 .0262579
1112.379 .0262744
1112.970 .0262912
1113.561 .0263083
1114.153 .0263258
1114.745 .0263439
1115.338 .0263624
1115.931 .0263814
1116.524 .0264009
1117.117 .0264210
1117.712 .0264418
1118.306 .0264639
1118.901 .0264875
1119.496 .0265131
1120.092 .0265412
1120.689 .0265717
1121.285 .0266048
1121.882 .0266400
1122.480 .0266773
1123.078 .0267165
1123.677 .0267576
1124.276 .0268007
1124.875 .0268461
1125.476 .0268940
1126.076 .0269448
1126.677 .0269987
1127.279 .0270562
1127.881 .0271173
1128.484 .0271822
1129.087 .0272082
1129.691 .0272783
1130.295 .0273518
1130.900 .0274292
1131.505 .0275107
1132.111 .0275968
1132.718 .0276879
1133.325 .0277852
1133.933 .0278883
1134.541 .0279958
1135.150 .0281106
1135.760 .0282277
1136.370 .0283740
1136.981 .0283154
1137.592 .0284437
1138.204 .0285781
1138.817 .0287248
1139.431 .0288821
1140.045 .0290500
1140.660 .0292292
1141.275 .0294373
1141.891 .0296334
1142.508 .0297891
1143.126 .0300390
1143.744 .0301505
1144.363 .0310259
1144.983 .0303348
