Measurement Sequence started on: 15-12-46-377
Integration time: 28
Scans to Average: 2 
>>>>>Begin Spectral Data<<<<<
432.689 .0000100
433.621 .0000100
434.552 .0000100
435.482 .0000100
436.410 .0000100
437.337 .0000100
438.262 .0260000
439.187 .0551732
440.110 .0913561
441.031 .1321388
441.952 .1062639
442.871 .1110689
443.789 .1155593
444.705 .1198023
445.621 .1238425
446.535 .1277125
447.447 .1300679
448.359 .1307595
449.269 .1294334
450.178 .1258595
451.086 .1201064
451.993 .1126275
452.898 .1041717
453.803 .0955883
454.706 .0875995
455.608 .0806529
456.508 .0748978
457.408 .0710020
458.306 .0680013
459.204 .0655452
460.100 .0634614
460.995 .0616583
461.888 .0600709
462.781 .0586568
463.673 .0573858
464.563 .0562361
465.452 .0551915
466.340 .0542386
467.228 .0533675
468.114 .0525706
468.999 .0518409
469.882 .0511725
470.765 .0505606
471.647 .0499997
472.528 .0494858
473.407 .0490142
474.286 .0485821
475.163 .0481870
476.040 .0478268
476.915 .0475000
477.790 .0472054
478.663 .0469418
479.535 .0467086
480.407 .0465042
481.277 .0463282
482.147 .0461794
483.015 .0460569
483.883 .0459593
484.749 .0458854
485.615 .0458338
486.479 .0458039
487.343 .0457944
488.206 .0458045
489.067 .0458332
489.928 .0458794
490.788 .0459418
491.647 .0460195
492.505 .0461116
493.362 .0462180
494.218 .0463384
495.073 .0464737
495.928 .0467263
496.781 .0469024
497.634 .0470952
498.486 .0473053
499.337 .0475345
500.187 .0477847
501.036 .0480586
501.884 .0483602
502.731 .0486946
503.578 .0490672
504.424 .0493422
505.268 .0497960
506.113 .0503049
506.956 .0508752
507.798 .0515147
508.640 .0522313
509.480 .0530343
510.320 .0539341
511.160 .0549423
511.998 .0560724
512.836 .0573392
513.672 .0587586
514.508 .0603479
515.344 .0621270
516.178 .0641139
517.012 .0663292
517.845 .0687931
518.677 .0715227
519.508 .0745331
520.339 .0778317
521.169 .0814175
521.998 .0852657
522.826 .0893403
523.654 .0935869
524.481 .0979413
525.307 .1023289
526.133 .1066648
526.958 .1108617
527.782 .1148361
528.605 .1185097
529.428 .1218112
530.250 .1246775
531.072 .1270637
531.892 .1289314
532.712 .1302556
533.532 .1310195
534.350 .1312177
535.168 .1308527
535.986 .1299318
536.802 .1284610
537.618 .1264503
538.434 .1239165
539.249 .1208990
540.063 .1174453
540.876 .1136187
541.689 .1094910
542.501 .1051428
543.313 .1006614
544.124 .0961352
544.934 .0916464
545.744 .0872691
546.553 .0830675
547.361 .0790964
548.169 .0753897
548.976 .0719727
549.783 .0688548
550.589 .0660370
551.395 .0635050
552.200 .0612359
553.004 .0592032
553.808 .0573826
554.611 .0557527
555.414 .0542922
556.216 .0529800
557.018 .0517981
557.819 .0507327
558.619 .0497690
559.419 .0488939
560.218 .0480970
561.017 .0473673
561.815 .0466947
562.613 .0460704
563.410 .0454866
564.207 .0449353
565.003 .0444111
565.799 .0439081
566.594 .0434217
567.388 .0429492
568.182 .0424875
568.976 .0420352
569.769 .0415913
570.562 .0411554
571.354 .0407263
572.145 .0403046
572.936 .0398909
573.727 .0394851
574.517 .0390877
575.307 .0386997
576.096 .0383214
576.885 .0379536
577.673 .0375969
578.461 .0372521
579.248 .0369200
580.035 .0366013
580.821 .0362961
581.607 .0360046
582.392 .0357269
583.177 .0354628
583.962 .0352120
584.746 .0349744
585.529 .0347502
586.313 .0345391
587.095 .0343411
587.878 .0341562
588.660 .0339841
589.441 .0338245
590.222 .0336770
591.003 .0335409
591.783 .0334152
592.563 .0332992
593.342 .0331919
594.121 .0330924
594.899 .0329999
595.678 .0329136
596.455 .0328330
597.233 .0327575
598.009 .0326867
598.786 .0326201
599.562 .0325575
600.338 .0324984
601.113 .0324426
601.888 .0323680
602.663 .0323189
603.437 .0322723
604.211 .0322280
604.984 .0321858
605.757 .0321456
606.530 .0321075
607.302 .0320714
608.074 .0320375
608.845 .0320057
609.616 .0319762
610.387 .0319667
611.158 .0319407
611.928 .0319169
612.697 .0318953
613.467 .0318757
614.236 .0318579
615.004 .0318418
615.773 .0318271
616.541 .0318136
617.308 .0318010
618.076 .0317890
618.843 .0317773
619.609 .0317659
620.375 .0317546
621.141 .0317432
621.907 .0317316
622.672 .0317197
623.437 .0317073
624.202 .0316942
624.966 .0316802
625.730 .0316652
626.493 .0316489
627.257 .0316312
628.020 .0316121
628.782 .0315915
629.545 .0315695
630.307 .0315461
631.068 .0315216
631.830 .0314960
632.591 .0314697
633.352 .0314426
634.112 .0314151
634.872 .0313871
635.632 .0313588
636.392 .0313303
637.151 .0313014
637.910 .0312721
638.668 .0312425
639.427 .0312126
640.185 .0311823
640.943 .0311518
641.700 .0311211
642.457 .0310904
643.214 .0310598
643.971 .0310295
644.727 .0309994
645.483 .0309696
646.239 .0309399
646.994 .0309103
647.750 .0308806
648.505 .0308508
649.259 .0308208
650.014 .0307906
650.768 .0307603
651.521 .0307299
652.275 .0306995
653.028 .0306692
653.781 .0306391
654.534 .0306094
655.286 .0305800
656.039 .0305510
656.791 .0305225
657.542 .0304944
658.294 .0304669
659.045 .0304400
659.796 .0304136
660.546 .0303879
661.297 .0303629
662.047 .0303386
662.796 .0303151
663.546 .0302924
664.295 .0302706
665.044 .0302497
665.793 .0302297
666.542 .0302108
667.290 .0301928
668.038 .0301758
668.786 .0301596
669.533 .0301441
670.281 .0301294
671.028 .0301153
671.774 .0301017
672.521 .0300888
673.267 .0300764
674.013 .0300646
674.759 .0300534
675.505 .0300429
676.250 .0300329
676.995 .0300234
677.740 .0300144
678.484 .0300059
679.229 .0299976
679.973 .0299897
680.717 .0299821
681.460 .0299747
682.204 .0299677
682.947 .0299610
683.690 .0299544
684.433 .0299479
685.175 .0299413
685.917 .0299346
686.659 .0299276
687.401 .0299202
688.142 .0299124
688.884 .0299040
689.625 .0298952
690.365 .0298860
691.106 .0298762
691.846 .0298659
692.586 .0298549
693.326 .0298433
694.066 .0298308
694.805 .0298176
695.545 .0298035
696.284 .0297885
697.022 .0297727
697.761 .0297560
698.499 .0297384
699.237 .0297200
699.975 .0297009
700.713 .0296811
701.450 .0296607
702.187 .0296398
702.924 .0296184
703.661 .0295966
704.397 .0295745
705.133 .0295520
705.869 .0295292
706.605 .0295059
707.341 .0294821
708.076 .0294579
708.811 .0294332
709.546 .0294080
710.281 .0293825
711.015 .0293567
711.749 .0293305
712.483 .0293040
713.217 .0292773
713.950 .0292502
714.684 .0292228
715.417 .0291950
716.150 .0291668
716.882 .0291383
717.615 .0291094
718.347 .0290801
719.079 .0290506
719.811 .0290208
720.542 .0289910
721.273 .0289612
722.005 .0289315
722.735 .0289022
723.466 .0288734
724.196 .0288451
724.927 .0288177
725.656 .0287910
726.386 .0287652
727.116 .0287404
727.845 .0287166
728.574 .0286939
729.303 .0286723
730.031 .0286519
730.760 .0286327
731.488 .0286149
732.216 .0285984
732.944 .0285832
733.671 .0285693
734.398 .0285567
735.125 .0285453
735.852 .0285350
736.579 .0285258
737.305 .0285178
738.031 .0285108
738.757 .0285047
739.483 .0284994
740.208 .0284949
740.933 .0284909
741.658 .0284875
742.383 .0284846
743.108 .0284820
743.832 .0284797
744.556 .0284777
745.280 .0284759
746.004 .0284743
746.727 .0284728
747.450 .0284714
748.173 .0284700
748.896 .0284685
749.618 .0284670
750.340 .0284654
751.062 .0284636
751.784 .0284617
752.506 .0284596
753.227 .0284573
753.948 .0284548
754.669 .0284521
755.389 .0284493
756.110 .0284463
756.830 .0284431
757.550 .0284399
758.269 .0284367
758.989 .0284334
759.708 .0284301
760.427 .0284267
761.146 .0284233
761.864 .0284198
762.582 .0284160
763.300 .0284121
764.018 .0284078
764.736 .0284033
765.453 .0283984
766.170 .0283933
766.887 .0283879
767.603 .0283824
768.320 .0283768
769.036 .0283711
769.751 .0283653
770.467 .0283594
771.182 .0283533
771.897 .0283471
772.612 .0283407
773.327 .0283340
774.041 .0283271
774.755 .0283199
775.469 .0283124
776.183 .0283046
776.896 .0282966
777.609 .0282882
778.322 .0282794
779.035 .0282702
779.747 .0282606
780.459 .0282504
781.171 .0282397
781.882 .0282283
782.594 .0282164
783.305 .0282037
784.016 .0281904
784.726 .0281764
785.436 .0281617
786.147 .0281369
786.856 .0281205
787.566 .0281034
788.275 .0280858
788.984 .0280675
789.693 .0280487
790.401 .0280293
791.110 .0280094
791.818 .0279891
792.525 .0279683
793.233 .0279471
793.940 .0279254
794.647 .0279140
795.353 .0278918
796.060 .0278692
796.766 .0278462
797.472 .0278227
798.177 .0277987
798.883 .0277743
799.588 .0277494
800.292 .0277240
800.997 .0276982
801.701 .0276719
802.405 .0276451
803.109 .0276180
803.812 .0275904
804.515 .0275625
805.218 .0275341
805.921 .0275054
806.623 .0274763
807.325 .0274469
808.027 .0274172
808.728 .0273873
809.429 .0273573
810.130 .0273273
810.831 .0272974
811.531 .0272678
812.231 .0272385
812.931 .0272097
813.630 .0271814
814.330 .0271539
815.029 .0271274
815.727 .0271018
816.426 .0270773
817.124 .0270541
817.821 .0270321
818.519 .0270113
819.216 .0269919
819.913 .0269736
820.609 .0269566
821.306 .0269409
822.002 .0269265
822.697 .0269134
823.393 .0269018
824.088 .0268915
824.783 .0268827
825.477 .0268752
826.171 .0268691
826.865 .0268641
827.559 .0268601
828.252 .0268572
828.945 .0268551
829.638 .0268539
830.330 .0268535
831.023 .0268539
831.714 .0268552
832.406 .0268571
833.097 .0268598
833.788 .0268631
834.479 .0268669
835.169 .0268713
835.859 .0268761
836.548 .0268815
837.238 .0268873
837.927 .0268936
838.615 .0269003
839.304 .0269074
839.992 .0269148
840.680 .0269223
841.367 .0269300
842.054 .0269376
842.741 .0269453
843.428 .0269529
844.114 .0269606
844.800 .0269683
845.485 .0269759
846.170 .0269834
846.855 .0269908
847.540 .0269977
848.224 .0270043
848.908 .0270102
849.592 .0270156
850.275 .0270203
850.958 .0270245
851.641 .0270281
852.323 .0270313
853.005 .0270341
853.687 .0270364
854.368 .0270385
855.049 .0270401
855.730 .0270413
856.410 .0270422
857.090 .0270427
857.769 .0270430
858.449 .0270430
859.128 .0270428
859.806 .0270424
860.485 .0270419
861.163 .0270412
861.840 .0270402
862.518 .0270390
863.195 .0270374
863.871 .0270356
864.548 .0270335
865.224 .0270312
865.899 .0270287
866.574 .0270261
867.249 .0270233
867.924 .0270202
868.598 .0270168
869.272 .0270130
869.946 .0270088
870.619 .0270042
871.292 .0269991
871.964 .0269936
872.636 .0269878
873.308 .0269816
873.979 .0269751
874.651 .0269682
875.321 .0269611
875.992 .0269534
876.662 .0269454
877.331 .0269367
878.001 .0269276
878.670 .0269179
879.338 .0269076
880.007 .0268969
880.675 .0268858
881.342 .0268742
882.009 .0268623
882.676 .0268499
883.343 .0268372
884.009 .0268242
884.675 .0268108
885.340 .0267971
886.005 .0267832
886.670 .0267690
887.334 .0267545
887.998 .0267398
888.662 .0267247
889.325 .0267092
889.988 .0266932
890.650 .0266768
891.312 .0266599
891.974 .0266425
892.636 .0266247
893.297 .0266063
893.957 .0265876
894.618 .0265684
895.278 .0265487
895.937 .0265286
896.596 .0265078
897.255 .0264866
897.914 .0264647
898.572 .0264422
899.230 .0264191
899.887 .0263953
900.544 .0263710
901.201 .0263461
901.857 .0263058
902.513 .0262795
903.168 .0262525
903.823 .0262250
904.478 .0261969
905.132 .0261682
905.786 .0261389
906.440 .0261090
907.093 .0260787
907.746 .0260479
908.399 .0260167
909.051 .0259852
909.703 .0259534
910.354 .0259372
911.005 .0259054
911.656 .0258735
912.306 .0258416
912.956 .0258097
913.605 .0257778
914.254 .0257459
914.903 .0257142
915.551 .0256827
916.199 .0256513
916.847 .0256202
917.494 .0255892
918.141 .0255584
918.788 .0255278
919.434 .0254974
920.079 .0254671
920.725 .0254370
921.370 .0254071
922.014 .0253774
922.658 .0253480
923.302 .0253190
923.946 .0252903
924.589 .0252620
925.231 .0252342
925.873 .0252068
926.515 .0251799
927.157 .0251536
927.798 .0251279
928.439 .0251027
929.079 .0250783
929.719 .0250546
930.359 .0250316
930.998 .0250095
931.637 .0249883
932.275 .0249679
932.913 .0249486
933.551 .0249302
934.188 .0249129
934.825 .0248968
935.462 .0248817
936.098 .0248679
936.733 .0248553
937.369 .0248439
938.004 .0248337
938.638 .0248246
939.273 .0248168
939.907 .0248101
940.540 .0248045
941.173 .0248001
941.806 .0247968
942.438 .0247946
943.070 .0247934
943.702 .0247931
944.333 .0247937
944.964 .0247950
945.594 .0247968
946.224 .0247991
946.854 .0248019
947.483 .0248050
948.112 .0248085
948.741 .0248123
949.369 .0248164
949.996 .0248207
950.624 .0248253
951.251 .0248302
951.878 .0248352
952.504 .0248404
953.130 .0248457
953.755 .0248514
954.380 .0248573
955.005 .0248636
955.629 .0248703
956.253 .0248774
956.877 .0248851
957.500 .0248932
958.123 .0249017
958.746 .0249107
959.368 .0249200
959.990 .0249298
960.611 .0249401
961.232 .0249509
961.853 .0249623
962.473 .0249742
963.093 .0249867
963.712 .0249997
964.331 .0250132
964.950 .0250271
965.569 .0250413
966.187 .0250558
966.804 .0250706
967.422 .0250855
968.039 .0251007
968.655 .0251159
969.272 .0251313
969.887 .0251466
970.503 .0251620
971.118 .0251771
971.733 .0251920
972.347 .0252065
972.961 .0252204
973.575 .0252338
974.188 .0252464
974.801 .0252584
975.414 .0252696
976.026 .0252800
976.638 .0252896
977.250 .0252984
977.861 .0253064
978.472 .0253135
979.083 .0253197
979.693 .0253251
980.303 .0253297
980.912 .0253334
981.521 .0253362
982.130 .0253384
982.738 .0253402
983.346 .0253416
983.954 .0253427
984.562 .0253436
985.169 .0253442
985.775 .0253447
986.382 .0253450
986.988 .0253452
987.594 .0253454
988.199 .0253456
988.804 .0253459
989.409 .0253471
990.013 .0253479
990.617 .0253491
991.221 .0253507
991.824 .0253527
992.427 .0253551
993.030 .0253579
993.632 .0253610
994.234 .0253644
994.836 .0253679
995.438 .0253716
996.039 .0253754
996.640 .0253793
997.240 .0253834
997.840 .0253876
998.440 .0253919
999.040 .0253963
999.639 .0254007
1000.238 .0254050
1000.836 .0254090
1001.435 .0254126
1002.033 .0254158
1002.630 .0254183
1003.228 .0254202
1003.825 .0254214
1004.422 .0254220
1005.018 .0254218
1005.614 .0254210
1006.210 .0254194
1006.806 .0254172
1007.401 .0254142
1007.996 .0254105
1008.591 .0254060
1009.186 .0254008
1009.780 .0253948
1010.374 .0253882
1010.967 .0253811
1011.561 .0253735
1012.154 .0253655
1012.746 .0253573
1013.339 .0253488
1013.931 .0253403
1014.523 .0253317
1015.115 .0253230
1015.706 .0253143
1016.298 .0253057
1016.888 .0252971
1017.479 .0252887
1018.069 .0252805
1018.660 .0252724
1019.250 .0252646
1019.839 .0252571
1020.429 .0252498
1021.018 .0252428
1021.607 .0252359
1022.195 .0252293
1022.784 .0252228
1023.372 .0252163
1023.960 .0252099
1024.547 .0252036
1025.135 .0251972
1025.722 .0251908
1026.309 .0251843
1026.896 .0251778
1027.483 .0251712
1028.069 .0251645
1028.655 .0251577
1029.241 .0251506
1029.827 .0251432
1030.412 .0251354
1030.997 .0251271
1031.582 .0251183
1032.167 .0251090
1032.752 .0250990
1033.336 .0250885
1033.921 .0250774
1034.505 .0250656
1035.089 .0250531
1035.672 .0250400
1036.256 .0250261
1036.839 .0250114
1037.422 .0249959
1038.005 .0249795
1038.588 .0249624
1039.171 .0249445
1039.753 .0249259
1040.335 .0249067
1040.918 .0248868
1041.500 .0248664
1042.081 .0248455
1042.663 .0248242
1043.244 .0248026
1043.826 .0247807
1044.407 .0247587
1044.988 .0247366
1045.569 .0247145
1046.150 .0246926
1046.730 .0246708
1047.311 .0246493
1047.891 .0246280
1048.471 .0246071
1049.052 .0245864
1049.632 .0245660
1050.211 .0245460
1050.791 .0245262
1051.371 .0245069
1051.950 .0244880
1052.530 .0244696
1053.109 .0244517
1053.688 .0244344
1054.268 .0244178
1054.847 .0244018
1055.426 .0243866
1056.005 .0243719
1056.583 .0243580
1057.162 .0243447
1057.741 .0243321
1058.319 .0243202
1058.898 .0243088
1059.476 .0242981
1060.055 .0242878
1060.633 .0242778
1061.211 .0242681
1061.790 .0242585
1062.368 .0242489
1062.946 .0242393
1063.524 .0242295
1064.102 .0242196
1064.680 .0242096
1065.258 .0241995
1065.836 .0241894
1066.414 .0241793
1066.992 .0241691
1067.570 .0241589
1068.148 .0241487
1068.726 .0241386
1069.304 .0241285
1069.882 .0241185
1070.460 .0241087
1071.038 .0240992
1071.616 .0240901
1072.194 .0240814
1072.772 .0240733
1073.350 .0240656
1073.928 .0240583
1074.506 .0240512
1075.084 .0240443
1075.662 .0240376
1076.240 .0240309
1076.819 .0240245
1077.397 .0240184
1077.976 .0240128
1078.554 .0240079
1079.133 .0240038
1079.711 .0240006
1080.290 .0239986
1080.869 .0239976
1081.448 .0239976
1082.027 .0239984
1082.606 .0240001
1083.185 .0240026
1083.764 .0240057
1084.343 .0240096
1084.923 .0240143
1085.502 .0240198
1086.082 .0240261
1086.662 .0240332
1087.242 .0240410
1087.822 .0240495
1088.402 .0240584
1088.983 .0240677
1089.563 .0240773
1090.144 .0240872
1090.725 .0240978
1091.306 .0241092
1091.887 .0241216
1092.469 .0241355
1093.050 .0241508
1093.632 .0241679
1094.214 .0241865
1094.796 .0242066
1095.379 .0242279
1095.961 .0242504
1096.544 .0242738
1097.127 .0242980
1097.710 .0243230
1098.294 .0243488
1098.877 .0243756
1099.461 .0244033
1100.046 .0244319
1100.630 .0244615
1101.215 .0244919
1101.800 .0245229
1102.385 .0245545
1102.970 .0245868
1103.556 .0246195
1104.142 .0246532
1104.728 .0246879
1105.315 .0247238
1105.902 .0247614
1106.489 .0248007
1107.077 .0248419
1107.664 .0248849
1108.253 .0249296
1108.841 .0249760
1109.430 .0250240
1110.019 .0250734
1110.609 .0251242
1111.198 .0251764
1111.789 .0252302
1112.379 .0252856
1112.970 .0253426
1113.561 .0254013
1114.153 .0254616
1114.745 .0255236
1115.338 .0255872
1115.931 .0256521
1116.524 .0257183
1117.117 .0257858
1117.712 .0258542
1118.306 .0259237
1118.901 .0259942
1119.496 .0260654
1120.092 .0261375
1120.689 .0262106
1121.285 .0262844
1121.882 .0263590
1122.480 .0264343
1123.078 .0265100
1123.677 .0265862
1124.276 .0266625
1124.875 .0267390
1125.476 .0268156
1126.076 .0268925
1126.677 .0269695
1127.279 .0270470
1127.881 .0271249
1128.484 .0272034
1129.087 .0272421
1129.691 .0273209
1130.295 .0274002
1130.900 .0274801
1131.505 .0275604
1132.111 .0276410
1132.718 .0277216
1133.325 .0278018
1133.933 .0278810
1134.541 .0279642
1135.150 .0280462
1135.760 .0281228
1136.370 .0281939
1136.981 .0283043
1137.592 .0284155
1138.204 .0285248
1138.817 .0286296
1139.431 .0287322
1140.045 .0288282
1140.660 .0289137
1141.275 .0289832
1141.891 .0290333
1142.508 .0292170
1143.126 .0292493
1143.744 .0291682
1144.363 .0290702
1144.983 .0289145
