Measurement Sequence started on: 15-12-46-377
Integration time: 28
Scans to Average: 2 
>>>>>Begin Spectral Data<<<<<
432.689 .0000100
433.621 .0000100
434.552 .0000100
435.482 .0000100
436.410 .0000100
437.337 .0000100
438.262 .0283386
439.187 .0599922
440.110 .0993108
441.031 .1435648
441.952 .1143935
442.871 .1194110
443.789 .1240856
444.705 .1284904
445.621 .1326761
446.535 .1366788
447.447 .1390324
448.359 .1395824
449.269 .1379420
450.178 .1338655
451.086 .1274353
451.993 .1191476
452.898 .1098245
453.803 .1003938
454.706 .0916417
455.608 .0840548
456.508 .0777904
457.408 .0735715
458.306 .0703368
459.204 .0677031
460.100 .0654769
460.995 .0635534
461.888 .0618630
462.781 .0603587
463.673 .0590085
464.563 .0577913
465.452 .0566896
466.340 .0556895
467.228 .0547789
468.114 .0539484
468.999 .0531893
469.882 .0524933
470.765 .0518534
471.647 .0512650
472.528 .0507235
473.407 .0502266
474.286 .0497724
475.163 .0493602
476.040 .0489878
476.915 .0486534
477.790 .0483536
478.663 .0480858
479.535 .0478468
480.407 .0476338
481.277 .0474445
482.147 .0472777
483.015 .0471325
483.883 .0470085
484.749 .0469060
485.615 .0468253
486.479 .0467663
487.343 .0467291
488.206 .0467132
489.067 .0467181
489.928 .0467435
490.788 .0467897
491.647 .0468573
492.505 .0469477
493.362 .0470613
494.218 .0471987
495.073 .0473598
495.928 .0476819
496.781 .0478974
497.634 .0481341
498.486 .0483921
499.337 .0486718
500.187 .0489739
501.036 .0493009
501.884 .0496554
502.731 .0500411
503.578 .0504620
504.424 .0507444
505.268 .0512326
506.113 .0517667
506.956 .0523512
507.798 .0529931
508.640 .0537001
509.480 .0544823
510.320 .0553520
511.160 .0563219
511.998 .0574065
512.836 .0586213
513.672 .0599845
514.508 .0615151
515.344 .0632333
516.178 .0651601
517.012 .0673181
517.845 .0697303
518.677 .0724172
519.508 .0753935
520.339 .0786658
521.169 .0822353
521.998 .0860781
522.826 .0901588
523.654 .0944247
524.481 .0988127
525.307 .1032493
526.133 .1076502
526.958 .1119275
527.782 .1159929
528.605 .1197673
529.428 .1231782
530.250 .1261596
531.072 .1286672
531.892 .1306624
532.712 .1321215
533.532 .1330287
534.350 .1333784
535.168 .1331718
535.986 .1324126
536.802 .1311084
537.618 .1292695
538.434 .1269091
539.249 .1240636
540.063 .1207792
540.876 .1171163
541.689 .1131441
542.501 .1089392
543.313 .1045856
544.124 .1001698
544.934 .0957746
545.744 .0914727
546.553 .0873286
547.361 .0833992
548.169 .0797166
548.976 .0763058
549.783 .0731755
550.589 .0703232
551.395 .0677337
552.200 .0653844
553.004 .0632502
553.808 .0613067
554.611 .0595347
555.414 .0579155
556.216 .0564338
557.018 .0550748
557.819 .0538261
558.619 .0526761
559.419 .0516153
560.218 .0506350
561.017 .0497259
561.815 .0488808
562.613 .0480935
563.410 .0473570
564.207 .0466652
565.003 .0460123
565.799 .0453924
566.594 .0447998
567.388 .0442302
568.182 .0436800
568.976 .0431466
569.769 .0426278
570.562 .0421226
571.354 .0416305
572.145 .0411520
572.936 .0406873
573.727 .0402364
574.517 .0398000
575.307 .0393783
576.096 .0389710
576.885 .0385780
577.673 .0381995
578.461 .0378356
579.248 .0374861
580.035 .0371518
580.821 .0368327
581.607 .0365293
582.392 .0362420
583.177 .0359712
583.962 .0357170
584.746 .0354792
585.529 .0352572
586.313 .0350502
587.095 .0348576
587.878 .0346782
588.660 .0345110
589.441 .0343549
590.222 .0342095
591.003 .0340738
591.783 .0339474
592.563 .0338297
593.342 .0337201
594.121 .0336183
594.899 .0335237
595.678 .0334358
596.455 .0333539
597.233 .0332774
598.009 .0332059
598.786 .0331386
599.562 .0330751
600.338 .0330151
601.113 .0329584
601.888 .0328849
602.663 .0328358
603.437 .0327899
604.211 .0327472
604.984 .0327074
605.757 .0326705
606.530 .0326360
607.302 .0326035
608.074 .0325727
608.845 .0325432
609.616 .0325149
610.387 .0325032
611.158 .0324762
611.928 .0324501
612.697 .0324250
613.467 .0324007
614.236 .0323774
615.004 .0323547
615.773 .0323327
616.541 .0323111
617.308 .0322898
618.076 .0322687
618.843 .0322476
619.609 .0322266
620.375 .0322055
621.141 .0321844
621.907 .0321630
622.672 .0321415
623.437 .0321198
624.202 .0320979
624.966 .0320759
625.730 .0320539
626.493 .0320318
627.257 .0320097
628.020 .0319874
628.782 .0319650
629.545 .0319422
630.307 .0319189
631.068 .0318950
631.830 .0318705
632.591 .0318453
633.352 .0318196
634.112 .0317936
634.872 .0317673
635.632 .0317409
636.392 .0317142
637.151 .0316875
637.910 .0316605
638.668 .0316332
639.427 .0316057
640.185 .0315779
640.943 .0315498
641.700 .0315217
642.457 .0314935
643.214 .0314655
643.971 .0314377
644.727 .0314101
645.483 .0313828
646.239 .0313558
646.994 .0313290
647.750 .0313025
648.505 .0312763
649.259 .0312504
650.014 .0312247
650.768 .0311991
651.521 .0311737
652.275 .0311484
653.028 .0311231
653.781 .0310977
654.534 .0310722
655.286 .0310465
656.039 .0310206
656.791 .0309943
657.542 .0309678
658.294 .0309409
659.045 .0309136
659.796 .0308859
660.546 .0308578
661.297 .0308294
662.047 .0308009
662.796 .0307723
663.546 .0307439
664.295 .0307157
665.044 .0306879
665.793 .0306606
666.542 .0306341
667.290 .0306083
668.038 .0305832
668.786 .0305590
669.533 .0305355
670.281 .0305128
671.028 .0304908
671.774 .0304697
672.521 .0304493
673.267 .0304296
674.013 .0304106
674.759 .0303923
675.505 .0303746
676.250 .0303573
676.995 .0303404
677.740 .0303238
678.484 .0303073
679.229 .0302908
679.973 .0302742
680.717 .0302576
681.460 .0302409
682.204 .0302240
682.947 .0302070
683.690 .0301897
684.433 .0301723
685.175 .0301546
685.917 .0301367
686.659 .0301186
687.401 .0301003
688.142 .0300819
688.884 .0300634
689.625 .0300448
690.365 .0300261
691.106 .0300073
691.846 .0299885
692.586 .0299695
693.326 .0299505
694.066 .0299314
694.805 .0299123
695.545 .0298932
696.284 .0298742
697.022 .0298551
697.761 .0298360
698.499 .0298169
699.237 .0297979
699.975 .0297788
700.713 .0297599
701.450 .0297410
702.187 .0297222
702.924 .0297035
703.661 .0296850
704.397 .0296667
705.133 .0296484
705.869 .0296303
706.605 .0296122
707.341 .0295943
708.076 .0295765
708.811 .0295588
709.546 .0295413
710.281 .0295241
711.015 .0295070
711.749 .0294902
712.483 .0294736
713.217 .0294572
713.950 .0294408
714.684 .0294244
715.417 .0294078
716.150 .0293910
716.882 .0293740
717.615 .0293566
718.347 .0293389
719.079 .0293209
719.811 .0293026
720.542 .0292840
721.273 .0292652
722.005 .0292463
722.735 .0292274
723.466 .0292084
724.196 .0291894
724.927 .0291704
725.656 .0291514
726.386 .0291326
727.116 .0291139
727.845 .0290953
728.574 .0290769
729.303 .0290587
730.031 .0290409
730.760 .0290235
731.488 .0290066
732.216 .0289902
732.944 .0289744
733.671 .0289592
734.398 .0289446
735.125 .0289304
735.852 .0289167
736.579 .0289034
737.305 .0288904
738.031 .0288776
738.757 .0288650
739.483 .0288527
740.208 .0288405
740.933 .0288285
741.658 .0288167
742.383 .0288049
743.108 .0287933
743.832 .0287816
744.556 .0287699
745.280 .0287580
746.004 .0287460
746.727 .0287337
747.450 .0287210
748.173 .0287079
748.896 .0286945
749.618 .0286806
750.340 .0286663
751.062 .0286517
751.784 .0286368
752.506 .0286215
753.227 .0286059
753.948 .0285900
754.669 .0285738
755.389 .0285572
756.110 .0285403
756.830 .0285231
757.550 .0285057
758.269 .0284880
758.989 .0284701
759.708 .0284521
760.427 .0284341
761.146 .0284161
761.864 .0283981
762.582 .0283803
763.300 .0283626
764.018 .0283450
764.736 .0283275
765.453 .0283103
766.170 .0282933
766.887 .0282766
767.603 .0282603
768.320 .0282443
769.036 .0282287
769.751 .0282135
770.467 .0281987
771.182 .0281844
771.897 .0281705
772.612 .0281570
773.327 .0281440
774.041 .0281315
774.755 .0281195
775.469 .0281079
776.183 .0280969
776.896 .0280864
777.609 .0280763
778.322 .0280667
779.035 .0280576
779.747 .0280488
780.459 .0280405
781.171 .0280324
781.882 .0280247
782.594 .0280172
783.305 .0280099
784.016 .0280028
784.726 .0279958
785.436 .0279889
786.147 .0279789
786.856 .0279719
787.566 .0279648
788.275 .0279578
788.984 .0279507
789.693 .0279437
790.401 .0279366
791.110 .0279294
791.818 .0279222
792.525 .0279148
793.233 .0279073
793.940 .0278996
794.647 .0278953
795.353 .0278875
796.060 .0278797
796.766 .0278719
797.472 .0278640
798.177 .0278560
798.883 .0278480
799.588 .0278400
800.292 .0278318
800.997 .0278235
801.701 .0278152
802.405 .0278067
803.109 .0277981
803.812 .0277895
804.515 .0277808
805.218 .0277720
805.921 .0277631
806.623 .0277542
807.325 .0277450
808.027 .0277357
808.728 .0277262
809.429 .0277165
810.130 .0277066
810.831 .0276966
811.531 .0276864
812.231 .0276761
812.931 .0276656
813.630 .0276551
814.330 .0276446
815.029 .0276341
815.727 .0276237
816.426 .0276133
817.124 .0276032
817.821 .0275934
818.519 .0275838
819.216 .0275746
819.913 .0275658
820.609 .0275576
821.306 .0275498
822.002 .0275426
822.697 .0275360
823.393 .0275300
824.088 .0275246
824.783 .0275197
825.477 .0275154
826.171 .0275116
826.865 .0275082
827.559 .0275051
828.252 .0275024
828.945 .0275000
829.638 .0274977
830.330 .0274957
831.023 .0274937
831.714 .0274918
832.406 .0274899
833.097 .0274879
833.788 .0274859
834.479 .0274838
835.169 .0274814
835.859 .0274789
836.548 .0274762
837.238 .0274732
837.927 .0274698
838.615 .0274660
839.304 .0274618
839.992 .0274572
840.680 .0274520
841.367 .0274465
842.054 .0274405
842.741 .0274340
843.428 .0274271
844.114 .0274197
844.800 .0274119
845.485 .0274037
846.170 .0273950
846.855 .0273859
847.540 .0273763
848.224 .0273662
848.908 .0273557
849.592 .0273448
850.275 .0273336
850.958 .0273220
851.641 .0273100
852.323 .0272978
853.005 .0272853
853.687 .0272725
854.368 .0272595
855.049 .0272463
855.730 .0272329
856.410 .0272193
857.090 .0272055
857.769 .0271916
858.449 .0271775
859.128 .0271632
859.806 .0271487
860.485 .0271341
861.163 .0271195
861.840 .0271048
862.518 .0270901
863.195 .0270755
863.871 .0270610
864.548 .0270464
865.224 .0270319
865.899 .0270174
866.574 .0270029
867.249 .0269884
867.924 .0269739
868.598 .0269595
869.272 .0269451
869.946 .0269308
870.619 .0269166
871.292 .0269025
871.964 .0268884
872.636 .0268744
873.308 .0268604
873.979 .0268466
874.651 .0268329
875.321 .0268193
875.992 .0268059
876.662 .0267927
877.331 .0267797
878.001 .0267668
878.670 .0267541
879.338 .0267415
880.007 .0267291
880.675 .0267168
881.342 .0267046
882.009 .0266927
882.676 .0266810
883.343 .0266696
884.009 .0266584
884.675 .0266476
885.340 .0266370
886.005 .0266266
886.670 .0266164
887.334 .0266064
887.998 .0265967
888.662 .0265871
889.325 .0265778
889.988 .0265687
890.650 .0265600
891.312 .0265514
891.974 .0265432
892.636 .0265351
893.297 .0265272
893.957 .0265194
894.618 .0265116
895.278 .0265038
895.937 .0264959
896.596 .0264879
897.255 .0264795
897.914 .0264708
898.572 .0264617
899.230 .0264521
899.887 .0264421
900.544 .0264315
901.201 .0264203
901.857 .0264004
902.513 .0263875
903.168 .0263739
903.823 .0263595
904.478 .0263445
905.132 .0263287
905.786 .0263123
906.440 .0262952
907.093 .0262777
907.746 .0262597
908.399 .0262412
909.051 .0262225
909.703 .0262035
910.354 .0261937
911.005 .0261747
911.656 .0261555
912.306 .0261362
912.956 .0261170
913.605 .0260979
914.254 .0260790
914.903 .0260605
915.551 .0260423
916.199 .0260244
916.847 .0260069
917.494 .0259895
918.141 .0259724
918.788 .0259554
919.434 .0259385
920.079 .0259218
920.725 .0259053
921.370 .0258889
922.014 .0258727
922.658 .0258566
923.302 .0258405
923.946 .0258244
924.589 .0258082
925.231 .0257917
925.873 .0257751
926.515 .0257582
927.157 .0257413
927.798 .0257242
928.439 .0257071
929.079 .0256901
929.719 .0256733
930.359 .0256565
930.998 .0256399
931.637 .0256234
932.275 .0256071
932.913 .0255910
933.551 .0255752
934.188 .0255598
934.825 .0255450
935.462 .0255308
936.098 .0255173
936.733 .0255045
937.369 .0254925
938.004 .0254810
938.638 .0254703
939.273 .0254602
939.907 .0254507
940.540 .0254418
941.173 .0254337
941.806 .0254262
942.438 .0254194
943.070 .0254132
943.702 .0254077
944.333 .0254025
944.964 .0253977
945.594 .0253931
946.224 .0253886
946.854 .0253842
947.483 .0253799
948.112 .0253756
948.741 .0253714
949.369 .0253673
949.996 .0253632
950.624 .0253592
951.251 .0253551
951.878 .0253508
952.504 .0253463
953.130 .0253416
953.755 .0253365
954.380 .0253313
955.005 .0253258
955.629 .0253202
956.253 .0253146
956.877 .0253088
957.500 .0253030
958.123 .0252971
958.746 .0252911
959.368 .0252850
959.990 .0252789
960.611 .0252728
961.232 .0252667
961.853 .0252608
962.473 .0252551
963.093 .0252498
963.712 .0252448
964.331 .0252402
964.950 .0252359
965.569 .0252319
966.187 .0252282
966.804 .0252248
967.422 .0252217
968.039 .0252188
968.655 .0252161
969.272 .0252137
969.887 .0252114
970.503 .0252092
971.118 .0252070
971.733 .0252049
972.347 .0252028
972.961 .0252007
973.575 .0251986
974.188 .0251964
974.801 .0251943
975.414 .0251921
976.026 .0251898
976.638 .0251874
977.250 .0251849
977.861 .0251822
978.472 .0251792
979.083 .0251760
979.693 .0251725
980.303 .0251687
980.912 .0251614
981.521 .0251571
982.130 .0251525
982.738 .0251477
983.346 .0251426
983.954 .0251372
984.562 .0251317
985.169 .0251261
985.775 .0251204
986.382 .0251149
986.988 .0251096
987.594 .0251046
988.199 .0250999
988.804 .0250956
989.409 .0250948
990.013 .0250912
990.617 .0250881
991.221 .0250853
991.824 .0250830
992.427 .0250811
993.030 .0250795
993.632 .0250783
994.234 .0250775
994.836 .0250770
995.438 .0250768
996.039 .0250769
996.640 .0250772
997.240 .0250778
997.840 .0250786
998.440 .0250796
999.040 .0250810
999.639 .0250826
1000.238 .0250845
1000.836 .0250866
1001.435 .0250890
1002.033 .0250915
1002.630 .0250941
1003.228 .0250969
1003.825 .0250997
1004.422 .0251026
1005.018 .0251055
1005.614 .0251085
1006.210 .0251114
1006.806 .0251143
1007.401 .0251169
1007.996 .0251194
1008.591 .0251216
1009.186 .0251235
1009.780 .0251252
1010.374 .0251268
1010.967 .0251283
1011.561 .0251299
1012.154 .0251316
1012.746 .0251335
1013.339 .0251357
1013.931 .0251381
1014.523 .0251406
1015.115 .0251433
1015.706 .0251462
1016.298 .0251492
1016.888 .0251524
1017.479 .0251558
1018.069 .0251596
1018.660 .0251636
1019.250 .0251681
1019.839 .0251729
1020.429 .0251781
1021.018 .0251836
1021.607 .0251894
1022.195 .0251954
1022.784 .0252016
1023.372 .0252079
1023.960 .0252145
1024.547 .0252214
1025.135 .0252287
1025.722 .0252363
1026.309 .0252444
1026.896 .0252529
1027.483 .0252617
1028.069 .0252708
1028.655 .0252800
1029.241 .0252892
1029.827 .0252984
1030.412 .0253075
1030.997 .0253165
1031.582 .0253254
1032.167 .0253341
1032.752 .0253426
1033.336 .0253509
1033.921 .0253588
1034.505 .0253662
1035.089 .0253731
1035.672 .0253793
1036.256 .0253849
1036.839 .0253897
1037.422 .0253937
1038.005 .0253971
1038.588 .0253999
1039.171 .0254022
1039.753 .0254039
1040.335 .0254051
1040.918 .0254057
1041.500 .0254057
1042.081 .0254051
1042.663 .0254039
1043.244 .0254023
1043.826 .0254002
1044.407 .0253978
1044.988 .0253951
1045.569 .0253924
1046.150 .0253896
1046.730 .0253868
1047.311 .0253839
1047.891 .0253809
1048.471 .0253779
1049.052 .0253748
1049.632 .0253717
1050.211 .0253687
1050.791 .0253659
1051.371 .0253633
1051.950 .0253610
1052.530 .0253588
1053.109 .0253569
1053.688 .0253550
1054.268 .0253532
1054.847 .0253512
1055.426 .0253492
1056.005 .0253470
1056.583 .0253447
1057.162 .0253423
1057.741 .0253398
1058.319 .0253372
1058.898 .0253344
1059.476 .0253316
1060.055 .0253287
1060.633 .0253256
1061.211 .0253224
1061.790 .0253192
1062.368 .0253160
1062.946 .0253129
1063.524 .0253100
1064.102 .0253072
1064.680 .0253045
1065.258 .0253021
1065.836 .0252996
1066.414 .0252973
1066.992 .0252950
1067.570 .0252926
1068.148 .0252903
1068.726 .0252881
1069.304 .0252860
1069.882 .0252840
1070.460 .0252821
1071.038 .0252803
1071.616 .0252786
1072.194 .0252769
1072.772 .0252753
1073.350 .0252737
1073.928 .0252723
1074.506 .0252714
1075.084 .0252709
1075.662 .0252711
1076.240 .0252719
1076.819 .0252734
1077.397 .0252755
1077.976 .0252779
1078.554 .0252804
1079.133 .0252828
1079.711 .0252852
1080.290 .0252874
1080.869 .0252895
1081.448 .0252917
1082.027 .0252941
1082.606 .0252967
1083.185 .0252996
1083.764 .0253028
1084.343 .0253060
1084.923 .0253094
1085.502 .0253130
1086.082 .0253167
1086.662 .0253208
1087.242 .0253254
1087.822 .0253309
1088.402 .0253373
1088.983 .0253449
1089.563 .0253537
1090.144 .0253637
1090.725 .0253748
1091.306 .0253868
1091.887 .0253998
1092.469 .0254134
1093.050 .0254278
1093.632 .0254428
1094.214 .0254584
1094.796 .0254745
1095.379 .0254913
1095.961 .0255084
1096.544 .0255258
1097.127 .0255433
1097.710 .0255607
1098.294 .0255779
1098.877 .0255948
1099.461 .0256114
1100.046 .0256278
1100.630 .0256441
1101.215 .0256605
1101.800 .0256769
1102.385 .0256935
1102.970 .0257101
1103.556 .0257266
1104.142 .0257429
1104.728 .0257588
1105.315 .0257741
1105.902 .0257889
1106.489 .0258033
1107.077 .0258175
1107.664 .0258315
1108.253 .0258457
1108.841 .0258602
1109.430 .0258751
1110.019 .0258905
1110.609 .0259064
1111.198 .0259230
1111.789 .0259403
1112.379 .0259581
1112.970 .0259765
1113.561 .0259958
1114.153 .0260160
1114.745 .0260372
1115.338 .0260596
1115.931 .0260834
1116.524 .0261087
1117.117 .0261357
1117.712 .0261642
1118.306 .0261943
1118.901 .0262260
1119.496 .0262592
1120.092 .0262936
1120.689 .0263289
1121.285 .0263650
1121.882 .0264017
1122.480 .0264392
1123.078 .0264772
1123.677 .0265157
1124.276 .0265549
1124.875 .0265948
1125.476 .0266354
1126.076 .0266767
1126.677 .0267190
1127.279 .0267626
1127.881 .0268077
1128.484 .0268546
1129.087 .0268751
1129.691 .0269244
1130.295 .0269765
1130.900 .0270321
1131.505 .0270915
1132.111 .0271558
1132.718 .0272254
1133.325 .0273011
1133.933 .0273831
1134.541 .0274691
1135.150 .0275722
1135.760 .0276779
1136.370 .0277878
1136.981 .0275974
1137.592 .0276985
1138.204 .0278101
1138.817 .0279382
1139.431 .0280795
1140.045 .0282462
1140.660 .0284337
1141.275 .0286415
1141.891 .0288626
1142.508 .0290265
1143.126 .0295584
1143.744 .0296874
1144.363 .0298579
1144.983 .0298921
