Measurement Sequence started on: 15-12-46-377
Integration time: 28
Scans to Average: 2 
>>>>>Begin Spectral Data<<<<<
432.689 .0000100
433.621 .0000100
434.552 .0000100
435.482 .0000100
436.410 .0000100
437.337 .0000100
438.262 .0266035
439.187 .0563730
440.110 .0934298
441.031 .1351927
441.952 .1078051
442.871 .1124969
443.789 .1168597
444.705 .1209650
445.621 .1248606
446.535 .1285826
447.447 .1307562
448.359 .1312338
449.269 .1296484
450.178 .1257649
451.086 .1196606
451.993 .1118024
452.898 .1029616
453.803 .0940138
454.706 .0857039
455.608 .0784935
456.508 .0725366
457.408 .0685142
458.306 .0654325
459.204 .0629312
460.100 .0608247
460.995 .0590095
461.888 .0574171
462.781 .0560027
463.673 .0547330
464.563 .0535857
465.452 .0525443
466.340 .0515948
467.228 .0507273
468.114 .0499332
468.999 .0492063
469.882 .0485405
470.765 .0479304
471.647 .0473718
472.528 .0468621
473.407 .0463988
474.286 .0459797
475.163 .0456042
476.040 .0452709
476.915 .0449785
477.790 .0447252
478.663 .0445089
479.535 .0443274
480.407 .0441782
481.277 .0440586
482.147 .0439657
483.015 .0438966
483.883 .0438491
484.749 .0438213
485.615 .0438120
486.479 .0438202
487.343 .0438450
488.206 .0438861
489.067 .0439429
489.928 .0440150
490.788 .0441017
491.647 .0442023
492.505 .0443168
493.362 .0444445
494.218 .0445859
495.073 .0447416
495.928 .0450346
496.781 .0452346
497.634 .0454533
498.486 .0456916
499.337 .0459514
500.187 .0462337
501.036 .0465392
501.884 .0468695
502.731 .0472265
503.578 .0476121
504.424 .0478666
505.268 .0483052
506.113 .0487822
506.956 .0493029
507.798 .0498741
508.640 .0505045
509.480 .0512045
510.320 .0519864
511.160 .0528635
511.998 .0538499
512.836 .0549627
513.672 .0562183
514.508 .0576370
515.344 .0592412
516.178 .0610535
517.012 .0631002
517.845 .0654077
518.677 .0680035
519.508 .0709072
520.339 .0741295
521.169 .0776757
521.998 .0815250
522.826 .0856436
523.654 .0899741
524.481 .0944457
525.307 .0989778
526.133 .1034774
526.958 .1078463
527.782 .1119909
528.605 .1158266
529.428 .1192808
530.250 .1222877
531.072 .1248042
531.892 .1267948
532.712 .1282385
533.532 .1291231
534.350 .1294411
535.168 .1291903
535.986 .1283720
536.802 .1269885
537.618 .1250506
538.434 .1225713
539.249 .1195884
540.063 .1161514
540.876 .1123286
541.689 .1081994
542.501 .1038500
543.313 .0993740
544.124 .0948692
544.934 .0904240
545.744 .0861150
546.553 .0820051
547.361 .0781463
548.169 .0745678
548.976 .0712877
549.783 .0683071
550.589 .0656176
551.395 .0632012
552.200 .0610347
553.004 .0590896
553.808 .0573432
554.611 .0557729
555.414 .0543582
556.216 .0530789
557.018 .0519156
557.819 .0508513
558.619 .0498712
559.419 .0489622
560.218 .0481143
561.017 .0473175
561.815 .0465651
562.613 .0458516
563.410 .0451726
564.207 .0445245
565.003 .0439039
565.799 .0433074
566.594 .0427320
567.388 .0421754
568.182 .0416352
568.976 .0411097
569.769 .0405982
570.562 .0400994
571.354 .0396130
572.145 .0391394
572.936 .0386792
573.727 .0382332
574.517 .0378024
575.307 .0373877
576.096 .0369897
576.885 .0366093
577.673 .0362464
578.461 .0359007
579.248 .0355718
580.035 .0352593
580.821 .0349624
581.607 .0346807
582.392 .0344141
583.177 .0341627
583.962 .0339268
584.746 .0337065
585.529 .0335016
586.313 .0333117
587.095 .0331362
587.878 .0329743
588.660 .0328249
589.441 .0326867
590.222 .0325589
591.003 .0324407
591.783 .0323313
592.563 .0322304
593.342 .0321372
594.121 .0320511
594.899 .0319716
595.678 .0318979
596.455 .0318292
597.233 .0317648
598.009 .0317041
598.786 .0316463
599.562 .0315911
600.338 .0315379
601.113 .0314866
601.888 .0314146
602.663 .0313672
603.437 .0313213
604.211 .0312770
604.984 .0312342
605.757 .0311929
606.530 .0311532
607.302 .0311152
608.074 .0310788
608.845 .0310440
609.616 .0310110
610.387 .0309990
611.158 .0309689
611.928 .0309406
612.697 .0309141
613.467 .0308894
614.236 .0308666
615.004 .0308454
615.773 .0308260
616.541 .0308080
617.308 .0307914
618.076 .0307759
618.843 .0307613
619.609 .0307475
620.375 .0307343
621.141 .0307217
621.907 .0307095
622.672 .0306976
623.437 .0306860
624.202 .0306746
624.966 .0306630
625.730 .0306513
626.493 .0306392
627.257 .0306265
628.020 .0306131
628.782 .0305989
629.545 .0305840
630.307 .0305682
631.068 .0305517
631.830 .0305346
632.591 .0305167
633.352 .0304982
634.112 .0304792
634.872 .0304595
635.632 .0304392
636.392 .0304183
637.151 .0303967
637.910 .0303745
638.668 .0303517
639.427 .0303285
640.185 .0303049
640.943 .0302810
641.700 .0302570
642.457 .0302329
643.214 .0302088
643.971 .0301848
644.727 .0301607
645.483 .0301366
646.239 .0301124
646.994 .0300880
647.750 .0300634
648.505 .0300385
649.259 .0300132
650.014 .0299876
650.768 .0299616
651.521 .0299352
652.275 .0299085
653.028 .0298816
653.781 .0298545
654.534 .0298273
655.286 .0297998
656.039 .0297722
656.791 .0297444
657.542 .0297164
658.294 .0296882
659.045 .0296598
659.796 .0296312
660.546 .0296026
661.297 .0295738
662.047 .0295452
662.796 .0295168
663.546 .0294887
664.295 .0294611
665.044 .0294340
665.793 .0294077
666.542 .0293821
667.290 .0293574
668.038 .0293336
668.786 .0293109
669.533 .0292891
670.281 .0292683
671.028 .0292484
671.774 .0292294
672.521 .0292112
673.267 .0291938
674.013 .0291772
674.759 .0291613
675.505 .0291461
676.250 .0291317
676.995 .0291180
677.740 .0291049
678.484 .0290925
679.229 .0290806
679.973 .0290693
680.717 .0290583
681.460 .0290477
682.204 .0290374
682.947 .0290273
683.690 .0290175
684.433 .0290078
685.175 .0289982
685.917 .0289889
686.659 .0289796
687.401 .0289705
688.142 .0289615
688.884 .0289526
689.625 .0289437
690.365 .0289349
691.106 .0289260
691.846 .0289170
692.586 .0289079
693.326 .0288987
694.066 .0288893
694.805 .0288798
695.545 .0288701
696.284 .0288603
697.022 .0288502
697.761 .0288400
698.499 .0288296
699.237 .0288190
699.975 .0288082
700.713 .0287971
701.450 .0287857
702.187 .0287741
702.924 .0287622
703.661 .0287500
704.397 .0287376
705.133 .0287250
705.869 .0287122
706.605 .0286991
707.341 .0286858
708.076 .0286723
708.811 .0286586
709.546 .0286447
710.281 .0286306
711.015 .0286163
711.749 .0286019
712.483 .0285872
713.217 .0285724
713.950 .0285573
714.684 .0285420
715.417 .0285263
716.150 .0285102
716.882 .0284936
717.615 .0284765
718.347 .0284589
719.079 .0284407
719.811 .0284219
720.542 .0284026
721.273 .0283827
722.005 .0283625
722.735 .0283418
723.466 .0283209
724.196 .0282997
724.927 .0282783
725.656 .0282567
726.386 .0282349
727.116 .0282129
727.845 .0281908
728.574 .0281685
729.303 .0281461
730.031 .0281237
730.760 .0281015
731.488 .0280795
732.216 .0280579
732.944 .0280367
733.671 .0280160
734.398 .0279958
735.125 .0279760
735.852 .0279567
736.579 .0279378
737.305 .0279193
738.031 .0279012
738.757 .0278835
739.483 .0278662
740.208 .0278493
740.933 .0278328
741.658 .0278166
742.383 .0278006
743.108 .0277849
743.832 .0277693
744.556 .0277537
745.280 .0277381
746.004 .0277225
746.727 .0277068
747.450 .0276908
748.173 .0276747
748.896 .0276583
749.618 .0276417
750.340 .0276248
751.062 .0276076
751.784 .0275903
752.506 .0275729
753.227 .0275554
753.948 .0275379
754.669 .0275204
755.389 .0275031
756.110 .0274859
756.830 .0274689
757.550 .0274520
758.269 .0274354
758.989 .0274190
759.708 .0274030
760.427 .0273874
761.146 .0273723
761.864 .0273578
762.582 .0273439
763.300 .0273307
764.018 .0273182
764.736 .0273065
765.453 .0272955
766.170 .0272853
766.887 .0272758
767.603 .0272669
768.320 .0272588
769.036 .0272513
769.751 .0272445
770.467 .0272383
771.182 .0272328
771.897 .0272279
772.612 .0272236
773.327 .0272199
774.041 .0272168
774.755 .0272143
775.469 .0272125
776.183 .0272111
776.896 .0272103
777.609 .0272100
778.322 .0272100
779.035 .0272104
779.747 .0272110
780.459 .0272119
781.171 .0272130
781.882 .0272143
782.594 .0272158
783.305 .0272176
784.016 .0272196
784.726 .0272219
785.436 .0272244
786.147 .0272283
786.856 .0272308
787.566 .0272331
788.275 .0272352
788.984 .0272372
789.693 .0272388
790.401 .0272402
791.110 .0272413
791.818 .0272421
792.525 .0272425
793.233 .0272424
793.940 .0272418
794.647 .0272400
795.353 .0272385
796.060 .0272364
796.766 .0272336
797.472 .0272301
798.177 .0272258
798.883 .0272209
799.588 .0272151
800.292 .0272086
800.997 .0272012
801.701 .0271930
802.405 .0271840
803.109 .0271742
803.812 .0271638
804.515 .0271526
805.218 .0271408
805.921 .0271285
806.623 .0271155
807.325 .0271020
808.027 .0270878
808.728 .0270730
809.429 .0270577
810.130 .0270417
810.831 .0270253
811.531 .0270085
812.231 .0269914
812.931 .0269740
813.630 .0269564
814.330 .0269387
815.029 .0269210
815.727 .0269032
816.426 .0268855
817.124 .0268678
817.821 .0268502
818.519 .0268326
819.216 .0268152
819.913 .0267980
820.609 .0267809
821.306 .0267641
822.002 .0267473
822.697 .0267308
823.393 .0267144
824.088 .0266982
824.783 .0266823
825.477 .0266666
826.171 .0266511
826.865 .0266359
827.559 .0266210
828.252 .0266063
828.945 .0265918
829.638 .0265775
830.330 .0265633
831.023 .0265492
831.714 .0265353
832.406 .0265213
833.097 .0265075
833.788 .0264936
834.479 .0264798
835.169 .0264660
835.859 .0264521
836.548 .0264382
837.238 .0264242
837.927 .0264100
838.615 .0263956
839.304 .0263810
839.992 .0263661
840.680 .0263511
841.367 .0263358
842.054 .0263203
842.741 .0263047
843.428 .0262889
844.114 .0262730
844.800 .0262569
845.485 .0262408
846.170 .0262246
846.855 .0262082
847.540 .0261918
848.224 .0261753
848.908 .0261588
849.592 .0261421
850.275 .0261254
850.958 .0261085
851.641 .0260915
852.323 .0260743
853.005 .0260570
853.687 .0260397
854.368 .0260223
855.049 .0260050
855.730 .0259877
856.410 .0259706
857.090 .0259537
857.769 .0259369
858.449 .0259203
859.128 .0259038
859.806 .0258875
860.485 .0258714
861.163 .0258555
861.840 .0258398
862.518 .0258244
863.195 .0258094
863.871 .0257947
864.548 .0257804
865.224 .0257665
865.899 .0257531
866.574 .0257403
867.249 .0257280
867.924 .0257164
868.598 .0257055
869.272 .0256953
869.946 .0256858
870.619 .0256769
871.292 .0256688
871.964 .0256614
872.636 .0256548
873.308 .0256489
873.979 .0256439
874.651 .0256397
875.321 .0256365
875.992 .0256341
876.662 .0256326
877.331 .0256319
878.001 .0256320
878.670 .0256328
879.338 .0256341
880.007 .0256361
880.675 .0256387
881.342 .0256418
882.009 .0256455
882.676 .0256497
883.343 .0256545
884.009 .0256599
884.675 .0256658
885.340 .0256723
886.005 .0256792
886.670 .0256867
887.334 .0256946
887.998 .0257029
888.662 .0257116
889.325 .0257205
889.988 .0257296
890.650 .0257389
891.312 .0257483
891.974 .0257578
892.636 .0257673
893.297 .0257769
893.957 .0257866
894.618 .0257963
895.278 .0258059
895.937 .0258154
896.596 .0258247
897.255 .0258337
897.914 .0258423
898.572 .0258504
899.230 .0258579
899.887 .0258649
900.544 .0258711
901.201 .0258766
901.857 .0258814
902.513 .0258846
903.168 .0258868
903.823 .0258882
904.478 .0258887
905.132 .0258883
905.786 .0258871
906.440 .0258851
907.093 .0258823
907.746 .0258787
908.399 .0258743
909.051 .0258692
909.703 .0258633
910.354 .0258584
911.005 .0258518
911.656 .0258445
912.306 .0258367
912.956 .0258284
913.605 .0258196
914.254 .0258103
914.903 .0258005
915.551 .0257902
916.199 .0257793
916.847 .0257679
917.494 .0257559
918.141 .0257435
918.788 .0257305
919.434 .0257170
920.079 .0257032
920.725 .0256889
921.370 .0256743
922.014 .0256593
922.658 .0256440
923.302 .0256283
923.946 .0256124
924.589 .0255961
925.231 .0255796
925.873 .0255627
926.515 .0255456
927.157 .0255280
927.798 .0255102
928.439 .0254919
929.079 .0254734
929.719 .0254545
930.359 .0254354
930.998 .0254161
931.637 .0253968
932.275 .0253776
932.913 .0253584
933.551 .0253394
934.188 .0253207
934.825 .0253023
935.462 .0252842
936.098 .0252664
936.733 .0252489
937.369 .0252317
938.004 .0252149
938.638 .0251984
939.273 .0251823
939.907 .0251665
940.540 .0251511
941.173 .0251359
941.806 .0251210
942.438 .0251063
943.070 .0250916
943.702 .0250769
944.333 .0250622
944.964 .0250473
945.594 .0250324
946.224 .0250173
946.854 .0250021
947.483 .0249867
948.112 .0249711
948.741 .0249554
949.369 .0249394
949.996 .0249232
950.624 .0249066
951.251 .0248897
951.878 .0248725
952.504 .0248549
953.130 .0248371
953.755 .0248191
954.380 .0248009
955.005 .0247825
955.629 .0247640
956.253 .0247452
956.877 .0247263
957.500 .0247071
958.123 .0246878
958.746 .0246683
959.368 .0246486
959.990 .0246291
960.611 .0246096
961.232 .0245903
961.853 .0245713
962.473 .0245525
963.093 .0245340
963.712 .0245157
964.331 .0244975
964.950 .0244795
965.569 .0244616
966.187 .0244438
966.804 .0244261
967.422 .0244086
968.039 .0243913
968.655 .0243741
969.272 .0243571
969.887 .0243403
970.503 .0243234
971.118 .0243066
971.733 .0242897
972.347 .0242726
972.961 .0242555
973.575 .0242382
974.188 .0242209
974.801 .0242035
975.414 .0241860
976.026 .0241684
976.638 .0241508
977.250 .0241331
977.861 .0241153
978.472 .0240974
979.083 .0240794
979.693 .0240614
980.303 .0240433
980.912 .0240162
981.521 .0239982
982.130 .0239804
982.738 .0239626
983.346 .0239450
983.954 .0239276
984.562 .0239104
985.169 .0238935
985.775 .0238769
986.382 .0238609
986.988 .0238455
987.594 .0238308
988.199 .0238168
988.804 .0238036
989.409 .0237993
990.013 .0237874
990.617 .0237761
991.221 .0237657
991.824 .0237560
992.427 .0237471
993.030 .0237390
993.632 .0237316
994.234 .0237250
994.836 .0237191
995.438 .0237140
996.039 .0237096
996.640 .0237060
997.240 .0237030
997.840 .0237008
998.440 .0236992
999.040 .0236983
999.639 .0236981
1000.238 .0236986
1000.836 .0236997
1001.435 .0237014
1002.033 .0237037
1002.630 .0237064
1003.228 .0237095
1003.825 .0237129
1004.422 .0237165
1005.018 .0237203
1005.614 .0237242
1006.210 .0237282
1006.806 .0237324
1007.401 .0237368
1007.996 .0237416
1008.591 .0237467
1009.186 .0237522
1009.780 .0237581
1010.374 .0237645
1010.967 .0237714
1011.561 .0237787
1012.154 .0237865
1012.746 .0237948
1013.339 .0238037
1013.931 .0238132
1014.523 .0238232
1015.115 .0238338
1015.706 .0238450
1016.298 .0238566
1016.888 .0238687
1017.479 .0238812
1018.069 .0238940
1018.660 .0239070
1019.250 .0239203
1019.839 .0239340
1020.429 .0239479
1021.018 .0239623
1021.607 .0239772
1022.195 .0239926
1022.784 .0240086
1023.372 .0240252
1023.960 .0240424
1024.547 .0240601
1025.135 .0240783
1025.722 .0240968
1026.309 .0241156
1026.896 .0241346
1027.483 .0241537
1028.069 .0241728
1028.655 .0241919
1029.241 .0242109
1029.827 .0242297
1030.412 .0242483
1030.997 .0242666
1031.582 .0242847
1032.167 .0243024
1032.752 .0243198
1033.336 .0243369
1033.921 .0243537
1034.505 .0243704
1035.089 .0243868
1035.672 .0244031
1036.256 .0244192
1036.839 .0244351
1037.422 .0244508
1038.005 .0244663
1038.588 .0244815
1039.171 .0244962
1039.753 .0245106
1040.335 .0245245
1040.918 .0245379
1041.500 .0245507
1042.081 .0245631
1042.663 .0245749
1043.244 .0245863
1043.826 .0245973
1044.407 .0246080
1044.988 .0246184
1045.569 .0246287
1046.150 .0246389
1046.730 .0246492
1047.311 .0246597
1047.891 .0246705
1048.471 .0246815
1049.052 .0246929
1049.632 .0247045
1050.211 .0247164
1050.791 .0247284
1051.371 .0247405
1051.950 .0247526
1052.530 .0247646
1053.109 .0247765
1053.688 .0247883
1054.268 .0248000
1054.847 .0248117
1055.426 .0248234
1056.005 .0248352
1056.583 .0248469
1057.162 .0248587
1057.741 .0248705
1058.319 .0248823
1058.898 .0248941
1059.476 .0249059
1060.055 .0249178
1060.633 .0249297
1061.211 .0249417
1061.790 .0249539
1062.368 .0249663
1062.946 .0249786
1063.524 .0249909
1064.102 .0250029
1064.680 .0250144
1065.258 .0250254
1065.836 .0250357
1066.414 .0250452
1066.992 .0250540
1067.570 .0250622
1068.148 .0250698
1068.726 .0250770
1069.304 .0250839
1069.882 .0250907
1070.460 .0250973
1071.038 .0251039
1071.616 .0251103
1072.194 .0251166
1072.772 .0251225
1073.350 .0251280
1073.928 .0251331
1074.506 .0251376
1075.084 .0251417
1075.662 .0251455
1076.240 .0251490
1076.819 .0251522
1077.397 .0251551
1077.976 .0251577
1078.554 .0251601
1079.133 .0251620
1079.711 .0251636
1080.290 .0251647
1080.869 .0251655
1081.448 .0251660
1082.027 .0251664
1082.606 .0251669
1083.185 .0251675
1083.764 .0251685
1084.343 .0251699
1084.923 .0251717
1085.502 .0251738
1086.082 .0251764
1086.662 .0251791
1087.242 .0251821
1087.822 .0251853
1088.402 .0251889
1088.983 .0251928
1089.563 .0251974
1090.144 .0252026
1090.725 .0252087
1091.306 .0252157
1091.887 .0252237
1092.469 .0252327
1093.050 .0252426
1093.632 .0252533
1094.214 .0252648
1094.796 .0252768
1095.379 .0252894
1095.961 .0253025
1096.544 .0253162
1097.127 .0253304
1097.710 .0253450
1098.294 .0253600
1098.877 .0253753
1099.461 .0253907
1100.046 .0254062
1100.630 .0254215
1101.215 .0254366
1101.800 .0254514
1102.385 .0254662
1102.970 .0254810
1103.556 .0254961
1104.142 .0255116
1104.728 .0255277
1105.315 .0255443
1105.902 .0255616
1106.489 .0255796
1107.077 .0255984
1107.664 .0256178
1108.253 .0256379
1108.841 .0256585
1109.430 .0256796
1110.019 .0257013
1110.609 .0257234
1111.198 .0257458
1111.789 .0257684
1112.379 .0257910
1112.970 .0258135
1113.561 .0258358
1114.153 .0258577
1114.745 .0258793
1115.338 .0259006
1115.931 .0259217
1116.524 .0259426
1117.117 .0259636
1117.712 .0259849
1118.306 .0260065
1118.901 .0260288
1119.496 .0260518
1120.092 .0260758
1120.689 .0261007
1121.285 .0261269
1121.882 .0261545
1122.480 .0261836
1123.078 .0262143
1123.677 .0262468
1124.276 .0262809
1124.875 .0263169
1125.476 .0263545
1126.076 .0263938
1126.677 .0264347
1127.279 .0264771
1127.881 .0265211
1128.484 .0265668
1129.087 .0265811
1129.691 .0266297
1130.295 .0266808
1130.900 .0267347
1131.505 .0267914
1132.111 .0268507
1132.718 .0269127
1133.325 .0269776
1133.933 .0270463
1134.541 .0271108
1135.150 .0271802
1135.760 .0272543
1136.370 .0273402
1136.981 .0274675
1137.592 .0275519
1138.204 .0276414
1138.817 .0277288
1139.431 .0278118
1140.045 .0278915
1140.660 .0279691
1141.275 .0280526
1141.891 .0281646
1142.508 .0280478
1143.126 .0281972
1143.744 .0283401
1144.363 .0286914
1144.983 .0295080
