Measurement Sequence started on: 15-12-46-377
Integration time: 28
Scans to Average: 2 
>>>>>Begin Spectral Data<<<<<
432.689 .0000100
433.621 .0000100
434.552 .0000100
435.482 .0000100
436.410 .0000100
437.337 .0000100
438.262 .0284627
439.187 .0603172
440.110 .0998734
441.031 .1445317
441.952 .1160706
442.871 .1212249
443.789 .1260140
444.705 .1305141
445.621 .1347786
446.535 .1388485
447.447 .1412566
448.359 .1418480
449.269 .1402364
450.178 .1361667
451.086 .1297168
451.993 .1213799
452.898 .1119748
453.803 .1024306
454.706 .0935386
455.608 .0857936
456.508 .0793639
457.408 .0749860
458.306 .0716069
459.204 .0688481
460.100 .0665240
460.995 .0645286
461.888 .0627883
462.781 .0612524
463.673 .0598822
464.563 .0586503
465.452 .0575349
466.340 .0565198
467.228 .0555938
468.114 .0547482
468.999 .0539763
469.882 .0532727
470.765 .0526319
471.647 .0520501
472.528 .0515227
473.407 .0510459
474.286 .0506161
475.163 .0502302
476.040 .0498851
476.915 .0495783
477.790 .0493073
478.663 .0490703
479.535 .0488658
480.407 .0486925
481.277 .0485489
482.147 .0484336
483.015 .0483448
483.883 .0482809
484.749 .0482400
485.615 .0482205
486.479 .0482200
487.343 .0482375
488.206 .0482714
489.067 .0483217
489.928 .0483884
490.788 .0484724
491.647 .0485747
492.505 .0486966
493.362 .0488387
494.218 .0490013
495.073 .0491842
495.928 .0495305
496.781 .0497650
497.634 .0500205
498.486 .0502986
499.337 .0506016
500.187 .0509322
501.036 .0512934
501.884 .0516889
502.731 .0521221
503.578 .0525962
504.424 .0529207
505.268 .0534670
506.113 .0540628
506.956 .0547116
507.798 .0554182
508.640 .0561889
509.480 .0570315
510.320 .0579561
511.160 .0589737
511.998 .0600984
512.836 .0613462
513.672 .0627344
514.508 .0642822
515.344 .0660110
516.178 .0679409
517.012 .0700954
517.845 .0724938
518.677 .0751537
519.508 .0780939
520.339 .0813229
521.169 .0848458
521.998 .0886455
522.826 .0926968
523.654 .0969554
524.481 .1013609
525.307 .1058413
526.133 .1103105
526.958 .1146761
527.782 .1188426
528.605 .1227163
529.428 .1262166
530.250 .1292707
531.072 .1318267
531.892 .1338428
532.712 .1352937
533.532 .1361655
534.350 .1364538
535.168 .1361635
535.986 .1353055
536.802 .1338864
537.618 .1319203
538.434 .1294219
539.249 .1264253
540.063 .1229719
540.876 .1191169
541.689 .1149311
542.501 .1104950
543.313 .1058972
544.124 .1012312
544.934 .0965907
545.744 .0920655
546.553 .0877277
547.361 .0836393
548.169 .0798377
548.976 .0763489
549.783 .0731779
550.589 .0703173
551.395 .0677472
552.200 .0654424
553.004 .0633733
553.808 .0615121
554.611 .0598339
555.414 .0583168
556.216 .0569401
557.018 .0556850
557.819 .0545356
558.619 .0534767
559.419 .0524939
560.218 .0515774
561.017 .0507173
561.815 .0499046
562.613 .0491318
563.410 .0483932
564.207 .0476836
565.003 .0469998
565.799 .0463376
566.594 .0456949
567.388 .0450713
568.182 .0444660
568.976 .0438784
569.769 .0433078
570.562 .0427547
571.354 .0422192
572.145 .0417016
572.936 .0412025
573.727 .0407218
574.517 .0402601
575.307 .0398178
576.096 .0393948
576.885 .0389915
577.673 .0386080
578.461 .0382444
579.248 .0379010
580.035 .0375781
580.821 .0372753
581.607 .0369922
582.392 .0367289
583.177 .0364848
583.962 .0362590
584.746 .0360504
585.529 .0358580
586.313 .0356805
587.095 .0355168
587.878 .0353658
588.660 .0352264
589.441 .0350978
590.222 .0349792
591.003 .0348696
591.783 .0347682
592.563 .0346743
593.342 .0345867
594.121 .0345047
594.899 .0344274
595.678 .0343539
596.455 .0342837
597.233 .0342163
598.009 .0341515
598.786 .0340890
599.562 .0340286
600.338 .0339700
601.113 .0339129
601.888 .0338303
602.663 .0337753
603.437 .0337210
604.211 .0336673
604.984 .0336141
605.757 .0335613
606.530 .0335091
607.302 .0334576
608.074 .0334068
608.845 .0333569
609.616 .0333080
610.387 .0332854
611.158 .0332381
611.928 .0331919
612.697 .0331467
613.467 .0331026
614.236 .0330595
615.004 .0330174
615.773 .0329763
616.541 .0329362
617.308 .0328972
618.076 .0328591
618.843 .0328221
619.609 .0327861
620.375 .0327510
621.141 .0327166
621.907 .0326830
622.672 .0326500
623.437 .0326174
624.202 .0325852
624.966 .0325533
625.730 .0325216
626.493 .0324901
627.257 .0324587
628.020 .0324274
628.782 .0323961
629.545 .0323647
630.307 .0323333
631.068 .0323019
631.830 .0322704
632.591 .0322391
633.352 .0322079
634.112 .0321770
634.872 .0321465
635.632 .0321164
636.392 .0320869
637.151 .0320580
637.910 .0320297
638.668 .0320020
639.427 .0319750
640.185 .0319488
640.943 .0319235
641.700 .0318992
642.457 .0318759
643.214 .0318536
643.971 .0318322
644.727 .0318118
645.483 .0317923
646.239 .0317734
646.994 .0317551
647.750 .0317373
648.505 .0317198
649.259 .0317027
650.014 .0316856
650.768 .0316687
651.521 .0316517
652.275 .0316347
653.028 .0316177
653.781 .0316006
654.534 .0315833
655.286 .0315659
656.039 .0315482
656.791 .0315302
657.542 .0315119
658.294 .0314932
659.045 .0314740
659.796 .0314543
660.546 .0314341
661.297 .0314133
662.047 .0313921
662.796 .0313705
663.546 .0313485
664.295 .0313261
665.044 .0313034
665.793 .0312804
666.542 .0312570
667.290 .0312333
668.038 .0312094
668.786 .0311850
669.533 .0311603
670.281 .0311353
671.028 .0311099
671.774 .0310843
672.521 .0310586
673.267 .0310328
674.013 .0310068
674.759 .0309809
675.505 .0309550
676.250 .0309290
676.995 .0309031
677.740 .0308772
678.484 .0308512
679.229 .0308252
679.973 .0307991
680.717 .0307730
681.460 .0307469
682.204 .0307209
682.947 .0306949
683.690 .0306691
684.433 .0306433
685.175 .0306176
685.917 .0305919
686.659 .0305661
687.401 .0305403
688.142 .0305142
688.884 .0304879
689.625 .0304613
690.365 .0304344
691.106 .0304072
691.846 .0303796
692.586 .0303518
693.326 .0303238
694.066 .0302957
694.805 .0302673
695.545 .0302390
696.284 .0302106
697.022 .0301822
697.761 .0301540
698.499 .0301259
699.237 .0300981
699.975 .0300705
700.713 .0300433
701.450 .0300164
702.187 .0299900
702.924 .0299641
703.661 .0299386
704.397 .0299136
705.133 .0298891
705.869 .0298652
706.605 .0298419
707.341 .0298191
708.076 .0297968
708.811 .0297751
709.546 .0297538
710.281 .0297330
711.015 .0297125
711.749 .0296923
712.483 .0296724
713.217 .0296528
713.950 .0296334
714.684 .0296142
715.417 .0295952
716.150 .0295765
716.882 .0295581
717.615 .0295399
718.347 .0295219
719.079 .0295041
719.811 .0294867
720.542 .0294694
721.273 .0294525
722.005 .0294359
722.735 .0294197
723.466 .0294041
724.196 .0293891
724.927 .0293748
725.656 .0293613
726.386 .0293485
727.116 .0293366
727.845 .0293256
728.574 .0293154
729.303 .0293061
730.031 .0292977
730.760 .0292901
731.488 .0292833
732.216 .0292773
732.944 .0292719
733.671 .0292672
734.398 .0292630
735.125 .0292594
735.852 .0292563
736.579 .0292536
737.305 .0292513
738.031 .0292493
738.757 .0292475
739.483 .0292458
740.208 .0292441
740.933 .0292423
741.658 .0292404
742.383 .0292382
743.108 .0292358
743.832 .0292331
744.556 .0292301
745.280 .0292267
746.004 .0292230
746.727 .0292188
747.450 .0292140
748.173 .0292086
748.896 .0292025
749.618 .0291956
750.340 .0291880
751.062 .0291796
751.784 .0291705
752.506 .0291606
753.227 .0291500
753.948 .0291387
754.669 .0291267
755.389 .0291142
756.110 .0291009
756.830 .0290871
757.550 .0290727
758.269 .0290577
758.989 .0290421
759.708 .0290260
760.427 .0290092
761.146 .0289919
761.864 .0289740
762.582 .0289556
763.300 .0289368
764.018 .0289176
764.736 .0288981
765.453 .0288784
766.170 .0288586
766.887 .0288386
767.603 .0288185
768.320 .0287985
769.036 .0287784
769.751 .0287584
770.467 .0287385
771.182 .0287186
771.897 .0286989
772.612 .0286794
773.327 .0286600
774.041 .0286409
774.755 .0286220
775.469 .0286033
776.183 .0285849
776.896 .0285668
777.609 .0285490
778.322 .0285317
779.035 .0285147
779.747 .0284981
780.459 .0284818
781.171 .0284658
781.882 .0284500
782.594 .0284345
783.305 .0284190
784.016 .0284036
784.726 .0283883
785.436 .0283730
786.147 .0283500
786.856 .0283346
787.566 .0283191
788.275 .0283036
788.984 .0282879
789.693 .0282721
790.401 .0282560
791.110 .0282395
791.818 .0282227
792.525 .0282054
793.233 .0281876
793.940 .0281694
794.647 .0281592
795.353 .0281405
796.060 .0281215
796.766 .0281023
797.472 .0280826
798.177 .0280627
798.883 .0280425
799.588 .0280219
800.292 .0280011
800.997 .0279800
801.701 .0279588
802.405 .0279374
803.109 .0279159
803.812 .0278944
804.515 .0278729
805.218 .0278516
805.921 .0278304
806.623 .0278096
807.325 .0277891
808.027 .0277690
808.728 .0277495
809.429 .0277306
810.130 .0277123
810.831 .0276947
811.531 .0276777
812.231 .0276615
812.931 .0276459
813.630 .0276311
814.330 .0276170
815.029 .0276038
815.727 .0275914
816.426 .0275799
817.124 .0275693
817.821 .0275597
818.519 .0275511
819.216 .0275435
819.913 .0275368
820.609 .0275310
821.306 .0275260
822.002 .0275219
822.697 .0275186
823.393 .0275160
824.088 .0275142
824.783 .0275131
825.477 .0275127
826.171 .0275130
826.865 .0275138
827.559 .0275152
828.252 .0275170
828.945 .0275193
829.638 .0275219
830.330 .0275248
831.023 .0275279
831.714 .0275312
832.406 .0275348
833.097 .0275385
833.788 .0275424
834.479 .0275465
835.169 .0275508
835.859 .0275552
836.548 .0275598
837.238 .0275644
837.927 .0275692
838.615 .0275740
839.304 .0275788
839.992 .0275836
840.680 .0275884
841.367 .0275933
842.054 .0275981
842.741 .0276029
843.428 .0276076
844.114 .0276123
844.800 .0276169
845.485 .0276213
846.170 .0276254
846.855 .0276292
847.540 .0276327
848.224 .0276358
848.908 .0276384
849.592 .0276405
850.275 .0276420
850.958 .0276429
851.641 .0276431
852.323 .0276426
853.005 .0276413
853.687 .0276392
854.368 .0276364
855.049 .0276328
855.730 .0276284
856.410 .0276234
857.090 .0276176
857.769 .0276111
858.449 .0276039
859.128 .0275960
859.806 .0275873
860.485 .0275779
861.163 .0275679
861.840 .0275573
862.518 .0275461
863.195 .0275344
863.871 .0275224
864.548 .0275101
865.224 .0274975
865.899 .0274847
866.574 .0274717
867.249 .0274586
867.924 .0274453
868.598 .0274320
869.272 .0274187
869.946 .0274055
870.619 .0273923
871.292 .0273793
871.964 .0273664
872.636 .0273537
873.308 .0273411
873.979 .0273287
874.651 .0273165
875.321 .0273043
875.992 .0272924
876.662 .0272805
877.331 .0272688
878.001 .0272572
878.670 .0272457
879.338 .0272344
880.007 .0272231
880.675 .0272121
881.342 .0272013
882.009 .0271908
882.676 .0271805
883.343 .0271706
884.009 .0271610
884.675 .0271517
885.340 .0271426
886.005 .0271337
886.670 .0271250
887.334 .0271163
887.998 .0271076
888.662 .0270988
889.325 .0270900
889.988 .0270810
890.650 .0270718
891.312 .0270624
891.974 .0270527
892.636 .0270426
893.297 .0270321
893.957 .0270211
894.618 .0270097
895.278 .0269977
895.937 .0269850
896.596 .0269716
897.255 .0269574
897.914 .0269423
898.572 .0269261
899.230 .0269089
899.887 .0268905
900.544 .0268710
901.201 .0268502
901.857 .0268145
902.513 .0267910
903.168 .0267666
903.823 .0267411
904.478 .0267147
905.132 .0266873
905.786 .0266590
906.440 .0266298
907.093 .0266000
907.746 .0265695
908.399 .0265385
909.051 .0265071
909.703 .0264754
910.354 .0264591
911.005 .0264274
911.656 .0263957
912.306 .0263639
912.956 .0263320
913.605 .0263001
914.254 .0262683
914.903 .0262365
915.551 .0262049
916.199 .0261734
916.847 .0261422
917.494 .0261113
918.141 .0260806
918.788 .0260501
919.434 .0260200
920.079 .0259901
920.725 .0259604
921.370 .0259311
922.014 .0259019
922.658 .0258730
923.302 .0258442
923.946 .0258157
924.589 .0257873
925.231 .0257590
925.873 .0257309
926.515 .0257028
927.157 .0256749
927.798 .0256470
928.439 .0256194
929.079 .0255919
929.719 .0255647
930.359 .0255379
930.998 .0255116
931.637 .0254857
932.275 .0254605
932.913 .0254359
933.551 .0254121
934.188 .0253892
934.825 .0253672
935.462 .0253462
936.098 .0253262
936.733 .0253073
937.369 .0252895
938.004 .0252728
938.638 .0252573
939.273 .0252428
939.907 .0252296
940.540 .0252175
941.173 .0252066
941.806 .0251968
942.438 .0251882
943.070 .0251806
943.702 .0251740
944.333 .0251684
944.964 .0251636
945.594 .0251595
946.224 .0251561
946.854 .0251533
947.483 .0251511
948.112 .0251494
948.741 .0251483
949.369 .0251476
949.996 .0251473
950.624 .0251473
951.251 .0251477
951.878 .0251483
952.504 .0251490
953.130 .0251498
953.755 .0251508
954.380 .0251519
955.005 .0251531
955.629 .0251544
956.253 .0251558
956.877 .0251574
957.500 .0251591
958.123 .0251609
958.746 .0251628
959.368 .0251650
959.990 .0251673
960.611 .0251698
961.232 .0251726
961.853 .0251756
962.473 .0251789
963.093 .0251826
963.712 .0251866
964.331 .0251909
964.950 .0251956
965.569 .0252006
966.187 .0252060
966.804 .0252116
967.422 .0252175
968.039 .0252235
968.655 .0252297
969.272 .0252359
969.887 .0252421
970.503 .0252484
971.118 .0252547
971.733 .0252609
972.347 .0252672
972.961 .0252734
973.575 .0252796
974.188 .0252856
974.801 .0252915
975.414 .0252973
976.026 .0253029
976.638 .0253083
977.250 .0253136
977.861 .0253189
978.472 .0253242
979.083 .0253294
979.693 .0253347
980.303 .0253399
980.912 .0253471
981.521 .0253520
982.130 .0253566
982.738 .0253610
983.346 .0253652
983.954 .0253693
984.562 .0253734
985.169 .0253775
985.775 .0253817
986.382 .0253859
986.988 .0253902
987.594 .0253945
988.199 .0253989
988.804 .0254033
989.409 .0254058
990.013 .0254103
990.617 .0254150
991.221 .0254200
991.824 .0254253
992.427 .0254309
993.030 .0254369
993.632 .0254432
994.234 .0254498
994.836 .0254565
995.438 .0254634
996.039 .0254704
996.640 .0254774
997.240 .0254846
997.840 .0254920
998.440 .0254997
999.040 .0255076
999.639 .0255158
1000.238 .0255244
1000.836 .0255332
1001.435 .0255421
1002.033 .0255512
1002.630 .0255603
1003.228 .0255693
1003.825 .0255782
1004.422 .0255870
1005.018 .0255957
1005.614 .0256042
1006.210 .0256127
1006.806 .0256210
1007.401 .0256293
1007.996 .0256375
1008.591 .0256456
1009.186 .0256536
1009.780 .0256614
1010.374 .0256690
1010.967 .0256764
1011.561 .0256836
1012.154 .0256907
1012.746 .0256977
1013.339 .0257046
1013.931 .0257115
1014.523 .0257184
1015.115 .0257253
1015.706 .0257321
1016.298 .0257389
1016.888 .0257455
1017.479 .0257519
1018.069 .0257581
1018.660 .0257640
1019.250 .0257698
1019.839 .0257752
1020.429 .0257806
1021.018 .0257857
1021.607 .0257908
1022.195 .0257958
1022.784 .0258008
1023.372 .0258056
1023.960 .0258103
1024.547 .0258148
1025.135 .0258191
1025.722 .0258231
1026.309 .0258269
1026.896 .0258305
1027.483 .0258337
1028.069 .0258367
1028.655 .0258394
1029.241 .0258417
1029.827 .0258437
1030.412 .0258453
1030.997 .0258465
1031.582 .0258472
1032.167 .0258475
1032.752 .0258473
1033.336 .0258466
1033.921 .0258455
1034.505 .0258441
1035.089 .0258423
1035.672 .0258403
1036.256 .0258381
1036.839 .0258357
1037.422 .0258331
1038.005 .0258303
1038.588 .0258273
1039.171 .0258240
1039.753 .0258203
1040.335 .0258164
1040.918 .0258121
1041.500 .0258075
1042.081 .0258025
1042.663 .0257971
1043.244 .0257914
1043.826 .0257854
1044.407 .0257789
1044.988 .0257720
1045.569 .0257647
1046.150 .0257568
1046.730 .0257484
1047.311 .0257394
1047.891 .0257298
1048.471 .0257197
1049.052 .0257091
1049.632 .0256981
1050.211 .0256866
1050.791 .0256749
1051.371 .0256628
1051.950 .0256503
1052.530 .0256373
1053.109 .0256237
1053.688 .0256095
1054.268 .0255947
1054.847 .0255793
1055.426 .0255633
1056.005 .0255468
1056.583 .0255300
1057.162 .0255130
1057.741 .0254958
1058.319 .0254784
1058.898 .0254609
1059.476 .0254431
1060.055 .0254251
1060.633 .0254069
1061.211 .0253884
1061.790 .0253698
1062.368 .0253512
1062.946 .0253327
1063.524 .0253145
1064.102 .0252965
1064.680 .0252788
1065.258 .0252613
1065.836 .0252439
1066.414 .0252265
1066.992 .0252090
1067.570 .0251912
1068.148 .0251732
1068.726 .0251549
1069.304 .0251366
1069.882 .0251182
1070.460 .0250998
1071.038 .0250816
1071.616 .0250635
1072.194 .0250457
1072.772 .0250281
1073.350 .0250107
1073.928 .0249935
1074.506 .0249764
1075.084 .0249596
1075.662 .0249432
1076.240 .0249272
1076.819 .0249116
1077.397 .0248968
1077.976 .0248825
1078.554 .0248689
1079.133 .0248558
1079.711 .0248434
1080.290 .0248315
1080.869 .0248201
1081.448 .0248090
1082.027 .0247983
1082.606 .0247881
1083.185 .0247782
1083.764 .0247688
1084.343 .0247600
1084.923 .0247519
1085.502 .0247446
1086.082 .0247382
1086.662 .0247329
1087.242 .0247288
1087.822 .0247258
1088.402 .0247240
1088.983 .0247232
1089.563 .0247236
1090.144 .0247250
1090.725 .0247274
1091.306 .0247308
1091.887 .0247353
1092.469 .0247406
1093.050 .0247468
1093.632 .0247536
1094.214 .0247610
1094.796 .0247686
1095.379 .0247762
1095.961 .0247838
1096.544 .0247910
1097.127 .0247980
1097.710 .0248046
1098.294 .0248112
1098.877 .0248180
1099.461 .0248250
1100.046 .0248326
1100.630 .0248410
1101.215 .0248504
1101.800 .0248608
1102.385 .0248721
1102.970 .0248844
1103.556 .0248975
1104.142 .0249113
1104.728 .0249259
1105.315 .0249411
1105.902 .0249571
1106.489 .0249737
1107.077 .0249908
1107.664 .0250083
1108.253 .0250259
1108.841 .0250437
1109.430 .0250616
1110.019 .0250795
1110.609 .0250975
1111.198 .0251158
1111.789 .0251345
1112.379 .0251540
1112.970 .0251747
1113.561 .0251966
1114.153 .0252201
1114.745 .0252453
1115.338 .0252722
1115.931 .0253011
1116.524 .0253320
1117.117 .0253649
1117.712 .0253999
1118.306 .0254370
1118.901 .0254759
1119.496 .0255168
1120.092 .0255596
1120.689 .0256042
1121.285 .0256504
1121.882 .0256979
1122.480 .0257467
1123.078 .0257966
1123.677 .0258477
1124.276 .0259001
1124.875 .0259540
1125.476 .0260099
1126.076 .0260678
1126.677 .0261283
1127.279 .0261918
1127.881 .0262589
1128.484 .0263298
1129.087 .0263603
1129.691 .0264370
1130.295 .0265176
1130.900 .0266021
1131.505 .0266905
1132.111 .0267832
1132.718 .0268805
1133.325 .0269829
1133.933 .0270907
1134.541 .0272026
1135.150 .0273289
1135.760 .0274528
1136.370 .0275894
1136.981 .0275101
1137.592 .0276478
1138.204 .0277859
1138.817 .0279260
1139.431 .0280750
1140.045 .0282388
1140.660 .0284162
1141.275 .0286152
1141.891 .0288327
1142.508 .0290161
1143.126 .0294994
1143.744 .0295169
1144.363 .0299547
1144.983 .0300793
