Measurement Sequence started on: 15-12-46-377
Integration time: 28
Scans to Average: 2 
>>>>>Begin Spectral Data<<<<<
432.689 .0000100
433.621 .0000100
434.552 .0000100
435.482 .0000100
436.410 .0000100
437.337 .0000100
438.262 .0263257
439.187 .0556683
440.110 .0921635
441.031 .1332573
441.952 .1062616
442.871 .1109267
443.789 .1152719
444.705 .1193649
445.621 .1232536
446.535 .1269753
447.447 .1291696
448.359 .1296988
449.269 .1282043
450.178 .1244574
451.086 .1185360
451.993 .1109009
452.898 .1023105
453.803 .0936251
454.706 .0855730
455.608 .0786041
456.508 .0728663
457.408 .0690324
458.306 .0661161
459.204 .0637664
460.100 .0618036
460.995 .0601282
461.888 .0586741
462.781 .0573955
463.673 .0562573
464.563 .0552363
465.452 .0543127
466.340 .0534707
467.228 .0526985
468.114 .0519875
468.999 .0513299
469.882 .0507205
470.765 .0501546
471.647 .0496284
472.528 .0491398
473.407 .0486863
474.286 .0482659
475.163 .0478784
476.040 .0475224
476.915 .0471975
477.790 .0469033
478.663 .0466393
479.535 .0464049
480.407 .0461998
481.277 .0460229
482.147 .0458733
483.015 .0457498
483.883 .0456516
484.749 .0455771
485.615 .0455260
486.479 .0454979
487.343 .0454921
488.206 .0455087
489.067 .0455472
489.928 .0456069
490.788 .0456872
491.647 .0457870
492.505 .0459053
493.362 .0460408
494.218 .0461925
495.073 .0463599
495.928 .0466658
496.781 .0468747
497.634 .0471015
498.486 .0473475
499.337 .0476138
500.187 .0479018
501.036 .0482139
501.884 .0485519
502.731 .0489185
503.578 .0493169
504.424 .0495877
505.268 .0500491
506.113 .0505539
506.956 .0511071
507.798 .0517145
508.640 .0523834
509.480 .0531235
510.320 .0539451
511.160 .0548604
511.998 .0558837
512.836 .0570323
513.672 .0583234
514.508 .0597779
515.344 .0614178
516.178 .0632660
517.012 .0653460
517.845 .0676792
518.677 .0702837
519.508 .0731767
520.339 .0763673
521.169 .0798587
521.998 .0836318
522.826 .0876590
523.654 .0918920
524.481 .0962713
525.307 .1007273
526.133 .1051776
526.958 .1095321
527.782 .1137021
528.605 .1175994
529.428 .1211442
530.250 .1242637
531.072 .1269056
531.892 .1290249
532.712 .1305936
533.532 .1315934
534.350 .1320170
535.168 .1318697
535.986 .1311620
536.802 .1299006
537.618 .1280976
538.434 .1257674
539.249 .1229425
540.063 .1196632
540.876 .1159871
541.689 .1119815
542.501 .1077208
543.313 .1032902
544.124 .0987799
544.934 .0942763
545.744 .0898621
546.553 .0856092
547.361 .0815772
548.169 .0778051
548.976 .0743206
549.783 .0711328
550.589 .0682383
551.395 .0656224
552.200 .0632587
553.004 .0611179
553.808 .0591746
554.611 .0574057
555.414 .0557908
556.216 .0543138
557.018 .0529589
557.819 .0517131
558.619 .0505649
559.419 .0495056
560.218 .0485261
561.017 .0476181
561.815 .0467740
562.613 .0459872
563.410 .0452508
564.207 .0445596
565.003 .0439082
565.799 .0432916
566.594 .0427060
567.388 .0421487
568.182 .0416166
568.976 .0411080
569.769 .0406216
570.562 .0401566
571.354 .0397122
572.145 .0392878
572.936 .0388819
573.727 .0384938
574.517 .0381221
575.307 .0377656
576.096 .0374219
576.885 .0370902
577.673 .0367696
578.461 .0364598
579.248 .0361608
580.035 .0358729
580.821 .0355963
581.607 .0353317
582.392 .0350794
583.177 .0348396
583.962 .0346124
584.746 .0343982
585.529 .0341966
586.313 .0340071
587.095 .0338294
587.878 .0336628
588.660 .0335069
589.441 .0333614
590.222 .0332256
591.003 .0330991
591.783 .0329815
592.563 .0328726
593.342 .0327721
594.121 .0326795
594.899 .0325943
595.678 .0325161
596.455 .0324441
597.233 .0323777
598.009 .0323160
598.786 .0322584
599.562 .0322040
600.338 .0321524
601.113 .0321031
601.888 .0320361
602.663 .0319919
603.437 .0319498
604.211 .0319098
604.984 .0318718
605.757 .0318357
606.530 .0318015
607.302 .0317689
608.074 .0317378
608.845 .0317079
609.616 .0316792
610.387 .0316674
611.158 .0316400
611.928 .0316136
612.697 .0315880
613.467 .0315632
614.236 .0315393
615.004 .0315164
615.773 .0314944
616.541 .0314733
617.308 .0314530
618.076 .0314333
618.843 .0314140
619.609 .0313947
620.375 .0313753
621.141 .0313555
621.907 .0313353
622.672 .0313144
623.437 .0312929
624.202 .0312709
624.966 .0312483
625.730 .0312252
626.493 .0312015
627.257 .0311773
628.020 .0311524
628.782 .0311268
629.545 .0311004
630.307 .0310732
631.068 .0310452
631.830 .0310166
632.591 .0309874
633.352 .0309577
634.112 .0309277
634.872 .0308975
635.632 .0308671
636.392 .0308367
637.151 .0308064
637.910 .0307762
638.668 .0307460
639.427 .0307161
640.185 .0306864
640.943 .0306570
641.700 .0306279
642.457 .0305992
643.214 .0305708
643.971 .0305428
644.727 .0305153
645.483 .0304882
646.239 .0304616
646.994 .0304355
647.750 .0304099
648.505 .0303847
649.259 .0303601
650.014 .0303358
650.768 .0303119
651.521 .0302882
652.275 .0302647
653.028 .0302414
653.781 .0302182
654.534 .0301952
655.286 .0301724
656.039 .0301498
656.791 .0301276
657.542 .0301056
658.294 .0300839
659.045 .0300625
659.796 .0300414
660.546 .0300206
661.297 .0300000
662.047 .0299797
662.796 .0299598
663.546 .0299402
664.295 .0299211
665.044 .0299025
665.793 .0298843
666.542 .0298666
667.290 .0298493
668.038 .0298325
668.786 .0298160
669.533 .0297999
670.281 .0297841
671.028 .0297687
671.774 .0297536
672.521 .0297390
673.267 .0297247
674.013 .0297107
674.759 .0296971
675.505 .0296837
676.250 .0296706
676.995 .0296577
677.740 .0296449
678.484 .0296322
679.229 .0296196
679.973 .0296069
680.717 .0295940
681.460 .0295809
682.204 .0295675
682.947 .0295536
683.690 .0295393
684.433 .0295244
685.175 .0295090
685.917 .0294931
686.659 .0294766
687.401 .0294595
688.142 .0294418
688.884 .0294233
689.625 .0294041
690.365 .0293840
691.106 .0293631
691.846 .0293414
692.586 .0293189
693.326 .0292956
694.066 .0292718
694.805 .0292475
695.545 .0292228
696.284 .0291978
697.022 .0291726
697.761 .0291473
698.499 .0291220
699.237 .0290967
699.975 .0290715
700.713 .0290465
701.450 .0290216
702.187 .0289971
702.924 .0289728
703.661 .0289488
704.397 .0289252
705.133 .0289020
705.869 .0288792
706.605 .0288570
707.341 .0288351
708.076 .0288137
708.811 .0287927
709.546 .0287719
710.281 .0287513
711.015 .0287308
711.749 .0287103
712.483 .0286897
713.217 .0286690
713.950 .0286483
714.684 .0286274
715.417 .0286065
716.150 .0285856
716.882 .0285646
717.615 .0285437
718.347 .0285228
719.079 .0285020
719.811 .0284812
720.542 .0284605
721.273 .0284399
722.005 .0284192
722.735 .0283988
723.466 .0283784
724.196 .0283584
724.927 .0283386
725.656 .0283193
726.386 .0283005
727.116 .0282823
727.845 .0282648
728.574 .0282480
729.303 .0282320
730.031 .0282167
730.760 .0282023
731.488 .0281887
732.216 .0281759
732.944 .0281638
733.671 .0281524
734.398 .0281417
735.125 .0281317
735.852 .0281224
736.579 .0281138
737.305 .0281060
738.031 .0280988
738.757 .0280923
739.483 .0280864
740.208 .0280812
740.933 .0280764
741.658 .0280721
742.383 .0280681
743.108 .0280646
743.832 .0280614
744.556 .0280585
745.280 .0280558
746.004 .0280533
746.727 .0280509
747.450 .0280486
748.173 .0280462
748.896 .0280438
749.618 .0280411
750.340 .0280382
751.062 .0280350
751.784 .0280316
752.506 .0280278
753.227 .0280236
753.948 .0280189
754.669 .0280137
755.389 .0280078
756.110 .0280012
756.830 .0279938
757.550 .0279857
758.269 .0279769
758.989 .0279673
759.708 .0279571
760.427 .0279462
761.146 .0279347
761.864 .0279227
762.582 .0279101
763.300 .0278970
764.018 .0278834
764.736 .0278693
765.453 .0278548
766.170 .0278398
766.887 .0278243
767.603 .0278084
768.320 .0277921
769.036 .0277754
769.751 .0277586
770.467 .0277416
771.182 .0277246
771.897 .0277076
772.612 .0276908
773.327 .0276742
774.041 .0276577
774.755 .0276415
775.469 .0276255
776.183 .0276095
776.896 .0275938
777.609 .0275781
778.322 .0275626
779.035 .0275472
779.747 .0275320
780.459 .0275170
781.171 .0275023
781.882 .0274878
782.594 .0274736
783.305 .0274596
784.016 .0274458
784.726 .0274321
785.436 .0274184
786.147 .0273974
786.856 .0273832
787.566 .0273687
788.275 .0273539
788.984 .0273390
789.693 .0273238
790.401 .0273085
791.110 .0272929
791.818 .0272771
792.525 .0272609
793.233 .0272445
793.940 .0272276
794.647 .0272178
795.353 .0272002
796.060 .0271823
796.766 .0271639
797.472 .0271451
798.177 .0271258
798.883 .0271062
799.588 .0270862
800.292 .0270660
800.997 .0270455
801.701 .0270248
802.405 .0270040
803.109 .0269830
803.812 .0269621
804.515 .0269411
805.218 .0269202
805.921 .0268993
806.623 .0268785
807.325 .0268578
808.027 .0268374
808.728 .0268173
809.429 .0267976
810.130 .0267783
810.831 .0267595
811.531 .0267413
812.231 .0267236
812.931 .0267066
813.630 .0266902
814.330 .0266746
815.029 .0266599
815.727 .0266461
816.426 .0266332
817.124 .0266214
817.821 .0266107
818.519 .0266011
819.216 .0265925
819.913 .0265852
820.609 .0265789
821.306 .0265739
822.002 .0265701
822.697 .0265675
823.393 .0265662
824.088 .0265660
824.783 .0265670
825.477 .0265689
826.171 .0265717
826.865 .0265754
827.559 .0265797
828.252 .0265848
828.945 .0265905
829.638 .0265968
830.330 .0266036
831.023 .0266110
831.714 .0266187
832.406 .0266266
833.097 .0266346
833.788 .0266425
834.479 .0266503
835.169 .0266579
835.859 .0266654
836.548 .0266727
837.238 .0266799
837.927 .0266870
838.615 .0266939
839.304 .0267005
839.992 .0267067
840.680 .0267124
841.367 .0267176
842.054 .0267223
842.741 .0267264
843.428 .0267299
844.114 .0267330
844.800 .0267355
845.485 .0267376
846.170 .0267390
846.855 .0267398
847.540 .0267399
848.224 .0267393
848.908 .0267380
849.592 .0267359
850.275 .0267331
850.958 .0267297
851.641 .0267255
852.323 .0267207
853.005 .0267152
853.687 .0267090
854.368 .0267020
855.049 .0266944
855.730 .0266860
856.410 .0266770
857.090 .0266674
857.769 .0266572
858.449 .0266464
859.128 .0266353
859.806 .0266236
860.485 .0266115
861.163 .0265990
861.840 .0265861
862.518 .0265728
863.195 .0265592
863.871 .0265454
864.548 .0265313
865.224 .0265170
865.899 .0265025
866.574 .0264879
867.249 .0264730
867.924 .0264579
868.598 .0264426
869.272 .0264271
869.946 .0264115
870.619 .0263956
871.292 .0263795
871.964 .0263632
872.636 .0263467
873.308 .0263300
873.979 .0263130
874.651 .0262958
875.321 .0262784
875.992 .0262609
876.662 .0262433
877.331 .0262256
878.001 .0262079
878.670 .0261902
879.338 .0261726
880.007 .0261551
880.675 .0261377
881.342 .0261204
882.009 .0261033
882.676 .0260863
883.343 .0260695
884.009 .0260529
884.675 .0260364
885.340 .0260202
886.005 .0260042
886.670 .0259884
887.334 .0259728
887.998 .0259575
888.662 .0259424
889.325 .0259276
889.988 .0259129
890.650 .0258985
891.312 .0258842
891.974 .0258699
892.636 .0258557
893.297 .0258414
893.957 .0258271
894.618 .0258126
895.278 .0257980
895.937 .0257831
896.596 .0257680
897.255 .0257527
897.914 .0257370
898.572 .0257209
899.230 .0257043
899.887 .0256873
900.544 .0256697
901.201 .0256515
901.857 .0256215
902.513 .0256018
903.168 .0255815
903.823 .0255606
904.478 .0255392
905.132 .0255171
905.786 .0254945
906.440 .0254714
907.093 .0254478
907.746 .0254239
908.399 .0253996
909.051 .0253752
909.703 .0253506
910.354 .0253379
911.005 .0253134
911.656 .0252890
912.306 .0252645
912.956 .0252402
913.605 .0252160
914.254 .0251921
914.903 .0251686
915.551 .0251455
916.199 .0251230
916.847 .0251011
917.494 .0250798
918.141 .0250591
918.788 .0250390
919.434 .0250195
920.079 .0250006
920.725 .0249822
921.370 .0249643
922.014 .0249469
922.658 .0249301
923.302 .0249138
923.946 .0248980
924.589 .0248826
925.231 .0248677
925.873 .0248532
926.515 .0248389
927.157 .0248250
927.798 .0248114
928.439 .0247982
929.079 .0247854
929.719 .0247731
930.359 .0247612
930.998 .0247500
931.637 .0247394
932.275 .0247294
932.913 .0247201
933.551 .0247116
934.188 .0247039
934.825 .0246971
935.462 .0246913
936.098 .0246864
936.733 .0246827
937.369 .0246799
938.004 .0246782
938.638 .0246775
939.273 .0246778
939.907 .0246792
940.540 .0246815
941.173 .0246849
941.806 .0246893
942.438 .0246947
943.070 .0247012
943.702 .0247086
944.333 .0247170
944.964 .0247260
945.594 .0247357
946.224 .0247459
946.854 .0247565
947.483 .0247674
948.112 .0247786
948.741 .0247899
949.369 .0248014
949.996 .0248129
950.624 .0248243
951.251 .0248355
951.878 .0248465
952.504 .0248571
953.130 .0248673
953.755 .0248771
954.380 .0248864
955.005 .0248954
955.629 .0249041
956.253 .0249125
956.877 .0249207
957.500 .0249287
958.123 .0249365
958.746 .0249442
959.368 .0249517
959.990 .0249592
960.611 .0249667
961.232 .0249742
961.853 .0249817
962.473 .0249893
963.093 .0249970
963.712 .0250047
964.331 .0250125
964.950 .0250202
965.569 .0250279
966.187 .0250356
966.804 .0250432
967.422 .0250506
968.039 .0250578
968.655 .0250648
969.272 .0250715
969.887 .0250780
970.503 .0250840
971.118 .0250896
971.733 .0250948
972.347 .0250994
972.961 .0251035
973.575 .0251070
974.188 .0251099
974.801 .0251122
975.414 .0251137
976.026 .0251144
976.638 .0251144
977.250 .0251136
977.861 .0251119
978.472 .0251093
979.083 .0251060
979.693 .0251018
980.303 .0250968
980.912 .0250865
981.521 .0250801
982.130 .0250733
982.738 .0250659
983.346 .0250582
983.954 .0250501
984.562 .0250416
985.169 .0250329
985.775 .0250239
986.382 .0250148
986.988 .0250057
987.594 .0249967
988.199 .0249878
988.804 .0249791
989.409 .0249753
990.013 .0249670
990.617 .0249589
991.221 .0249508
991.824 .0249428
992.427 .0249346
993.030 .0249263
993.632 .0249178
994.234 .0249092
994.836 .0249004
995.438 .0248916
996.039 .0248827
996.640 .0248739
997.240 .0248651
997.840 .0248564
998.440 .0248477
999.040 .0248389
999.639 .0248300
1000.238 .0248208
1000.836 .0248114
1001.435 .0248017
1002.033 .0247917
1002.630 .0247815
1003.228 .0247711
1003.825 .0247605
1004.422 .0247495
1005.018 .0247382
1005.614 .0247265
1006.210 .0247141
1006.806 .0247012
1007.401 .0246875
1007.996 .0246731
1008.591 .0246582
1009.186 .0246427
1009.780 .0246270
1010.374 .0246111
1010.967 .0245952
1011.561 .0245793
1012.154 .0245635
1012.746 .0245478
1013.339 .0245322
1013.931 .0245168
1014.523 .0245014
1015.115 .0244862
1015.706 .0244712
1016.298 .0244563
1016.888 .0244418
1017.479 .0244276
1018.069 .0244138
1018.660 .0244004
1019.250 .0243874
1019.839 .0243747
1020.429 .0243623
1021.018 .0243503
1021.607 .0243385
1022.195 .0243271
1022.784 .0243160
1023.372 .0243053
1023.960 .0242951
1024.547 .0242854
1025.135 .0242761
1025.722 .0242673
1026.309 .0242589
1026.896 .0242507
1027.483 .0242427
1028.069 .0242347
1028.655 .0242268
1029.241 .0242187
1029.827 .0242106
1030.412 .0242023
1030.997 .0241938
1031.582 .0241852
1032.167 .0241765
1032.752 .0241677
1033.336 .0241588
1033.921 .0241497
1034.505 .0241405
1035.089 .0241310
1035.672 .0241212
1036.256 .0241112
1036.839 .0241010
1037.422 .0240905
1038.005 .0240799
1038.588 .0240692
1039.171 .0240584
1039.753 .0240476
1040.335 .0240367
1040.918 .0240258
1041.500 .0240148
1042.081 .0240035
1042.663 .0239921
1043.244 .0239806
1043.826 .0239689
1044.407 .0239574
1044.988 .0239461
1045.569 .0239353
1046.150 .0239251
1046.730 .0239154
1047.311 .0239064
1047.891 .0238979
1048.471 .0238898
1049.052 .0238819
1049.632 .0238740
1050.211 .0238661
1050.791 .0238583
1051.371 .0238504
1051.950 .0238427
1052.530 .0238352
1053.109 .0238280
1053.688 .0238212
1054.268 .0238146
1054.847 .0238084
1055.426 .0238023
1056.005 .0237964
1056.583 .0237905
1057.162 .0237848
1057.741 .0237793
1058.319 .0237741
1058.898 .0237694
1059.476 .0237654
1060.055 .0237620
1060.633 .0237593
1061.211 .0237573
1061.790 .0237560
1062.368 .0237553
1062.946 .0237552
1063.524 .0237555
1064.102 .0237564
1064.680 .0237577
1065.258 .0237595
1065.836 .0237619
1066.414 .0237649
1066.992 .0237684
1067.570 .0237725
1068.148 .0237772
1068.726 .0237825
1069.304 .0237883
1069.882 .0237946
1070.460 .0238015
1071.038 .0238089
1071.616 .0238168
1072.194 .0238251
1072.772 .0238338
1073.350 .0238429
1073.928 .0238523
1074.506 .0238618
1075.084 .0238716
1075.662 .0238815
1076.240 .0238916
1076.819 .0239019
1077.397 .0239124
1077.976 .0239229
1078.554 .0239335
1079.133 .0239442
1079.711 .0239550
1080.290 .0239658
1080.869 .0239768
1081.448 .0239879
1082.027 .0239992
1082.606 .0240108
1083.185 .0240227
1083.764 .0240352
1084.343 .0240482
1084.923 .0240618
1085.502 .0240760
1086.082 .0240908
1086.662 .0241063
1087.242 .0241224
1087.822 .0241393
1088.402 .0241570
1088.983 .0241757
1089.563 .0241955
1090.144 .0242166
1090.725 .0242390
1091.306 .0242628
1091.887 .0242881
1092.469 .0243146
1093.050 .0243422
1093.632 .0243706
1094.214 .0243997
1094.796 .0244293
1095.379 .0244592
1095.961 .0244893
1096.544 .0245196
1097.127 .0245501
1097.710 .0245806
1098.294 .0246112
1098.877 .0246418
1099.461 .0246724
1100.046 .0247030
1100.630 .0247335
1101.215 .0247639
1101.800 .0247942
1102.385 .0248246
1102.970 .0248553
1103.556 .0248862
1104.142 .0249175
1104.728 .0249492
1105.315 .0249815
1105.902 .0250145
1106.489 .0250481
1107.077 .0250825
1107.664 .0251177
1108.253 .0251538
1108.841 .0251909
1109.430 .0252291
1110.019 .0252685
1110.609 .0253091
1111.198 .0253512
1111.789 .0253946
1112.379 .0254394
1112.970 .0254856
1113.561 .0255331
1114.153 .0255821
1114.745 .0256325
1115.338 .0256843
1115.931 .0257377
1116.524 .0257927
1117.117 .0258493
1117.712 .0259077
1118.306 .0259676
1118.901 .0260289
1119.496 .0260912
1120.092 .0261543
1120.689 .0262180
1121.285 .0262821
1121.882 .0263464
1122.480 .0264110
1123.078 .0264761
1123.677 .0265420
1124.276 .0266086
1124.875 .0266762
1125.476 .0267449
1126.076 .0268149
1126.677 .0268861
1127.279 .0269585
1127.881 .0270322
1128.484 .0271076
1129.087 .0271413
1129.691 .0272187
1130.295 .0272981
1130.900 .0273798
1131.505 .0274639
1132.111 .0275506
1132.718 .0276400
1133.325 .0277320
1133.933 .0278269
1134.541 .0279232
1135.150 .0280228
1135.760 .0281234
1136.370 .0282301
1136.981 .0282801
1137.592 .0283972
1138.204 .0285171
1138.817 .0286428
1139.431 .0287752
1140.045 .0289108
1140.660 .0290498
1141.275 .0291903
1141.891 .0293382
1142.508 .0294469
1143.126 .0296070
1143.744 .0297051
1144.363 .0299372
1144.983 .0302419
