Measurement Sequence started on: 15-12-46-377
Integration time: 28
Scans to Average: 2 
>>>>>Begin Spectral Data<<<<<
432.689 .0000100
433.621 .0000100
434.552 .0000100
435.482 .0000100
436.410 .0000100
437.337 .0000100
438.262 .0259039
439.187 .0548636
440.110 .0909026
441.031 .1314953
441.952 .1049870
442.871 .1095883
443.789 .1138647
444.705 .1178834
445.621 .1216887
446.535 .1253170
447.447 .1274319
448.359 .1278939
449.269 .1263485
450.178 .1225696
451.086 .1166326
451.993 .1089928
452.898 .1003974
453.803 .0916950
454.706 .0836071
455.608 .0765806
456.508 .0707643
457.408 .0668234
458.306 .0637926
459.204 .0613280
460.100 .0592543
460.995 .0574759
461.888 .0559287
462.781 .0545705
463.673 .0533673
464.563 .0522948
465.452 .0513334
466.340 .0504672
467.228 .0496842
468.114 .0489759
468.999 .0483349
469.882 .0477558
470.765 .0472335
471.647 .0467635
472.528 .0463422
473.407 .0459653
474.286 .0456288
475.163 .0453297
476.040 .0450641
476.915 .0448294
477.790 .0446227
478.663 .0444425
479.535 .0442873
480.407 .0441564
481.277 .0440482
482.147 .0439615
483.015 .0438944
483.883 .0438452
484.749 .0438123
485.615 .0437943
486.479 .0437903
487.343 .0437997
488.206 .0438226
489.067 .0438592
489.928 .0439100
490.788 .0439756
491.647 .0440559
492.505 .0441509
493.362 .0442601
494.218 .0443828
495.073 .0445183
495.928 .0447671
496.781 .0449376
497.634 .0451239
498.486 .0453272
499.337 .0455495
500.187 .0457932
501.036 .0460609
501.884 .0463552
502.731 .0466791
503.578 .0470357
504.424 .0472866
505.268 .0477083
506.113 .0481751
506.956 .0486914
507.798 .0492637
508.640 .0499000
509.480 .0506107
510.320 .0514068
511.160 .0523022
511.998 .0533131
512.836 .0544573
513.672 .0557519
514.508 .0572176
515.344 .0588764
516.178 .0607526
517.012 .0628726
517.845 .0652592
518.677 .0679349
519.508 .0709175
520.339 .0742158
521.169 .0778330
521.998 .0817462
522.826 .0859172
523.654 .0902877
524.481 .0947873
525.307 .0993366
526.133 .1038455
526.958 .1082222
527.782 .1123771
528.605 .1162271
529.428 .1196977
530.250 .1227208
531.072 .1252522
531.892 .1272554
532.712 .1287046
533.532 .1295843
534.350 .1298855
535.168 .1296119
535.986 .1287711
536.802 .1273723
537.618 .1254281
538.434 .1229525
539.249 .1199817
540.063 .1165636
540.876 .1127631
541.689 .1086575
542.501 .1043292
543.313 .0998692
544.124 .0953685
544.934 .0909134
545.744 .0865799
546.553 .0824335
547.361 .0785294
548.169 .0748983
548.976 .0715591
549.783 .0685167
550.589 .0657625
551.395 .0632797
552.200 .0610416
553.004 .0590175
553.808 .0571795
554.611 .0555051
555.414 .0539755
556.216 .0525750
557.018 .0512901
557.819 .0501097
558.619 .0490222
559.419 .0480186
560.218 .0470892
561.017 .0462247
561.815 .0454172
562.613 .0446603
563.410 .0439470
564.207 .0432726
565.003 .0426329
565.799 .0420243
566.594 .0414446
567.388 .0408925
568.182 .0403663
568.976 .0398645
569.769 .0393855
570.562 .0389274
571.354 .0384887
572.145 .0380678
572.936 .0376628
573.727 .0372727
574.517 .0368969
575.307 .0365353
576.096 .0361877
576.885 .0358547
577.673 .0355370
578.461 .0352349
579.248 .0349486
580.035 .0346781
580.821 .0344227
581.607 .0341817
582.392 .0339545
583.177 .0337406
583.962 .0335394
584.746 .0333508
585.529 .0331743
586.313 .0330098
587.095 .0328570
587.878 .0327156
588.660 .0325849
589.441 .0324648
590.222 .0323545
591.003 .0322535
591.783 .0321610
592.563 .0320764
593.342 .0319989
594.121 .0319277
594.899 .0318623
595.678 .0318020
596.455 .0317460
597.233 .0316940
598.009 .0316454
598.786 .0315998
599.562 .0315567
600.338 .0315157
601.113 .0314763
601.888 .0314211
602.663 .0313845
603.437 .0313486
604.211 .0313135
604.984 .0312792
605.757 .0312457
606.530 .0312132
607.302 .0311815
608.074 .0311507
608.845 .0311208
609.616 .0310916
610.387 .0310788
611.158 .0310506
611.928 .0310230
612.697 .0309961
613.467 .0309700
614.236 .0309447
615.004 .0309203
615.773 .0308967
616.541 .0308741
617.308 .0308524
618.076 .0308314
618.843 .0308110
619.609 .0307913
620.375 .0307721
621.141 .0307534
621.907 .0307350
622.672 .0307168
623.437 .0306986
624.202 .0306803
624.966 .0306616
625.730 .0306426
626.493 .0306232
627.257 .0306032
628.020 .0305828
628.782 .0305618
629.545 .0305404
630.307 .0305183
631.068 .0304957
631.830 .0304723
632.591 .0304482
633.352 .0304235
634.112 .0303980
634.872 .0303721
635.632 .0303458
636.392 .0303193
637.151 .0302927
637.910 .0302660
638.668 .0302394
639.427 .0302130
640.185 .0301868
640.943 .0301609
641.700 .0301355
642.457 .0301106
643.214 .0300863
643.971 .0300626
644.727 .0300395
645.483 .0300170
646.239 .0299950
646.994 .0299735
647.750 .0299524
648.505 .0299319
649.259 .0299118
650.014 .0298921
650.768 .0298729
651.521 .0298539
652.275 .0298352
653.028 .0298167
653.781 .0297983
654.534 .0297799
655.286 .0297614
656.039 .0297429
656.791 .0297243
657.542 .0297056
658.294 .0296869
659.045 .0296680
659.796 .0296492
660.546 .0296303
661.297 .0296116
662.047 .0295930
662.796 .0295747
663.546 .0295566
664.295 .0295389
665.044 .0295214
665.793 .0295042
666.542 .0294874
667.290 .0294708
668.038 .0294544
668.786 .0294383
669.533 .0294224
670.281 .0294067
671.028 .0293913
671.774 .0293761
672.521 .0293613
673.267 .0293467
674.013 .0293324
674.759 .0293183
675.505 .0293045
676.250 .0292909
676.995 .0292774
677.740 .0292640
678.484 .0292506
679.229 .0292373
679.973 .0292239
680.717 .0292104
681.460 .0291969
682.204 .0291833
682.947 .0291695
683.690 .0291556
684.433 .0291416
685.175 .0291275
685.917 .0291133
686.659 .0290989
687.401 .0290844
688.142 .0290698
688.884 .0290549
689.625 .0290399
690.365 .0290246
691.106 .0290091
691.846 .0289934
692.586 .0289774
693.326 .0289613
694.066 .0289450
694.805 .0289285
695.545 .0289121
696.284 .0288956
697.022 .0288791
697.761 .0288627
698.499 .0288463
699.237 .0288301
699.975 .0288140
700.713 .0287981
701.450 .0287823
702.187 .0287666
702.924 .0287511
703.661 .0287357
704.397 .0287205
705.133 .0287054
705.869 .0286905
706.605 .0286757
707.341 .0286612
708.076 .0286467
708.811 .0286324
709.546 .0286180
710.281 .0286036
711.015 .0285890
711.749 .0285743
712.483 .0285592
713.217 .0285438
713.950 .0285280
714.684 .0285120
715.417 .0284956
716.150 .0284790
716.882 .0284622
717.615 .0284451
718.347 .0284276
719.079 .0284099
719.811 .0283919
720.542 .0283735
721.273 .0283549
722.005 .0283359
722.735 .0283168
723.466 .0282975
724.196 .0282781
724.927 .0282587
725.656 .0282395
726.386 .0282204
727.116 .0282016
727.845 .0281832
728.574 .0281653
729.303 .0281479
730.031 .0281311
730.760 .0281149
731.488 .0280993
732.216 .0280842
732.944 .0280697
733.671 .0280557
734.398 .0280421
735.125 .0280291
735.852 .0280167
736.579 .0280049
737.305 .0279937
738.031 .0279831
738.757 .0279731
739.483 .0279636
740.208 .0279545
740.933 .0279456
741.658 .0279368
742.383 .0279281
743.108 .0279194
743.832 .0279106
744.556 .0279018
745.280 .0278930
746.004 .0278842
746.727 .0278752
747.450 .0278662
748.173 .0278570
748.896 .0278475
749.618 .0278379
750.340 .0278280
751.062 .0278178
751.784 .0278073
752.506 .0277965
753.227 .0277854
753.948 .0277741
754.669 .0277626
755.389 .0277508
756.110 .0277389
756.830 .0277269
757.550 .0277147
758.269 .0277025
758.989 .0276903
759.708 .0276780
760.427 .0276657
761.146 .0276534
761.864 .0276411
762.582 .0276288
763.300 .0276165
764.018 .0276043
764.736 .0275921
765.453 .0275801
766.170 .0275683
766.887 .0275567
767.603 .0275453
768.320 .0275343
769.036 .0275236
769.751 .0275133
770.467 .0275035
771.182 .0274939
771.897 .0274848
772.612 .0274760
773.327 .0274677
774.041 .0274597
774.755 .0274521
775.469 .0274449
776.183 .0274380
776.896 .0274315
777.609 .0274254
778.322 .0274195
779.035 .0274138
779.747 .0274083
780.459 .0274028
781.171 .0273974
781.882 .0273920
782.594 .0273865
783.305 .0273809
784.016 .0273750
784.726 .0273689
785.436 .0273625
786.147 .0273510
786.856 .0273435
787.566 .0273356
788.275 .0273272
788.984 .0273185
789.693 .0273094
790.401 .0272998
791.110 .0272898
791.818 .0272794
792.525 .0272687
793.233 .0272575
793.940 .0272460
794.647 .0272396
795.353 .0272276
796.060 .0272154
796.766 .0272029
797.472 .0271900
798.177 .0271770
798.883 .0271636
799.588 .0271500
800.292 .0271361
800.997 .0271220
801.701 .0271076
802.405 .0270931
803.109 .0270783
803.812 .0270632
804.515 .0270480
805.218 .0270325
805.921 .0270167
806.623 .0270008
807.325 .0269846
808.027 .0269682
808.728 .0269516
809.429 .0269349
810.130 .0269181
810.831 .0269011
811.531 .0268841
812.231 .0268670
812.931 .0268500
813.630 .0268330
814.330 .0268162
815.029 .0267994
815.727 .0267829
816.426 .0267667
817.124 .0267507
817.821 .0267349
818.519 .0267195
819.216 .0267042
819.913 .0266893
820.609 .0266747
821.306 .0266603
822.002 .0266464
822.697 .0266328
823.393 .0266197
824.088 .0266071
824.783 .0265950
825.477 .0265835
826.171 .0265725
826.865 .0265622
827.559 .0265524
828.252 .0265432
828.945 .0265346
829.638 .0265265
830.330 .0265189
831.023 .0265118
831.714 .0265051
832.406 .0264988
833.097 .0264929
833.788 .0264873
834.479 .0264822
835.169 .0264773
835.859 .0264728
836.548 .0264686
837.238 .0264647
837.927 .0264609
838.615 .0264572
839.304 .0264535
839.992 .0264498
840.680 .0264461
841.367 .0264422
842.054 .0264382
842.741 .0264340
843.428 .0264295
844.114 .0264248
844.800 .0264197
845.485 .0264142
846.170 .0264083
846.855 .0264018
847.540 .0263947
848.224 .0263870
848.908 .0263786
849.592 .0263695
850.275 .0263597
850.958 .0263493
851.641 .0263383
852.323 .0263267
853.005 .0263146
853.687 .0263021
854.368 .0262892
855.049 .0262760
855.730 .0262626
856.410 .0262489
857.090 .0262350
857.769 .0262210
858.449 .0262069
859.128 .0261927
859.806 .0261785
860.485 .0261644
861.163 .0261503
861.840 .0261364
862.518 .0261227
863.195 .0261092
863.871 .0260960
864.548 .0260832
865.224 .0260707
865.899 .0260586
866.574 .0260469
867.249 .0260357
867.924 .0260249
868.598 .0260146
869.272 .0260047
869.946 .0259951
870.619 .0259860
871.292 .0259772
871.964 .0259689
872.636 .0259610
873.308 .0259536
873.979 .0259466
874.651 .0259402
875.321 .0259341
875.992 .0259286
876.662 .0259234
877.331 .0259186
878.001 .0259141
878.670 .0259099
879.338 .0259061
880.007 .0259026
880.675 .0258995
881.342 .0258966
882.009 .0258942
882.676 .0258920
883.343 .0258901
884.009 .0258885
884.675 .0258871
885.340 .0258859
886.005 .0258849
886.670 .0258841
887.334 .0258833
887.998 .0258827
888.662 .0258822
889.325 .0258817
889.988 .0258813
890.650 .0258808
891.312 .0258804
891.974 .0258799
892.636 .0258792
893.297 .0258785
893.957 .0258776
894.618 .0258764
895.278 .0258750
895.937 .0258732
896.596 .0258710
897.255 .0258683
897.914 .0258651
898.572 .0258614
899.230 .0258571
899.887 .0258522
900.544 .0258466
901.201 .0258404
901.857 .0258281
902.513 .0258200
903.168 .0258112
903.823 .0258016
904.478 .0257912
905.132 .0257800
905.786 .0257681
906.440 .0257555
907.093 .0257421
907.746 .0257281
908.399 .0257136
909.051 .0256984
909.703 .0256828
910.354 .0256736
911.005 .0256576
911.656 .0256411
912.306 .0256242
912.956 .0256071
913.605 .0255898
914.254 .0255723
914.903 .0255546
915.551 .0255368
916.199 .0255189
916.847 .0255008
917.494 .0254827
918.141 .0254644
918.788 .0254461
919.434 .0254277
920.079 .0254092
920.725 .0253908
921.370 .0253723
922.014 .0253539
922.658 .0253354
923.302 .0253168
923.946 .0252982
924.589 .0252794
925.231 .0252604
925.873 .0252413
926.515 .0252220
927.157 .0252025
927.798 .0251830
928.439 .0251633
929.079 .0251436
929.719 .0251238
930.359 .0251041
930.998 .0250843
931.637 .0250646
932.275 .0250450
932.913 .0250255
933.551 .0250063
934.188 .0249874
934.825 .0249688
935.462 .0249507
936.098 .0249331
936.733 .0249159
937.369 .0248993
938.004 .0248833
938.638 .0248677
939.273 .0248528
939.907 .0248384
940.540 .0248246
941.173 .0248113
941.806 .0247986
942.438 .0247863
943.070 .0247743
943.702 .0247628
944.333 .0247517
944.964 .0247409
945.594 .0247304
946.224 .0247202
946.854 .0247103
947.483 .0247007
948.112 .0246913
948.741 .0246820
949.369 .0246729
949.996 .0246640
950.624 .0246552
951.251 .0246464
951.878 .0246378
952.504 .0246292
953.130 .0246206
953.755 .0246121
954.380 .0246035
955.005 .0245950
955.629 .0245864
956.253 .0245777
956.877 .0245691
957.500 .0245605
958.123 .0245520
958.746 .0245436
959.368 .0245354
959.990 .0245275
960.611 .0245198
961.232 .0245124
961.853 .0245053
962.473 .0244985
963.093 .0244920
963.712 .0244858
964.331 .0244799
964.950 .0244743
965.569 .0244689
966.187 .0244637
966.804 .0244587
967.422 .0244538
968.039 .0244490
968.655 .0244444
969.272 .0244399
969.887 .0244355
970.503 .0244311
971.118 .0244269
971.733 .0244227
972.347 .0244186
972.961 .0244144
973.575 .0244101
974.188 .0244057
974.801 .0244011
975.414 .0243964
976.026 .0243914
976.638 .0243861
977.250 .0243806
977.861 .0243748
978.472 .0243686
979.083 .0243620
979.693 .0243550
980.303 .0243475
980.912 .0243342
981.521 .0243255
982.130 .0243165
982.738 .0243071
983.346 .0242976
983.954 .0242879
984.562 .0242781
985.169 .0242683
985.775 .0242586
986.382 .0242490
986.988 .0242395
987.594 .0242302
988.199 .0242212
988.804 .0242125
989.409 .0242096
990.013 .0242018
990.617 .0241946
991.221 .0241880
991.824 .0241822
992.427 .0241770
993.030 .0241726
993.632 .0241689
994.234 .0241659
994.836 .0241636
995.438 .0241619
996.039 .0241610
996.640 .0241607
997.240 .0241613
997.840 .0241626
998.440 .0241647
999.040 .0241676
999.639 .0241711
1000.238 .0241753
1000.836 .0241799
1001.435 .0241849
1002.033 .0241902
1002.630 .0241957
1003.228 .0242014
1003.825 .0242073
1004.422 .0242133
1005.018 .0242194
1005.614 .0242257
1006.210 .0242321
1006.806 .0242385
1007.401 .0242450
1007.996 .0242514
1008.591 .0242577
1009.186 .0242637
1009.780 .0242696
1010.374 .0242752
1010.967 .0242805
1011.561 .0242857
1012.154 .0242908
1012.746 .0242959
1013.339 .0243010
1013.931 .0243061
1014.523 .0243112
1015.115 .0243162
1015.706 .0243211
1016.298 .0243260
1016.888 .0243309
1017.479 .0243358
1018.069 .0243409
1018.660 .0243462
1019.250 .0243517
1019.839 .0243575
1020.429 .0243637
1021.018 .0243702
1021.607 .0243769
1022.195 .0243839
1022.784 .0243909
1023.372 .0243982
1023.960 .0244055
1024.547 .0244130
1025.135 .0244205
1025.722 .0244282
1026.309 .0244360
1026.896 .0244439
1027.483 .0244518
1028.069 .0244598
1028.655 .0244677
1029.241 .0244756
1029.827 .0244833
1030.412 .0244908
1030.997 .0244982
1031.582 .0245054
1032.167 .0245124
1032.752 .0245192
1033.336 .0245259
1033.921 .0245326
1034.505 .0245391
1035.089 .0245456
1035.672 .0245519
1036.256 .0245581
1036.839 .0245642
1037.422 .0245700
1038.005 .0245757
1038.588 .0245811
1039.171 .0245865
1039.753 .0245916
1040.335 .0245965
1040.918 .0246013
1041.500 .0246058
1042.081 .0246100
1042.663 .0246140
1043.244 .0246177
1043.826 .0246210
1044.407 .0246240
1044.988 .0246266
1045.569 .0246288
1046.150 .0246308
1046.730 .0246325
1047.311 .0246339
1047.891 .0246351
1048.471 .0246361
1049.052 .0246370
1049.632 .0246376
1050.211 .0246381
1050.791 .0246385
1051.371 .0246387
1051.950 .0246387
1052.530 .0246387
1053.109 .0246386
1053.688 .0246385
1054.268 .0246384
1054.847 .0246382
1055.426 .0246381
1056.005 .0246379
1056.583 .0246376
1057.162 .0246373
1057.741 .0246369
1058.319 .0246365
1058.898 .0246361
1059.476 .0246358
1060.055 .0246358
1060.633 .0246360
1061.211 .0246367
1061.790 .0246379
1062.368 .0246394
1062.946 .0246413
1063.524 .0246435
1064.102 .0246460
1064.680 .0246486
1065.258 .0246515
1065.836 .0246545
1066.414 .0246578
1066.992 .0246613
1067.570 .0246652
1068.148 .0246693
1068.726 .0246735
1069.304 .0246779
1069.882 .0246823
1070.460 .0246865
1071.038 .0246904
1071.616 .0246941
1072.194 .0246975
1072.772 .0247005
1073.350 .0247032
1073.928 .0247056
1074.506 .0247077
1075.084 .0247096
1075.662 .0247114
1076.240 .0247130
1076.819 .0247143
1077.397 .0247155
1077.976 .0247164
1078.554 .0247171
1079.133 .0247174
1079.711 .0247175
1080.290 .0247174
1080.869 .0247173
1081.448 .0247171
1082.027 .0247169
1082.606 .0247169
1083.185 .0247172
1083.764 .0247176
1084.343 .0247182
1084.923 .0247190
1085.502 .0247200
1086.082 .0247211
1086.662 .0247223
1087.242 .0247237
1087.822 .0247255
1088.402 .0247277
1088.983 .0247306
1089.563 .0247342
1090.144 .0247386
1090.725 .0247439
1091.306 .0247502
1091.887 .0247572
1092.469 .0247649
1093.050 .0247732
1093.632 .0247820
1094.214 .0247913
1094.796 .0248011
1095.379 .0248113
1095.961 .0248221
1096.544 .0248334
1097.127 .0248452
1097.710 .0248574
1098.294 .0248699
1098.877 .0248826
1099.461 .0248953
1100.046 .0249080
1100.630 .0249204
1101.215 .0249326
1101.800 .0249447
1102.385 .0249567
1102.970 .0249685
1103.556 .0249804
1104.142 .0249924
1104.728 .0250044
1105.315 .0250162
1105.902 .0250280
1106.489 .0250398
1107.077 .0250515
1107.664 .0250634
1108.253 .0250754
1108.841 .0250877
1109.430 .0251005
1110.019 .0251139
1110.609 .0251282
1111.198 .0251435
1111.789 .0251601
1112.379 .0251782
1112.970 .0251978
1113.561 .0252192
1114.153 .0252424
1114.745 .0252677
1115.338 .0252952
1115.931 .0253248
1116.524 .0253566
1117.117 .0253907
1117.712 .0254271
1118.306 .0254660
1118.901 .0255072
1119.496 .0255508
1120.092 .0255968
1120.689 .0256449
1121.285 .0256952
1121.882 .0257475
1122.480 .0258020
1123.078 .0258584
1123.677 .0259168
1124.276 .0259772
1124.875 .0260397
1125.476 .0261047
1126.076 .0261724
1126.677 .0262432
1127.279 .0263171
1127.881 .0263942
1128.484 .0264741
1129.087 .0265101
1129.691 .0265934
1130.295 .0266784
1130.900 .0267650
1131.505 .0268528
1132.111 .0269418
1132.718 .0270315
1133.325 .0271211
1133.933 .0272098
1134.541 .0273044
1135.150 .0274082
1135.760 .0274887
1136.370 .0275565
1136.981 .0277320
1137.592 .0278483
1138.204 .0279584
1138.817 .0280648
1139.431 .0281656
1140.045 .0282713
1140.660 .0283601
1141.275 .0284304
1141.891 .0284799
1142.508 .0287199
1143.126 .0290536
1143.744 .0284756
1144.363 .0281992
1144.983 .0281781
