Measurement Sequence started on: 15-12-46-377
Integration time: 28
Scans to Average: 2 
>>>>>Begin Spectral Data<<<<<
432.689 .0000100
433.621 .0000100
434.552 .0000100
435.482 .0000100
436.410 .0000100
437.337 .0000100
438.262 .0269256
439.187 .0569116
440.110 .0941825
441.031 .1362278
441.952 .1093199
442.871 .1142257
443.789 .1188010
444.705 .1231145
445.621 .1272129
446.535 .1311306
447.447 .1334786
448.359 .1341175
449.269 .1326816
450.178 .1289325
451.086 .1229468
451.993 .1151924
452.898 .1064421
453.803 .0975684
454.706 .0893123
455.608 .0821335
456.508 .0761850
457.408 .0721569
458.306 .0690459
459.204 .0664984
460.100 .0643402
460.995 .0624740
461.888 .0608337
462.781 .0593755
463.673 .0580674
464.563 .0568847
465.452 .0558077
466.340 .0548213
467.228 .0539151
468.114 .0530808
468.999 .0523122
469.882 .0516038
470.765 .0509518
471.647 .0503536
472.528 .0498071
473.407 .0493094
474.286 .0488591
475.163 .0484541
476.040 .0480918
476.915 .0477701
477.790 .0474866
478.663 .0472390
479.535 .0470249
480.407 .0468421
481.277 .0466885
482.147 .0465618
483.015 .0464602
483.883 .0463816
484.749 .0463247
485.615 .0462882
486.479 .0462704
487.343 .0462697
488.206 .0462852
489.067 .0463153
489.928 .0463591
490.788 .0464160
491.647 .0464858
492.505 .0465684
493.362 .0466645
494.218 .0467747
495.073 .0469003
495.928 .0471490
496.781 .0473206
497.634 .0475125
498.486 .0477257
499.337 .0479617
500.187 .0482229
501.036 .0485119
501.884 .0488314
502.731 .0491853
503.578 .0495772
504.424 .0498591
505.268 .0503239
506.113 .0508385
506.956 .0514082
507.798 .0520406
508.640 .0527440
509.480 .0535293
510.320 .0544084
511.160 .0553940
511.998 .0564986
512.836 .0577373
513.672 .0591239
514.508 .0606736
515.344 .0624062
516.178 .0643402
517.012 .0664974
517.845 .0688994
518.677 .0715645
519.508 .0745072
520.339 .0777341
521.169 .0812438
521.998 .0850073
522.826 .0889865
523.654 .0931265
524.481 .0973569
525.307 .1016042
526.133 .1057861
526.958 .1098169
527.782 .1136182
528.605 .1171166
529.428 .1202456
530.250 .1229479
531.072 .1251865
531.892 .1269271
532.712 .1281458
533.532 .1288324
534.350 .1289809
535.168 .1285930
535.986 .1276788
536.802 .1262467
537.618 .1243097
538.434 .1218871
539.249 .1190191
540.063 .1157523
540.876 .1121490
541.689 .1082831
542.501 .1042296
543.313 .1000702
544.124 .0958877
544.934 .0917543
545.744 .0877361
546.553 .0838920
547.361 .0802675
548.169 .0768886
548.976 .0737775
549.783 .0709390
550.589 .0683658
551.395 .0660421
552.200 .0639442
553.004 .0620421
553.808 .0603109
554.611 .0587277
555.414 .0572716
556.216 .0559279
557.018 .0546837
557.819 .0535278
558.619 .0524517
559.419 .0514476
560.218 .0505080
561.017 .0496248
561.815 .0487925
562.613 .0480050
563.410 .0472562
564.207 .0465416
565.003 .0458579
565.799 .0452006
566.594 .0445677
567.388 .0439574
568.182 .0433690
568.976 .0428007
569.769 .0422517
570.562 .0417215
571.354 .0412094
572.145 .0407150
572.936 .0402380
573.727 .0397779
574.517 .0393346
575.307 .0389079
576.096 .0384969
576.885 .0381015
577.673 .0377218
578.461 .0373576
579.248 .0370094
580.035 .0366775
580.821 .0363621
581.607 .0360632
582.392 .0357812
583.177 .0355161
583.962 .0352673
584.746 .0350345
585.529 .0348171
586.313 .0346141
587.095 .0344249
587.878 .0342491
588.660 .0340860
589.441 .0339353
590.222 .0337964
591.003 .0336689
591.783 .0335519
592.563 .0334447
593.342 .0333464
594.121 .0332560
594.899 .0331727
595.678 .0330956
596.455 .0330236
597.233 .0329563
598.009 .0328930
598.786 .0328333
599.562 .0327766
600.338 .0327225
601.113 .0326707
601.888 .0326007
602.663 .0325540
603.437 .0325092
604.211 .0324663
604.984 .0324253
605.757 .0323860
606.530 .0323483
607.302 .0323121
608.074 .0322772
608.845 .0322436
609.616 .0322109
610.387 .0321968
611.158 .0321655
611.928 .0321353
612.697 .0321060
613.467 .0320780
614.236 .0320510
615.004 .0320252
615.773 .0320004
616.541 .0319765
617.308 .0319533
618.076 .0319307
618.843 .0319086
619.609 .0318868
620.375 .0318653
621.141 .0318441
621.907 .0318231
622.672 .0318022
623.437 .0317816
624.202 .0317610
624.966 .0317405
625.730 .0317198
626.493 .0316991
627.257 .0316781
628.020 .0316568
628.782 .0316352
629.545 .0316131
630.307 .0315904
631.068 .0315672
631.830 .0315433
632.591 .0315185
633.352 .0314931
634.112 .0314669
634.872 .0314400
635.632 .0314125
636.392 .0313845
637.151 .0313560
637.910 .0313272
638.668 .0312979
639.427 .0312684
640.185 .0312386
640.943 .0312086
641.700 .0311785
642.457 .0311485
643.214 .0311187
643.971 .0310892
644.727 .0310602
645.483 .0310317
646.239 .0310037
646.994 .0309762
647.750 .0309491
648.505 .0309223
649.259 .0308958
650.014 .0308694
650.768 .0308431
651.521 .0308170
652.275 .0307909
653.028 .0307648
653.781 .0307388
654.534 .0307127
655.286 .0306866
656.039 .0306604
656.791 .0306341
657.542 .0306076
658.294 .0305810
659.045 .0305542
659.796 .0305271
660.546 .0304999
661.297 .0304724
662.047 .0304447
662.796 .0304169
663.546 .0303889
664.295 .0303610
665.044 .0303331
665.793 .0303055
666.542 .0302783
667.290 .0302516
668.038 .0302254
668.786 .0301999
669.533 .0301751
670.281 .0301508
671.028 .0301272
671.774 .0301042
672.521 .0300817
673.267 .0300598
674.013 .0300385
674.759 .0300177
675.505 .0299977
676.250 .0299783
676.995 .0299595
677.740 .0299414
678.484 .0299237
679.229 .0299066
679.973 .0298899
680.717 .0298736
681.460 .0298577
682.204 .0298421
682.947 .0298268
683.690 .0298117
684.433 .0297970
685.175 .0297825
685.917 .0297682
686.659 .0297541
687.401 .0297402
688.142 .0297264
688.884 .0297128
689.625 .0296994
690.365 .0296861
691.106 .0296730
691.846 .0296598
692.586 .0296467
693.326 .0296335
694.066 .0296202
694.805 .0296068
695.545 .0295933
696.284 .0295798
697.022 .0295662
697.761 .0295527
698.499 .0295392
699.237 .0295258
699.975 .0295125
700.713 .0294993
701.450 .0294863
702.187 .0294733
702.924 .0294605
703.661 .0294479
704.397 .0294354
705.133 .0294230
705.869 .0294108
706.605 .0293988
707.341 .0293869
708.076 .0293751
708.811 .0293634
709.546 .0293518
710.281 .0293402
711.015 .0293286
711.749 .0293168
712.483 .0293049
713.217 .0292928
713.950 .0292804
714.684 .0292677
715.417 .0292546
716.150 .0292410
716.882 .0292269
717.615 .0292121
718.347 .0291967
719.079 .0291806
719.811 .0291639
720.542 .0291466
721.273 .0291286
722.005 .0291102
722.735 .0290914
723.466 .0290723
724.196 .0290530
724.927 .0290336
725.656 .0290141
726.386 .0289947
727.116 .0289753
727.845 .0289562
728.574 .0289373
729.303 .0289187
730.031 .0289005
730.760 .0288827
731.488 .0288654
732.216 .0288484
732.944 .0288319
733.671 .0288158
734.398 .0288001
735.125 .0287848
735.852 .0287700
736.579 .0287555
737.305 .0287415
738.031 .0287278
738.757 .0287143
739.483 .0287011
740.208 .0286879
740.933 .0286748
741.658 .0286616
742.383 .0286482
743.108 .0286347
743.832 .0286209
744.556 .0286067
745.280 .0285923
746.004 .0285776
746.727 .0285624
747.450 .0285469
748.173 .0285310
748.896 .0285146
749.618 .0284977
750.340 .0284805
751.062 .0284628
751.784 .0284447
752.506 .0284263
753.227 .0284077
753.948 .0283887
754.669 .0283697
755.389 .0283505
756.110 .0283312
756.830 .0283120
757.550 .0282928
758.269 .0282736
758.989 .0282545
759.708 .0282354
760.427 .0282164
761.146 .0281975
761.864 .0281785
762.582 .0281596
763.300 .0281408
764.018 .0281221
764.736 .0281035
765.453 .0280851
766.170 .0280669
766.887 .0280489
767.603 .0280312
768.320 .0280138
769.036 .0279968
769.751 .0279801
770.467 .0279639
771.182 .0279480
771.897 .0279326
772.612 .0279176
773.327 .0279031
774.041 .0278891
774.755 .0278756
775.469 .0278626
776.183 .0278502
776.896 .0278383
777.609 .0278270
778.322 .0278162
779.035 .0278060
779.747 .0277963
780.459 .0277870
781.171 .0277781
781.882 .0277696
782.594 .0277615
783.305 .0277538
784.016 .0277464
784.726 .0277393
785.436 .0277324
786.147 .0277223
786.856 .0277156
787.566 .0277089
788.275 .0277023
788.984 .0276956
789.693 .0276890
790.401 .0276823
791.110 .0276756
791.818 .0276689
792.525 .0276621
793.233 .0276553
793.940 .0276484
794.647 .0276448
795.353 .0276378
796.060 .0276308
796.766 .0276238
797.472 .0276168
798.177 .0276099
798.883 .0276030
799.588 .0275962
800.292 .0275895
800.997 .0275827
801.701 .0275759
802.405 .0275690
803.109 .0275621
803.812 .0275551
804.515 .0275481
805.218 .0275410
805.921 .0275339
806.623 .0275267
807.325 .0275193
808.027 .0275118
808.728 .0275042
809.429 .0274964
810.130 .0274885
810.831 .0274805
811.531 .0274725
812.231 .0274646
812.931 .0274567
813.630 .0274489
814.330 .0274413
815.029 .0274340
815.727 .0274269
816.426 .0274201
817.124 .0274137
817.821 .0274077
818.519 .0274021
819.216 .0273971
819.913 .0273927
820.609 .0273887
821.306 .0273853
822.002 .0273825
822.697 .0273802
823.393 .0273785
824.088 .0273775
824.783 .0273770
825.477 .0273772
826.171 .0273780
826.865 .0273792
827.559 .0273810
828.252 .0273832
828.945 .0273857
829.638 .0273885
830.330 .0273915
831.023 .0273946
831.714 .0273978
832.406 .0274010
833.097 .0274041
833.788 .0274070
834.479 .0274097
835.169 .0274121
835.859 .0274142
836.548 .0274159
837.238 .0274173
837.927 .0274182
838.615 .0274187
839.304 .0274188
839.992 .0274184
840.680 .0274174
841.367 .0274158
842.054 .0274137
842.741 .0274109
843.428 .0274074
844.114 .0274034
844.800 .0273987
845.485 .0273934
846.170 .0273875
846.855 .0273809
847.540 .0273736
848.224 .0273656
848.908 .0273568
849.592 .0273472
850.275 .0273367
850.958 .0273255
851.641 .0273136
852.323 .0273010
853.005 .0272878
853.687 .0272740
854.368 .0272597
855.049 .0272449
855.730 .0272296
856.410 .0272139
857.090 .0271977
857.769 .0271810
858.449 .0271640
859.128 .0271466
859.806 .0271289
860.485 .0271110
861.163 .0270928
861.840 .0270745
862.518 .0270560
863.195 .0270375
863.871 .0270189
864.548 .0270004
865.224 .0269819
865.899 .0269635
866.574 .0269454
867.249 .0269273
867.924 .0269095
868.598 .0268917
869.272 .0268741
869.946 .0268566
870.619 .0268391
871.292 .0268216
871.964 .0268043
872.636 .0267871
873.308 .0267700
873.979 .0267531
874.651 .0267364
875.321 .0267198
875.992 .0267034
876.662 .0266872
877.331 .0266712
878.001 .0266553
878.670 .0266397
879.338 .0266244
880.007 .0266093
880.675 .0265946
881.342 .0265803
882.009 .0265663
882.676 .0265527
883.343 .0265395
884.009 .0265267
884.675 .0265142
885.340 .0265021
886.005 .0264903
886.670 .0264788
887.334 .0264676
887.998 .0264567
888.662 .0264461
889.325 .0264357
889.988 .0264254
890.650 .0264154
891.312 .0264056
891.974 .0263959
892.636 .0263864
893.297 .0263771
893.957 .0263678
894.618 .0263585
895.278 .0263491
895.937 .0263395
896.596 .0263295
897.255 .0263191
897.914 .0263082
898.572 .0262968
899.230 .0262846
899.887 .0262717
900.544 .0262581
901.201 .0262437
901.857 .0262184
902.513 .0262016
903.168 .0261840
903.823 .0261655
904.478 .0261463
905.132 .0261263
905.786 .0261057
906.440 .0260845
907.093 .0260627
907.746 .0260403
908.399 .0260176
909.051 .0259944
909.703 .0259709
910.354 .0259585
911.005 .0259351
911.656 .0259115
912.306 .0258880
912.956 .0258646
913.605 .0258413
914.254 .0258183
914.903 .0257955
915.551 .0257730
916.199 .0257507
916.847 .0257288
917.494 .0257071
918.141 .0256858
918.788 .0256649
919.434 .0256443
920.079 .0256241
920.725 .0256042
921.370 .0255847
922.014 .0255656
922.658 .0255467
923.302 .0255280
923.946 .0255096
924.589 .0254913
925.231 .0254732
925.873 .0254553
926.515 .0254375
927.157 .0254198
927.798 .0254022
928.439 .0253848
929.079 .0253676
929.719 .0253506
930.359 .0253339
930.998 .0253174
931.637 .0253013
932.275 .0252855
932.913 .0252702
933.551 .0252552
934.188 .0252406
934.825 .0252266
935.462 .0252132
936.098 .0252004
936.733 .0251883
937.369 .0251770
938.004 .0251664
938.638 .0251566
939.273 .0251475
939.907 .0251390
940.540 .0251311
941.173 .0251238
941.806 .0251171
942.438 .0251109
943.070 .0251052
943.702 .0251002
944.333 .0250957
944.964 .0250917
945.594 .0250882
946.224 .0250851
946.854 .0250821
947.483 .0250794
948.112 .0250767
948.741 .0250741
949.369 .0250716
949.996 .0250694
950.624 .0250673
951.251 .0250655
951.878 .0250639
952.504 .0250625
953.130 .0250612
953.755 .0250599
954.380 .0250588
955.005 .0250576
955.629 .0250565
956.253 .0250556
956.877 .0250549
957.500 .0250544
958.123 .0250543
958.746 .0250545
959.368 .0250550
959.990 .0250558
960.611 .0250568
961.232 .0250579
961.853 .0250593
962.473 .0250609
963.093 .0250628
963.712 .0250651
964.331 .0250677
964.950 .0250708
965.569 .0250742
966.187 .0250779
966.804 .0250818
967.422 .0250857
968.039 .0250897
968.655 .0250936
969.272 .0250974
969.887 .0251011
970.503 .0251048
971.118 .0251083
971.733 .0251117
972.347 .0251151
972.961 .0251184
973.575 .0251215
974.188 .0251245
974.801 .0251273
975.414 .0251299
976.026 .0251322
976.638 .0251344
977.250 .0251364
977.861 .0251382
978.472 .0251398
979.083 .0251413
979.693 .0251427
980.303 .0251439
980.912 .0251449
981.521 .0251455
982.130 .0251459
982.738 .0251459
983.346 .0251458
983.954 .0251456
984.562 .0251453
985.169 .0251453
985.775 .0251454
986.382 .0251458
986.988 .0251465
987.594 .0251476
988.199 .0251491
988.804 .0251509
989.409 .0251528
990.013 .0251552
990.617 .0251581
991.221 .0251613
991.824 .0251650
992.427 .0251691
993.030 .0251736
993.632 .0251785
994.234 .0251837
994.836 .0251891
995.438 .0251946
996.039 .0252002
996.640 .0252059
997.240 .0252117
997.840 .0252175
998.440 .0252235
999.040 .0252298
999.639 .0252363
1000.238 .0252431
1000.836 .0252502
1001.435 .0252577
1002.033 .0252654
1002.630 .0252734
1003.228 .0252817
1003.825 .0252900
1004.422 .0252985
1005.018 .0253070
1005.614 .0253155
1006.210 .0253239
1006.806 .0253321
1007.401 .0253401
1007.996 .0253478
1008.591 .0253552
1009.186 .0253623
1009.780 .0253692
1010.374 .0253757
1010.967 .0253819
1011.561 .0253880
1012.154 .0253939
1012.746 .0253998
1013.339 .0254056
1013.931 .0254114
1014.523 .0254172
1015.115 .0254232
1015.706 .0254293
1016.298 .0254355
1016.888 .0254418
1017.479 .0254484
1018.069 .0254551
1018.660 .0254620
1019.250 .0254690
1019.839 .0254760
1020.429 .0254831
1021.018 .0254902
1021.607 .0254973
1022.195 .0255044
1022.784 .0255115
1023.372 .0255187
1023.960 .0255259
1024.547 .0255332
1025.135 .0255406
1025.722 .0255480
1026.309 .0255555
1026.896 .0255630
1027.483 .0255706
1028.069 .0255781
1028.655 .0255856
1029.241 .0255930
1029.827 .0256003
1030.412 .0256074
1030.997 .0256143
1031.582 .0256210
1032.167 .0256274
1032.752 .0256335
1033.336 .0256394
1033.921 .0256449
1034.505 .0256500
1035.089 .0256548
1035.672 .0256590
1036.256 .0256627
1036.839 .0256659
1037.422 .0256686
1038.005 .0256707
1038.588 .0256724
1039.171 .0256737
1039.753 .0256748
1040.335 .0256756
1040.918 .0256762
1041.500 .0256767
1042.081 .0256770
1042.663 .0256771
1043.244 .0256768
1043.826 .0256762
1044.407 .0256753
1044.988 .0256740
1045.569 .0256725
1046.150 .0256707
1046.730 .0256688
1047.311 .0256668
1047.891 .0256647
1048.471 .0256625
1049.052 .0256599
1049.632 .0256570
1050.211 .0256536
1050.791 .0256497
1051.371 .0256451
1051.950 .0256400
1052.530 .0256343
1053.109 .0256282
1053.688 .0256215
1054.268 .0256144
1054.847 .0256067
1055.426 .0255984
1056.005 .0255894
1056.583 .0255795
1057.162 .0255688
1057.741 .0255572
1058.319 .0255448
1058.898 .0255318
1059.476 .0255183
1060.055 .0255045
1060.633 .0254906
1061.211 .0254766
1061.790 .0254626
1062.368 .0254488
1062.946 .0254350
1063.524 .0254214
1064.102 .0254079
1064.680 .0253947
1065.258 .0253818
1065.836 .0253691
1066.414 .0253568
1066.992 .0253448
1067.570 .0253330
1068.148 .0253214
1068.726 .0253097
1069.304 .0252979
1069.882 .0252859
1070.460 .0252736
1071.038 .0252612
1071.616 .0252486
1072.194 .0252360
1072.772 .0252236
1073.350 .0252113
1073.928 .0251994
1074.506 .0251877
1075.084 .0251763
1075.662 .0251651
1076.240 .0251542
1076.819 .0251436
1077.397 .0251333
1077.976 .0251235
1078.554 .0251144
1079.133 .0251059
1079.711 .0250982
1080.290 .0250912
1080.869 .0250850
1081.448 .0250793
1082.027 .0250741
1082.606 .0250693
1083.185 .0250649
1083.764 .0250610
1084.343 .0250576
1084.923 .0250548
1085.502 .0250529
1086.082 .0250520
1086.662 .0250521
1087.242 .0250532
1087.822 .0250555
1088.402 .0250588
1088.983 .0250628
1089.563 .0250677
1090.144 .0250732
1090.725 .0250794
1091.306 .0250864
1091.887 .0250942
1092.469 .0251028
1093.050 .0251122
1093.632 .0251224
1094.214 .0251333
1094.796 .0251445
1095.379 .0251560
1095.961 .0251676
1096.544 .0251792
1097.127 .0251908
1097.710 .0252024
1098.294 .0252143
1098.877 .0252266
1099.461 .0252393
1100.046 .0252524
1100.630 .0252660
1101.215 .0252799
1101.800 .0252938
1102.385 .0253076
1102.970 .0253213
1103.556 .0253346
1104.142 .0253475
1104.728 .0253602
1105.315 .0253728
1105.902 .0253855
1106.489 .0253986
1107.077 .0254124
1107.664 .0254269
1108.253 .0254424
1108.841 .0254587
1109.430 .0254760
1110.019 .0254941
1110.609 .0255130
1111.198 .0255325
1111.789 .0255529
1112.379 .0255742
1112.970 .0255965
1113.561 .0256200
1114.153 .0256447
1114.745 .0256708
1115.338 .0256981
1115.931 .0257263
1116.524 .0257556
1117.117 .0257856
1117.712 .0258163
1118.306 .0258478
1118.901 .0258799
1119.496 .0259130
1120.092 .0259473
1120.689 .0259829
1121.285 .0260202
1121.882 .0260592
1122.480 .0261000
1123.078 .0261424
1123.677 .0261866
1124.276 .0262322
1124.875 .0262794
1125.476 .0263283
1126.076 .0263788
1126.677 .0264310
1127.279 .0264849
1127.881 .0265407
1128.484 .0265984
1129.087 .0266241
1129.691 .0266841
1130.295 .0267456
1130.900 .0268083
1131.505 .0268724
1132.111 .0269379
1132.718 .0270050
1133.325 .0270736
1133.933 .0271438
1134.541 .0272226
1135.150 .0273012
1135.760 .0273754
1136.370 .0274457
1136.981 .0275095
1137.592 .0276018
1138.204 .0276909
1138.817 .0277797
1139.431 .0278773
1140.045 .0279787
1140.660 .0280804
1141.275 .0281779
1141.891 .0282800
1142.508 .0285651
1143.126 .0286042
1143.744 .0285178
1144.363 .0284392
1144.983 .0287584
