Measurement Sequence started on: 15-12-46-377
Integration time: 28
Scans to Average: 2 
>>>>>Begin Spectral Data<<<<<
432.689 .0000100
433.621 .0000100
434.552 .0000100
435.482 .0000100
436.410 .0000100
437.337 .0000100
438.262 .0288725
439.187 .0612294
440.110 .1013947
441.031 .1468030
441.952 .1182982
442.871 .1236176
443.789 .1285616
444.705 .1332016
445.621 .1375882
446.535 .1417613
447.447 .1442347
448.359 .1448513
449.269 .1432225
450.178 .1390897
451.086 .1325356
451.993 .1240609
452.898 .1144967
453.803 .1047832
454.706 .0957238
455.608 .0878181
456.508 .0812363
457.408 .0767260
458.306 .0732237
459.204 .0703472
460.100 .0679149
460.995 .0658217
461.888 .0639980
462.781 .0623946
463.673 .0609739
464.563 .0597044
465.452 .0585624
466.340 .0575281
467.228 .0565874
468.114 .0557293
468.999 .0549474
469.882 .0542337
470.765 .0535824
471.647 .0529882
472.528 .0524467
473.407 .0519532
474.286 .0515049
475.163 .0510984
476.040 .0507317
476.915 .0504035
477.790 .0501125
478.663 .0498581
479.535 .0496402
480.407 .0494579
481.277 .0493098
482.147 .0491936
483.015 .0491064
483.883 .0490455
484.749 .0490085
485.615 .0489931
486.479 .0489979
487.343 .0490221
488.206 .0490653
489.067 .0491272
489.928 .0492081
490.788 .0493076
491.647 .0494253
492.505 .0495603
493.362 .0497117
494.218 .0498784
495.073 .0500600
495.928 .0503873
496.781 .0506097
497.634 .0508499
498.486 .0511089
499.337 .0513890
500.187 .0516920
501.036 .0520199
501.884 .0523749
502.731 .0527607
503.578 .0531805
504.424 .0534644
505.268 .0539519
506.113 .0544862
506.956 .0550723
507.798 .0557175
508.640 .0564296
509.480 .0572181
510.320 .0580936
511.160 .0590681
511.998 .0601565
512.836 .0613759
513.672 .0627448
514.508 .0642836
515.344 .0660165
516.178 .0679681
517.012 .0701644
517.845 .0726295
518.677 .0753848
519.508 .0784508
520.339 .0818382
521.169 .0855506
521.998 .0895673
522.826 .0938548
523.654 .0983602
524.481 .1030152
525.307 .1077401
526.133 .1124424
526.958 .1170250
527.782 .1213920
528.605 .1254526
529.428 .1291254
530.250 .1323382
531.072 .1350386
531.892 .1371845
532.712 .1387465
533.532 .1397034
534.350 .1400450
535.168 .1397730
535.986 .1388955
536.802 .1374189
537.618 .1353553
538.434 .1327238
539.249 .1295634
540.063 .1259241
540.876 .1218706
541.689 .1174815
542.501 .1128444
543.313 .1080537
544.124 .1032058
544.934 .0983941
545.744 .0937047
546.553 .0892108
547.361 .0849727
548.169 .0810290
548.976 .0774051
549.783 .0741089
550.589 .0711383
551.395 .0684778
552.200 .0661012
553.004 .0639772
553.808 .0620761
554.611 .0603716
555.414 .0588369
556.216 .0574485
557.018 .0561847
557.819 .0550290
558.619 .0539655
559.419 .0529796
560.218 .0520616
561.017 .0512030
561.815 .0503959
562.613 .0496330
563.410 .0489080
564.207 .0482149
565.003 .0475487
565.799 .0469049
566.594 .0462800
567.388 .0456724
568.182 .0450804
568.976 .0445032
569.769 .0439410
570.562 .0433944
571.354 .0428640
572.145 .0423504
572.936 .0418545
573.727 .0413763
574.517 .0409159
575.307 .0404737
576.096 .0400498
576.885 .0396445
577.673 .0392577
578.461 .0388893
579.248 .0385396
580.035 .0382081
580.821 .0378946
581.607 .0375987
582.392 .0373203
583.177 .0370590
583.962 .0368141
584.746 .0365854
585.529 .0363726
586.313 .0361747
587.095 .0359913
587.878 .0358216
588.660 .0356649
589.441 .0355203
590.222 .0353869
591.003 .0352638
591.783 .0351501
592.563 .0350448
593.342 .0349469
594.121 .0348556
594.899 .0347702
595.678 .0346900
596.455 .0346142
597.233 .0345425
598.009 .0344741
598.786 .0344085
599.562 .0343453
600.338 .0342841
601.113 .0342245
601.888 .0341402
602.663 .0340839
603.437 .0340290
604.211 .0339755
604.984 .0339236
605.757 .0338733
606.530 .0338245
607.302 .0337774
608.074 .0337318
608.845 .0336877
609.616 .0336451
610.387 .0336272
611.158 .0335867
611.928 .0335476
612.697 .0335101
613.467 .0334741
614.236 .0334396
615.004 .0334065
615.773 .0333746
616.541 .0333437
617.308 .0333139
618.076 .0332848
618.843 .0332564
619.609 .0332286
620.375 .0332012
621.141 .0331743
621.907 .0331475
622.672 .0331209
623.437 .0330942
624.202 .0330674
624.966 .0330403
625.730 .0330128
626.493 .0329850
627.257 .0329567
628.020 .0329281
628.782 .0328991
629.545 .0328697
630.307 .0328398
631.068 .0328096
631.830 .0327788
632.591 .0327476
633.352 .0327160
634.112 .0326841
634.872 .0326521
635.632 .0326200
636.392 .0325881
637.151 .0325565
637.910 .0325252
638.668 .0324942
639.427 .0324636
640.185 .0324334
640.943 .0324036
641.700 .0323743
642.457 .0323454
643.214 .0323171
643.971 .0322895
644.727 .0322626
645.483 .0322364
646.239 .0322108
646.994 .0321859
647.750 .0321614
648.505 .0321372
649.259 .0321133
650.014 .0320895
650.768 .0320658
651.521 .0320422
652.275 .0320188
653.028 .0319954
653.781 .0319720
654.534 .0319487
655.286 .0319254
656.039 .0319020
656.791 .0318786
657.542 .0318552
658.294 .0318316
659.045 .0318079
659.796 .0317841
660.546 .0317601
661.297 .0317358
662.047 .0317112
662.796 .0316863
663.546 .0316611
664.295 .0316356
665.044 .0316100
665.793 .0315842
666.542 .0315585
667.290 .0315329
668.038 .0315075
668.786 .0314823
669.533 .0314574
670.281 .0314326
671.028 .0314082
671.774 .0313840
672.521 .0313601
673.267 .0313366
674.013 .0313134
674.759 .0312908
675.505 .0312687
676.250 .0312471
676.995 .0312261
677.740 .0312057
678.484 .0311858
679.229 .0311663
679.973 .0311473
680.717 .0311286
681.460 .0311101
682.204 .0310919
682.947 .0310737
683.690 .0310556
684.433 .0310375
685.175 .0310194
685.917 .0310013
686.659 .0309831
687.401 .0309648
688.142 .0309463
688.884 .0309275
689.625 .0309085
690.365 .0308890
691.106 .0308691
691.846 .0308487
692.586 .0308277
693.326 .0308063
694.066 .0307844
694.805 .0307621
695.545 .0307396
696.284 .0307170
697.022 .0306942
697.761 .0306713
698.499 .0306483
699.237 .0306251
699.975 .0306019
700.713 .0305785
701.450 .0305551
702.187 .0305316
702.924 .0305082
703.661 .0304849
704.397 .0304618
705.133 .0304389
705.869 .0304163
706.605 .0303940
707.341 .0303720
708.076 .0303502
708.811 .0303287
709.546 .0303074
710.281 .0302863
711.015 .0302654
711.749 .0302448
712.483 .0302243
713.217 .0302041
713.950 .0301841
714.684 .0301644
715.417 .0301448
716.150 .0301254
716.882 .0301062
717.615 .0300872
718.347 .0300683
719.079 .0300494
719.811 .0300306
720.542 .0300118
721.273 .0299931
722.005 .0299743
722.735 .0299556
723.466 .0299370
724.196 .0299184
724.927 .0298999
725.656 .0298816
726.386 .0298636
727.116 .0298458
727.845 .0298283
728.574 .0298112
729.303 .0297944
730.031 .0297780
730.760 .0297621
731.488 .0297467
732.216 .0297319
732.944 .0297177
733.671 .0297041
734.398 .0296912
735.125 .0296790
735.852 .0296675
736.579 .0296567
737.305 .0296465
738.031 .0296369
738.757 .0296280
739.483 .0296195
740.208 .0296115
740.933 .0296040
741.658 .0295969
742.383 .0295901
743.108 .0295835
743.832 .0295770
744.556 .0295705
745.280 .0295639
746.004 .0295571
746.727 .0295500
747.450 .0295425
748.173 .0295346
748.896 .0295263
749.618 .0295174
750.340 .0295080
751.062 .0294980
751.784 .0294874
752.506 .0294760
753.227 .0294639
753.948 .0294511
754.669 .0294375
755.389 .0294232
756.110 .0294082
756.830 .0293926
757.550 .0293765
758.269 .0293598
758.989 .0293427
759.708 .0293253
760.427 .0293074
761.146 .0292893
761.864 .0292709
762.582 .0292524
763.300 .0292337
764.018 .0292149
764.736 .0291962
765.453 .0291774
766.170 .0291587
766.887 .0291400
767.603 .0291213
768.320 .0291028
769.036 .0290845
769.751 .0290663
770.467 .0290484
771.182 .0290307
771.897 .0290133
772.612 .0289962
773.327 .0289793
774.041 .0289626
774.755 .0289461
775.469 .0289297
776.183 .0289136
776.896 .0288977
777.609 .0288821
778.322 .0288668
779.035 .0288519
779.747 .0288373
780.459 .0288230
781.171 .0288090
781.882 .0287951
782.594 .0287815
783.305 .0287680
784.016 .0287546
784.726 .0287414
785.436 .0287284
786.147 .0287095
786.856 .0286968
787.566 .0286844
788.275 .0286720
788.984 .0286597
789.693 .0286474
790.401 .0286350
791.110 .0286225
791.818 .0286099
792.525 .0285970
793.233 .0285839
793.940 .0285706
794.647 .0285630
795.353 .0285493
796.060 .0285353
796.766 .0285211
797.472 .0285066
798.177 .0284919
798.883 .0284769
799.588 .0284616
800.292 .0284462
800.997 .0284305
801.701 .0284147
802.405 .0283987
803.109 .0283827
803.812 .0283665
804.515 .0283502
805.218 .0283338
805.921 .0283173
806.623 .0283007
807.325 .0282840
808.027 .0282673
808.728 .0282506
809.429 .0282339
810.130 .0282174
810.831 .0282010
811.531 .0281848
812.231 .0281688
812.931 .0281530
813.630 .0281375
814.330 .0281224
815.029 .0281077
815.727 .0280935
816.426 .0280798
817.124 .0280669
817.821 .0280546
818.519 .0280431
819.216 .0280324
819.913 .0280226
820.609 .0280135
821.306 .0280054
822.002 .0279981
822.697 .0279917
823.393 .0279861
824.088 .0279814
824.783 .0279775
825.477 .0279744
826.171 .0279719
826.865 .0279702
827.559 .0279691
828.252 .0279686
828.945 .0279687
829.638 .0279693
830.330 .0279704
831.023 .0279719
831.714 .0279737
832.406 .0279757
833.097 .0279779
833.788 .0279800
834.479 .0279820
835.169 .0279840
835.859 .0279858
836.548 .0279874
837.238 .0279889
837.927 .0279902
838.615 .0279913
839.304 .0279920
839.992 .0279924
840.680 .0279924
841.367 .0279919
842.054 .0279910
842.741 .0279897
843.428 .0279878
844.114 .0279855
844.800 .0279827
845.485 .0279794
846.170 .0279755
846.855 .0279710
847.540 .0279658
848.224 .0279599
848.908 .0279533
849.592 .0279458
850.275 .0279376
850.958 .0279285
851.641 .0279187
852.323 .0279080
853.005 .0278964
853.687 .0278840
854.368 .0278708
855.049 .0278567
855.730 .0278419
856.410 .0278263
857.090 .0278101
857.769 .0277933
858.449 .0277760
859.128 .0277583
859.806 .0277403
860.485 .0277220
861.163 .0277036
861.840 .0276851
862.518 .0276667
863.195 .0276485
863.871 .0276305
864.548 .0276127
865.224 .0275952
865.899 .0275780
866.574 .0275611
867.249 .0275446
867.924 .0275284
868.598 .0275125
869.272 .0274970
869.946 .0274818
870.619 .0274669
871.292 .0274522
871.964 .0274376
872.636 .0274231
873.308 .0274086
873.979 .0273942
874.651 .0273798
875.321 .0273654
875.992 .0273510
876.662 .0273367
877.331 .0273224
878.001 .0273081
878.670 .0272937
879.338 .0272791
880.007 .0272645
880.675 .0272496
881.342 .0272347
882.009 .0272197
882.676 .0272047
883.343 .0271897
884.009 .0271750
884.675 .0271604
885.340 .0271460
886.005 .0271318
886.670 .0271179
887.334 .0271042
887.998 .0270906
888.662 .0270773
889.325 .0270642
889.988 .0270513
890.650 .0270387
891.312 .0270263
891.974 .0270142
892.636 .0270023
893.297 .0269905
893.957 .0269789
894.618 .0269672
895.278 .0269555
895.937 .0269436
896.596 .0269315
897.255 .0269191
897.914 .0269064
898.572 .0268933
899.230 .0268798
899.887 .0268658
900.544 .0268513
901.201 .0268364
901.857 .0268117
902.513 .0267955
903.168 .0267789
903.823 .0267618
904.478 .0267442
905.132 .0267262
905.786 .0267078
906.440 .0266889
907.093 .0266696
907.746 .0266501
908.399 .0266302
909.051 .0266102
909.703 .0265901
910.354 .0265800
911.005 .0265601
911.656 .0265402
912.306 .0265204
912.956 .0265006
913.605 .0264810
914.254 .0264616
914.903 .0264424
915.551 .0264235
916.199 .0264048
916.847 .0263864
917.494 .0263683
918.141 .0263505
918.788 .0263329
919.434 .0263156
920.079 .0262985
920.725 .0262816
921.370 .0262648
922.014 .0262482
922.658 .0262317
923.302 .0262154
923.946 .0261992
924.589 .0261832
925.231 .0261673
925.873 .0261516
926.515 .0261360
927.157 .0261207
927.798 .0261056
928.439 .0260908
929.079 .0260763
929.719 .0260622
930.359 .0260485
930.998 .0260352
931.637 .0260225
932.275 .0260103
932.913 .0259986
933.551 .0259876
934.188 .0259772
934.825 .0259676
935.462 .0259586
936.098 .0259505
936.733 .0259432
937.369 .0259367
938.004 .0259310
938.638 .0259261
939.273 .0259220
939.907 .0259187
940.540 .0259163
941.173 .0259146
941.806 .0259138
942.438 .0259137
943.070 .0259143
943.702 .0259157
944.333 .0259177
944.964 .0259202
945.594 .0259233
946.224 .0259267
946.854 .0259305
947.483 .0259346
948.112 .0259389
948.741 .0259434
949.369 .0259481
949.996 .0259529
950.624 .0259578
951.251 .0259628
951.878 .0259678
952.504 .0259728
953.130 .0259776
953.755 .0259824
954.380 .0259870
955.005 .0259914
955.629 .0259958
956.253 .0260001
956.877 .0260043
957.500 .0260085
958.123 .0260126
958.746 .0260166
959.368 .0260206
959.990 .0260244
960.611 .0260281
961.232 .0260315
961.853 .0260347
962.473 .0260375
963.093 .0260400
963.712 .0260422
964.331 .0260440
964.950 .0260454
965.569 .0260465
966.187 .0260472
966.804 .0260475
967.422 .0260472
968.039 .0260464
968.655 .0260450
969.272 .0260431
969.887 .0260406
970.503 .0260375
971.118 .0260340
971.733 .0260300
972.347 .0260255
972.961 .0260206
973.575 .0260153
974.188 .0260094
974.801 .0260031
975.414 .0259963
976.026 .0259891
976.638 .0259814
977.250 .0259732
977.861 .0259646
978.472 .0259556
979.083 .0259461
979.693 .0259363
980.303 .0259261
980.912 .0259093
981.521 .0258980
982.130 .0258864
982.738 .0258744
983.346 .0258622
983.954 .0258498
984.562 .0258372
985.169 .0258246
985.775 .0258119
986.382 .0257993
986.988 .0257867
987.594 .0257742
988.199 .0257617
988.804 .0257494
989.409 .0257434
990.013 .0257313
990.617 .0257194
991.221 .0257076
991.824 .0256959
992.427 .0256843
993.030 .0256727
993.632 .0256610
994.234 .0256493
994.836 .0256375
995.438 .0256255
996.039 .0256136
996.640 .0256016
997.240 .0255898
997.840 .0255782
998.440 .0255668
999.040 .0255557
999.639 .0255449
1000.238 .0255345
1000.836 .0255244
1001.435 .0255145
1002.033 .0255048
1002.630 .0254954
1003.228 .0254861
1003.825 .0254771
1004.422 .0254682
1005.018 .0254595
1005.614 .0254509
1006.210 .0254424
1006.806 .0254340
1007.401 .0254256
1007.996 .0254172
1008.591 .0254088
1009.186 .0254002
1009.780 .0253916
1010.374 .0253830
1010.967 .0253743
1011.561 .0253657
1012.154 .0253573
1012.746 .0253490
1013.339 .0253409
1013.931 .0253330
1014.523 .0253253
1015.115 .0253177
1015.706 .0253102
1016.298 .0253028
1016.888 .0252955
1017.479 .0252882
1018.069 .0252811
1018.660 .0252741
1019.250 .0252674
1019.839 .0252608
1020.429 .0252544
1021.018 .0252482
1021.607 .0252422
1022.195 .0252363
1022.784 .0252305
1023.372 .0252247
1023.960 .0252190
1024.547 .0252134
1025.135 .0252080
1025.722 .0252027
1026.309 .0251976
1026.896 .0251928
1027.483 .0251881
1028.069 .0251836
1028.655 .0251793
1029.241 .0251750
1029.827 .0251708
1030.412 .0251665
1030.997 .0251623
1031.582 .0251581
1032.167 .0251538
1032.752 .0251496
1033.336 .0251454
1033.921 .0251412
1034.505 .0251369
1035.089 .0251324
1035.672 .0251277
1036.256 .0251227
1036.839 .0251175
1037.422 .0251119
1038.005 .0251060
1038.588 .0250999
1039.171 .0250935
1039.753 .0250871
1040.335 .0250805
1040.918 .0250738
1041.500 .0250672
1042.081 .0250607
1042.663 .0250542
1043.244 .0250478
1043.826 .0250416
1044.407 .0250357
1044.988 .0250300
1045.569 .0250248
1046.150 .0250198
1046.730 .0250153
1047.311 .0250112
1047.891 .0250074
1048.471 .0250041
1049.052 .0250012
1049.632 .0249986
1050.211 .0249963
1050.791 .0249942
1051.371 .0249924
1051.950 .0249907
1052.530 .0249891
1053.109 .0249876
1053.688 .0249861
1054.268 .0249846
1054.847 .0249832
1055.426 .0249819
1056.005 .0249808
1056.583 .0249798
1057.162 .0249788
1057.741 .0249779
1058.319 .0249769
1058.898 .0249757
1059.476 .0249742
1060.055 .0249725
1060.633 .0249705
1061.211 .0249683
1061.790 .0249661
1062.368 .0249639
1062.946 .0249619
1063.524 .0249601
1064.102 .0249585
1064.680 .0249572
1065.258 .0249561
1065.836 .0249553
1066.414 .0249547
1066.992 .0249545
1067.570 .0249549
1068.148 .0249559
1068.726 .0249578
1069.304 .0249607
1069.882 .0249646
1070.460 .0249697
1071.038 .0249760
1071.616 .0249833
1072.194 .0249915
1072.772 .0250007
1073.350 .0250107
1073.928 .0250214
1074.506 .0250329
1075.084 .0250450
1075.662 .0250577
1076.240 .0250710
1076.819 .0250847
1077.397 .0250988
1077.976 .0251130
1078.554 .0251273
1079.133 .0251416
1079.711 .0251557
1080.290 .0251697
1080.869 .0251835
1081.448 .0251971
1082.027 .0252106
1082.606 .0252240
1083.185 .0252372
1083.764 .0252503
1084.343 .0252632
1084.923 .0252761
1085.502 .0252888
1086.082 .0253017
1086.662 .0253146
1087.242 .0253279
1087.822 .0253415
1088.402 .0253555
1088.983 .0253699
1089.563 .0253847
1090.144 .0254000
1090.725 .0254156
1091.306 .0254317
1091.887 .0254485
1092.469 .0254659
1093.050 .0254842
1093.632 .0255034
1094.214 .0255236
1094.796 .0255448
1095.379 .0255667
1095.961 .0255893
1096.544 .0256123
1097.127 .0256356
1097.710 .0256592
1098.294 .0256830
1098.877 .0257073
1099.461 .0257322
1100.046 .0257578
1100.630 .0257843
1101.215 .0258116
1101.800 .0258398
1102.385 .0258687
1102.970 .0258980
1103.556 .0259278
1104.142 .0259579
1104.728 .0259885
1105.315 .0260196
1105.902 .0260515
1106.489 .0260845
1107.077 .0261190
1107.664 .0261552
1108.253 .0261933
1108.841 .0262335
1109.430 .0262759
1110.019 .0263204
1110.609 .0263672
1111.198 .0264162
1111.789 .0264673
1112.379 .0265206
1112.970 .0265760
1113.561 .0266331
1114.153 .0266918
1114.745 .0267521
1115.338 .0268136
1115.931 .0268760
1116.524 .0269392
1117.117 .0270027
1117.712 .0270664
1118.306 .0271299
1118.901 .0271929
1119.496 .0272551
1120.092 .0273163
1120.689 .0273760
1121.285 .0274340
1121.882 .0274905
1122.480 .0275457
1123.078 .0276001
1123.677 .0276542
1124.276 .0277084
1124.875 .0277635
1125.476 .0278196
1126.076 .0278770
1126.677 .0279357
1127.279 .0279956
1127.881 .0280566
1128.484 .0281191
1129.087 .0281442
1129.691 .0282074
1130.295 .0282734
1130.900 .0283433
1131.505 .0284179
1132.111 .0284981
1132.718 .0285839
1133.325 .0286762
1133.933 .0287755
1134.541 .0288812
1135.150 .0289932
1135.760 .0290974
1136.370 .0292330
1136.981 .0291334
1137.592 .0292744
1138.204 .0294328
1138.817 .0296105
1139.431 .0298042
1140.045 .0300141
1140.660 .0302229
1141.275 .0304530
1141.891 .0306932
1142.508 .0309096
1143.126 .0311276
1143.744 .0309431
1144.363 .0318448
1144.983 .0322572
