Measurement Sequence started on: 15-12-46-377
Integration time: 28
Scans to Average: 2 
>>>>>Begin Spectral Data<<<<<
432.689 .0000100
433.621 .0000100
434.552 .0000100
435.482 .0000100
436.410 .0000100
437.337 .0000100
438.262 .0256684
439.187 .0544827
440.110 .0903008
441.031 .1307385
441.952 .1700668
442.871 .2010813
443.789 .2181972
444.705 .2194848
445.621 .2072691
446.535 .1866976
447.447 .1633340
448.359 .1274365
449.269 .1096116
450.178 .0983531
451.086 .0903407
451.993 .0841282
452.898 .0791756
453.803 .0750762
454.706 .0716384
455.608 .0687156
456.508 .0661998
457.408 .0640616
458.306 .0622041
459.204 .0605592
460.100 .0590810
460.995 .0577635
461.888 .0565762
462.781 .0554927
463.673 .0545109
464.563 .0536342
465.452 .0528320
466.340 .0520794
467.228 .0513834
468.114 .0507382
468.999 .0501342
469.882 .0495720
470.765 .0490422
471.647 .0485555
472.528 .0480997
473.407 .0476878
474.286 .0473162
475.163 .0469881
476.040 .0466948
476.915 .0464263
477.790 .0461801
478.663 .0459590
479.535 .0457532
480.407 .0455710
481.277 .0454205
482.147 .0453016
483.015 .0452063
483.883 .0451418
484.749 .0450964
485.615 .0450774
486.479 .0450710
487.343 .0450771
488.206 .0450881
489.067 .0451067
489.928 .0451274
490.788 .0451508
491.647 .0451830
492.505 .0452253
493.362 .0452787
494.218 .0453546
495.073 .0454496
495.928 .0455726
496.781 .0457228
497.634 .0459079
498.486 .0461169
499.337 .0463554
500.187 .0466167
501.036 .0468973
501.884 .0472029
502.731 .0475341
503.578 .0478864
504.424 .0482715
505.268 .0486884
506.113 .0491433
506.956 .0496427
507.798 .0501908
508.640 .0507890
509.480 .0514425
510.320 .0521665
511.160 .0529733
511.998 .0538612
512.836 .0548583
513.672 .0559726
514.508 .0571941
515.344 .0585382
516.178 .0600139
517.012 .0616509
517.845 .0634758
518.677 .0655045
519.508 .0677495
520.339 .0702607
521.169 .0730963
521.998 .0762906
522.826 .0798699
523.654 .0839620
524.481 .0885474
525.307 .0936409
526.133 .0992532
526.958 .1053015
527.782 .1117385
528.605 .1184177
529.428 .1251995
530.250 .1316277
531.072 .1374603
531.892 .1423962
532.712 .1461375
533.532 .1485740
534.350 .1494984
535.168 .1488226
535.986 .1466188
536.802 .1430140
537.618 .1381718
538.434 .1323221
539.249 .1259206
540.063 .1191344
540.876 .1122815
541.689 .1055722
542.501 .0992364
543.313 .0934359
544.124 .0882180
544.934 .0835486
545.744 .0793354
546.553 .0755578
547.361 .0721507
548.169 .0690870
548.976 .0663356
549.783 .0638503
550.589 .0616237
551.395 .0596007
552.200 .0577851
553.004 .0561305
553.808 .0546302
554.611 .0532880
555.414 .0520937
556.216 .0510100
557.018 .0500435
557.819 .0491733
558.619 .0483692
559.419 .0476243
560.218 .0469239
561.017 .0462724
561.815 .0456652
562.613 .0450868
563.410 .0445335
564.207 .0440097
565.003 .0435072
565.799 .0430106
566.594 .0425281
567.388 .0420561
568.182 .0415833
568.976 .0411174
569.769 .0406591
570.562 .0402069
571.354 .0397657
572.145 .0393335
572.936 .0389075
573.727 .0384969
574.517 .0380952
575.307 .0377035
576.096 .0373252
576.885 .0369635
577.673 .0366137
578.461 .0362834
579.248 .0359714
580.035 .0356762
580.821 .0354026
581.607 .0351483
582.392 .0349069
583.177 .0346804
583.962 .0344708
584.746 .0342752
585.529 .0340933
586.313 .0339275
587.095 .0337755
587.878 .0336391
588.660 .0335178
589.441 .0334087
590.222 .0333109
591.003 .0332262
591.783 .0331493
592.563 .0330780
593.342 .0330120
594.121 .0329483
594.899 .0328846
595.678 .0328216
596.455 .0327586
597.233 .0326944
598.009 .0326297
598.786 .0325662
599.562 .0325032
600.338 .0324420
601.113 .0323825
601.888 .0323244
602.663 .0322675
603.437 .0322120
604.211 .0321571
604.984 .0321038
605.757 .0320519
606.530 .0320011
607.302 .0319519
608.074 .0319055
608.845 .0318615
609.616 .0318205
610.387 .0317827
611.158 .0317487
611.928 .0317171
612.697 .0316873
613.467 .0316587
614.236 .0316316
615.004 .0316052
615.773 .0315803
616.541 .0315567
617.308 .0315345
618.076 .0315134
618.843 .0314942
619.609 .0314764
620.375 .0314599
621.141 .0314436
621.907 .0314278
622.672 .0314113
623.437 .0313942
624.202 .0313760
624.966 .0313576
625.730 .0313388
626.493 .0313195
627.257 .0312992
628.020 .0312781
628.782 .0312561
629.545 .0312335
630.307 .0312090
631.068 .0311840
631.830 .0311585
632.591 .0311323
633.352 .0311053
634.112 .0310787
634.872 .0310520
635.632 .0310259
636.392 .0310004
637.151 .0309753
637.910 .0309503
638.668 .0309260
639.427 .0309027
640.185 .0308799
640.943 .0308580
641.700 .0308373
642.457 .0308171
643.214 .0307978
643.971 .0307787
644.727 .0307597
645.483 .0307409
646.239 .0307227
646.994 .0307041
647.750 .0306854
648.505 .0306669
649.259 .0306482
650.014 .0306298
650.768 .0306113
651.521 .0305923
652.275 .0305720
653.028 .0305509
653.781 .0305289
654.534 .0305059
655.286 .0304821
656.039 .0304581
656.791 .0304340
657.542 .0304093
658.294 .0303839
659.045 .0303575
659.796 .0303302
660.546 .0303019
661.297 .0302719
662.047 .0302413
662.796 .0302100
663.546 .0301795
664.295 .0301503
665.044 .0301229
665.793 .0300975
666.542 .0300734
667.290 .0300498
668.038 .0300259
668.786 .0300013
669.533 .0299760
670.281 .0299507
671.028 .0299260
671.774 .0299032
672.521 .0298827
673.267 .0298650
674.013 .0298506
674.759 .0298382
675.505 .0298274
676.250 .0298165
676.995 .0298045
677.740 .0297915
678.484 .0297768
679.229 .0297620
679.973 .0297469
680.717 .0297328
681.460 .0297202
682.204 .0297085
682.947 .0296980
683.690 .0296881
684.433 .0296774
685.175 .0296657
685.917 .0296524
686.659 .0296373
687.401 .0296204
688.142 .0296026
688.884 .0295839
689.625 .0295652
690.365 .0295466
691.106 .0295282
691.846 .0295096
692.586 .0294914
693.326 .0294725
694.066 .0294531
694.805 .0294337
695.545 .0294140
696.284 .0293939
697.022 .0293744
697.761 .0293551
698.499 .0293365
699.237 .0293189
699.975 .0293023
700.713 .0292865
701.450 .0292721
702.187 .0292591
702.924 .0292463
703.661 .0292345
704.397 .0292230
705.133 .0292116
705.869 .0292005
706.605 .0291891
707.341 .0291771
708.076 .0291645
708.811 .0291517
709.546 .0291379
710.281 .0291235
711.015 .0291089
711.749 .0290933
712.483 .0290772
713.217 .0290601
713.950 .0290423
714.684 .0290230
715.417 .0290032
716.150 .0289822
716.882 .0289602
717.615 .0289375
718.347 .0289143
719.079 .0288912
719.811 .0288682
720.542 .0288452
721.273 .0288219
722.005 .0287987
722.735 .0287754
723.466 .0287517
724.196 .0287281
724.927 .0287040
725.656 .0286802
726.386 .0286563
727.116 .0286326
727.845 .0286101
728.574 .0285886
729.303 .0285684
730.031 .0285495
730.760 .0285320
731.488 .0285150
732.216 .0284987
732.944 .0284831
733.671 .0284677
734.398 .0284524
735.125 .0284373
735.852 .0284227
736.579 .0284091
737.305 .0283970
738.031 .0283862
738.757 .0283766
739.483 .0283682
740.208 .0283592
740.933 .0283498
741.658 .0283393
742.383 .0283276
743.108 .0283145
743.832 .0283006
744.556 .0282867
745.280 .0282731
746.004 .0282602
746.727 .0282487
747.450 .0282378
748.173 .0282273
748.896 .0282160
749.618 .0282037
750.340 .0281900
751.062 .0281755
751.784 .0281597
752.506 .0281441
753.227 .0281290
753.948 .0281150
754.669 .0281024
755.389 .0280913
756.110 .0280811
756.830 .0280714
757.550 .0280622
758.269 .0280529
758.989 .0280430
759.708 .0280331
760.427 .0280231
761.146 .0280133
761.864 .0280039
762.582 .0279951
763.300 .0279868
764.018 .0279792
764.736 .0279720
765.453 .0279649
766.170 .0279576
766.887 .0279502
767.603 .0279424
768.320 .0279344
769.036 .0279260
769.751 .0279170
770.467 .0279076
771.182 .0278984
771.897 .0278889
772.612 .0278795
773.327 .0278704
774.041 .0278618
774.755 .0278535
775.469 .0278454
776.183 .0278375
776.896 .0278297
777.609 .0278220
778.322 .0278142
779.035 .0278061
779.747 .0277983
780.459 .0277908
781.171 .0277840
781.882 .0277782
782.594 .0277736
783.305 .0277699
784.016 .0277671
784.726 .0277649
785.436 .0277630
786.147 .0277608
786.856 .0277583
787.566 .0277549
788.275 .0277507
788.984 .0277455
789.693 .0277392
790.401 .0277319
791.110 .0277236
791.818 .0277141
792.525 .0277039
793.233 .0276926
793.940 .0276803
794.647 .0276669
795.353 .0276525
796.060 .0276373
796.766 .0276215
797.472 .0276052
798.177 .0275889
798.883 .0275724
799.588 .0275563
800.292 .0275407
800.997 .0275256
801.701 .0275110
802.405 .0274967
803.109 .0274824
803.812 .0274674
804.515 .0274514
805.218 .0274340
805.921 .0274148
806.623 .0273945
807.325 .0273727
808.027 .0273502
808.728 .0273274
809.429 .0273044
810.130 .0272816
810.831 .0272594
811.531 .0272375
812.231 .0272157
812.931 .0271936
813.630 .0271710
814.330 .0271481
815.029 .0271251
815.727 .0271028
816.426 .0270817
817.124 .0270621
817.821 .0270441
818.519 .0270278
819.216 .0270130
819.913 .0269994
820.609 .0269864
821.306 .0269736
822.002 .0269603
822.697 .0269471
823.393 .0269336
824.088 .0269208
824.783 .0269086
825.477 .0268973
826.171 .0268872
826.865 .0268783
827.559 .0268703
828.252 .0268629
828.945 .0268558
829.638 .0268487
830.330 .0268416
831.023 .0268340
831.714 .0268258
832.406 .0268177
833.097 .0268096
833.788 .0268017
834.479 .0267943
835.169 .0267882
835.859 .0267832
836.548 .0267792
837.238 .0267764
837.927 .0267739
838.615 .0267721
839.304 .0267706
839.992 .0267693
840.680 .0267684
841.367 .0267679
842.054 .0267677
842.741 .0267676
843.428 .0267683
844.114 .0267691
844.800 .0267697
845.485 .0267701
846.170 .0267698
846.855 .0267681
847.540 .0267649
848.224 .0267607
848.908 .0267553
849.592 .0267492
850.275 .0267424
850.958 .0267350
851.641 .0267278
852.323 .0267206
853.005 .0267136
853.687 .0267067
854.368 .0266998
855.049 .0266925
855.730 .0266845
856.410 .0266764
857.090 .0266678
857.769 .0266588
858.449 .0266502
859.128 .0266417
859.806 .0266338
860.485 .0266268
861.163 .0266209
861.840 .0266154
862.518 .0266103
863.195 .0266050
863.871 .0265991
864.548 .0265926
865.224 .0265853
865.899 .0265779
866.574 .0265708
867.249 .0265644
867.924 .0265589
868.598 .0265546
869.272 .0265518
869.946 .0265494
870.619 .0265473
871.292 .0265448
871.964 .0265416
872.636 .0265374
873.308 .0265320
873.979 .0265259
874.651 .0265195
875.321 .0265128
875.992 .0265066
876.662 .0265015
877.331 .0264974
878.001 .0264939
878.670 .0264909
879.338 .0264875
880.007 .0264837
880.675 .0264787
881.342 .0264727
882.009 .0264658
882.676 .0264587
883.343 .0264517
884.009 .0264451
884.675 .0264394
885.340 .0264346
886.005 .0264302
886.670 .0264261
887.334 .0264218
887.998 .0264171
888.662 .0264118
889.325 .0264063
889.988 .0264009
890.650 .0263960
891.312 .0263917
891.974 .0263881
892.636 .0263850
893.297 .0263827
893.957 .0263804
894.618 .0263779
895.278 .0263751
895.937 .0263716
896.596 .0263677
897.255 .0263629
897.914 .0263572
898.572 .0263503
899.230 .0263425
899.887 .0263335
900.544 .0263229
901.201 .0263110
901.857 .0262983
902.513 .0262847
903.168 .0262702
903.823 .0262547
904.478 .0262382
905.132 .0262203
905.786 .0262006
906.440 .0261790
907.093 .0261555
907.746 .0261300
908.399 .0261031
909.051 .0260748
909.703 .0260460
910.354 .0260165
911.005 .0259867
911.656 .0259570
912.306 .0259271
912.956 .0258969
913.605 .0258661
914.254 .0258354
914.903 .0258051
915.551 .0257751
916.199 .0257463
916.847 .0257188
917.494 .0256930
918.141 .0256689
918.788 .0256463
919.434 .0256253
920.079 .0256055
920.725 .0255857
921.370 .0255661
922.014 .0255462
922.658 .0255256
923.302 .0255044
923.946 .0254825
924.589 .0254601
925.231 .0254369
925.873 .0254129
926.515 .0253884
927.157 .0253633
927.798 .0253378
928.439 .0253113
929.079 .0252841
929.719 .0252564
930.359 .0252280
930.998 .0251994
931.637 .0251710
932.275 .0251434
932.913 .0251165
933.551 .0250910
934.188 .0250668
934.825 .0250446
935.462 .0250240
936.098 .0250049
936.733 .0249873
937.369 .0249711
938.004 .0249561
938.638 .0249423
939.273 .0249301
939.907 .0249198
940.540 .0249113
941.173 .0249045
941.806 .0248992
942.438 .0248957
943.070 .0248932
943.702 .0248915
944.333 .0248899
944.964 .0248882
945.594 .0248859
946.224 .0248828
946.854 .0248794
947.483 .0248752
948.112 .0248705
948.741 .0248655
949.369 .0248599
949.996 .0248540
950.624 .0248471
951.251 .0248396
951.878 .0248320
952.504 .0248242
953.130 .0248163
953.755 .0248087
954.380 .0248022
955.005 .0247972
955.629 .0247932
956.253 .0247907
956.877 .0247891
957.500 .0247884
958.123 .0247880
958.746 .0247872
959.368 .0247860
959.990 .0247847
960.611 .0247831
961.232 .0247818
961.853 .0247807
962.473 .0247801
963.093 .0247799
963.712 .0247803
964.331 .0247808
964.950 .0247803
965.569 .0247793
966.187 .0247780
966.804 .0247761
967.422 .0247750
968.039 .0247745
968.655 .0247755
969.272 .0247781
969.887 .0247822
970.503 .0247871
971.118 .0247925
971.733 .0247983
972.347 .0248042
972.961 .0248105
973.575 .0248173
974.188 .0248245
974.801 .0248324
975.414 .0248412
976.026 .0248501
976.638 .0248583
977.250 .0248657
977.861 .0248718
978.472 .0248767
979.083 .0248798
979.693 .0248818
980.303 .0248829
980.912 .0248840
981.521 .0248849
982.130 .0248853
982.738 .0248852
983.346 .0248843
983.954 .0248826
984.562 .0248798
985.169 .0248759
985.775 .0248713
986.382 .0248661
986.988 .0248614
987.594 .0248569
988.199 .0248529
988.804 .0248497
989.409 .0248477
990.013 .0248465
990.617 .0248460
991.221 .0248462
991.824 .0248474
992.427 .0248499
993.030 .0248537
993.632 .0248586
994.234 .0248648
994.836 .0248725
995.438 .0248811
996.039 .0248900
996.640 .0248990
997.240 .0249078
997.840 .0249171
998.440 .0249261
999.040 .0249351
999.639 .0249439
1000.238 .0249529
1000.836 .0249622
1001.435 .0249713
1002.033 .0249798
1002.630 .0249875
1003.228 .0249941
1003.825 .0249993
1004.422 .0250029
1005.018 .0250052
1005.614 .0250069
1006.210 .0250079
1006.806 .0250088
1007.401 .0250101
1007.996 .0250116
1008.591 .0250139
1009.186 .0250172
1009.780 .0250216
1010.374 .0250263
1010.967 .0250307
1011.561 .0250350
1012.154 .0250380
1012.746 .0250400
1013.339 .0250406
1013.931 .0250406
1014.523 .0250406
1015.115 .0250404
1015.706 .0250399
1016.298 .0250398
1016.888 .0250403
1017.479 .0250403
1018.069 .0250388
1018.660 .0250359
1019.250 .0250315
1019.839 .0250258
1020.429 .0250194
1021.018 .0250130
1021.607 .0250075
1022.195 .0250034
1022.784 .0250010
1023.372 .0250007
1023.960 .0250020
1024.547 .0250043
1025.135 .0250073
1025.722 .0250109
1026.309 .0250138
1026.896 .0250160
1027.483 .0250180
1028.069 .0250195
1028.655 .0250210
1029.241 .0250215
1029.827 .0250212
1030.412 .0250202
1030.997 .0250195
1031.582 .0250175
1032.167 .0250153
1032.752 .0250135
1033.336 .0250116
1033.921 .0250094
1034.505 .0250073
1035.089 .0250044
1035.672 .0250014
1036.256 .0249981
1036.839 .0249942
1037.422 .0249895
1038.005 .0249858
1038.588 .0249818
1039.171 .0249787
1039.753 .0249761
1040.335 .0249741
1040.918 .0249708
1041.500 .0249666
1042.081 .0249605
1042.663 .0249518
1043.244 .0249404
1043.826 .0249267
1044.407 .0249107
1044.988 .0248944
1045.569 .0248766
1046.150 .0248585
1046.730 .0248408
1047.311 .0248235
1047.891 .0248057
1048.471 .0247878
1049.052 .0247700
1049.632 .0247515
1050.211 .0247331
1050.791 .0247163
1051.371 .0247019
1051.950 .0246917
1052.530 .0246854
1053.109 .0246823
1053.688 .0246818
1054.268 .0246823
1054.847 .0246812
1055.426 .0246785
1056.005 .0246741
1056.583 .0246683
1057.162 .0246615
1057.741 .0246542
1058.319 .0246486
1058.898 .0246446
1059.476 .0246428
1060.055 .0246417
1060.633 .0246397
1061.211 .0246366
1061.790 .0246299
1062.368 .0246201
1062.946 .0246076
1063.524 .0245942
1064.102 .0245808
1064.680 .0245684
1065.258 .0245568
1065.836 .0245466
1066.414 .0245359
1066.992 .0245242
1067.570 .0245110
1068.148 .0244951
1068.726 .0244762
1069.304 .0244553
1069.882 .0244340
1070.460 .0244147
1071.038 .0243962
1071.616 .0243814
1072.194 .0243684
1072.772 .0243577
1073.350 .0243468
1073.928 .0243356
1074.506 .0243255
1075.084 .0243172
1075.662 .0243106
1076.240 .0243082
1076.819 .0243101
1077.397 .0243181
1077.976 .0243301
1078.554 .0243452
1079.133 .0243624
1079.711 .0243787
1080.290 .0243909
1080.869 .0243991
1081.448 .0244027
1082.027 .0244034
1082.606 .0244012
1083.185 .0244000
1083.764 .0244001
1084.343 .0244024
1084.923 .0244071
1085.502 .0244123
1086.082 .0244171
1086.662 .0244214
1087.242 .0244222
1087.822 .0244210
1088.402 .0244185
1088.983 .0244159
1089.563 .0244131
1090.144 .0244142
1090.725 .0244187
1091.306 .0244257
1091.887 .0244368
1092.469 .0244521
1093.050 .0244691
1093.632 .0244883
1094.214 .0245087
1094.796 .0245304
1095.379 .0245527
1095.961 .0245762
1096.544 .0245991
1097.127 .0246223
1097.710 .0246444
1098.294 .0246651
1098.877 .0246839
1099.461 .0247033
1100.046 .0247211
1100.630 .0247389
1101.215 .0247568
1101.800 .0247744
1102.385 .0247904
1102.970 .0248051
1103.556 .0248177
1104.142 .0248287
1104.728 .0248361
1105.315 .0248426
1105.902 .0248478
1106.489 .0248571
1107.077 .0248693
1107.664 .0248878
1108.253 .0249137
1108.841 .0249462
1109.430 .0249834
1110.019 .0250234
1110.609 .0250655
1111.198 .0251086
1111.789 .0251524
1112.379 .0251979
1112.970 .0252447
1113.561 .0252954
1114.153 .0253484
1114.745 .0254067
1115.338 .0254690
1115.931 .0255328
1116.524 .0255957
1117.117 .0256555
1117.712 .0257129
1118.306 .0257660
1118.901 .0258158
1119.496 .0258613
1120.092 .0259060
1120.689 .0259483
1121.285 .0259889
1121.882 .0260280
1122.480 .0260677
1123.078 .0261079
1123.677 .0261493
1124.276 .0261936
1124.875 .0262391
1125.476 .0262891
1126.076 .0263489
1126.677 .0264139
1127.279 .0264891
1127.881 .0265689
1128.484 .0266531
1129.087 .0267378
1129.691 .0268246
1130.295 .0269107
1130.900 .0269947
1131.505 .0270806
1132.111 .0271690
1132.718 .0272611
1133.325 .0273609
1133.933 .0274646
1134.541 .0275772
1135.150 .0277004
1135.760 .0278297
1136.370 .0279600
1136.981 .0280913
1137.592 .0282213
1138.204 .0283512
1138.817 .0284789
1139.431 .0286086
1140.045 .0287428
1140.660 .0288855
1141.275 .0290347
1141.891 .0291725
1142.508 .0294217
1143.126 .0295753
1143.744 .0297163
1144.363 .0298494
1144.983 .0295080
