Measurement Sequence started on: 15-12-46-377
Integration time: 28
Scans to Average: 2 
>>>>>Begin Spectral Data<<<<<
432.689 .0000100
433.621 .0000100
434.552 .0000100
435.482 .0000100
436.410 .0000100
437.337 .0000100
438.262 .0276560
439.187 .0586716
440.110 .0972484
441.031 .1407767
441.952 .1831107
442.871 .2165293
443.789 .2349591
444.705 .2363183
445.621 .2230834
446.535 .2007753
447.447 .1754326
448.359 .1365675
449.269 .1171971
450.178 .1049253
451.086 .0962622
451.993 .0896303
452.898 .0844111
453.803 .0802045
454.706 .0767466
455.608 .0738398
456.508 .0713358
457.408 .0691584
458.306 .0672460
459.204 .0655561
460.100 .0640401
460.995 .0626880
461.888 .0614846
462.781 .0603906
463.673 .0593886
464.563 .0584775
465.452 .0576355
466.340 .0568471
467.228 .0561127
468.114 .0554269
468.999 .0547850
469.882 .0541805
470.765 .0536112
471.647 .0530688
472.528 .0525522
473.407 .0520557
474.286 .0515813
475.163 .0511370
476.040 .0507248
476.915 .0503444
477.790 .0500073
478.663 .0497110
479.535 .0494580
480.407 .0492374
481.277 .0490495
482.147 .0488907
483.015 .0487577
483.883 .0486416
484.749 .0485457
485.615 .0484728
486.479 .0484263
487.343 .0484017
488.206 .0484113
489.067 .0484444
489.928 .0485035
490.788 .0485895
491.647 .0486989
492.505 .0488264
493.362 .0489768
494.218 .0491360
495.073 .0493101
495.928 .0494985
496.781 .0496967
497.634 .0499024
498.486 .0501340
499.337 .0503926
500.187 .0506778
501.036 .0509995
501.884 .0513650
502.731 .0517669
503.578 .0522089
504.424 .0526732
505.268 .0531479
506.113 .0536289
506.956 .0541229
507.798 .0546284
508.640 .0551617
509.480 .0557465
510.320 .0564090
511.160 .0571738
511.998 .0580623
512.836 .0590758
513.672 .0602273
514.508 .0615102
515.344 .0629232
516.178 .0644805
517.012 .0662116
517.845 .0681549
518.677 .0703820
519.508 .0729343
520.339 .0758748
521.169 .0792906
521.998 .0831932
522.826 .0876736
523.654 .0927278
524.481 .0983675
525.307 .1046067
526.133 .1114226
526.958 .1187808
527.782 .1265885
528.605 .1347209
529.428 .1430162
530.250 .1508731
531.072 .1580579
531.892 .1640822
532.712 .1685998
533.532 .1714042
534.350 .1723244
535.168 .1712334
535.986 .1683141
536.802 .1637247
537.618 .1577726
538.434 .1506956
539.249 .1430080
540.063 .1348825
540.876 .1266936
541.689 .1187344
542.501 .1111857
543.313 .1042396
544.124 .0980866
544.934 .0925912
545.744 .0877228
546.553 .0833812
547.361 .0795233
548.169 .0760746
548.976 .0729515
549.783 .0701053
550.589 .0675267
551.395 .0651816
552.200 .0630706
553.004 .0611580
553.808 .0594399
554.611 .0579167
555.414 .0565557
556.216 .0553465
557.018 .0542562
557.819 .0532552
558.619 .0523204
559.419 .0514427
560.218 .0506146
561.017 .0498171
561.815 .0490473
562.613 .0483059
563.410 .0475817
564.207 .0468702
565.003 .0461697
565.799 .0454836
566.594 .0448145
567.388 .0441789
568.182 .0435656
568.976 .0429803
569.769 .0424312
570.562 .0419171
571.354 .0414290
572.145 .0409670
572.936 .0405249
573.727 .0400996
574.517 .0396947
575.307 .0393097
576.096 .0389440
576.885 .0386019
577.673 .0382837
578.461 .0379847
579.248 .0377006
580.035 .0374313
580.821 .0371690
581.607 .0369155
582.392 .0366714
583.177 .0364383
583.962 .0362175
584.746 .0360149
585.529 .0358303
586.313 .0356658
587.095 .0355204
587.878 .0353914
588.660 .0352734
589.441 .0351637
590.222 .0350613
591.003 .0349645
591.783 .0348731
592.563 .0347876
593.342 .0347083
594.121 .0346364
594.899 .0345718
595.678 .0345136
596.455 .0344607
597.233 .0344136
598.009 .0343673
598.786 .0343200
599.562 .0342717
600.338 .0342205
601.113 .0341661
601.888 .0341098
602.663 .0340512
603.437 .0339909
604.211 .0339300
604.984 .0338699
605.757 .0338105
606.530 .0337525
607.302 .0336962
608.074 .0336406
608.845 .0335864
609.616 .0335325
610.387 .0334786
611.158 .0334260
611.928 .0333745
612.697 .0333236
613.467 .0332741
614.236 .0332262
615.004 .0331800
615.773 .0331360
616.541 .0330951
617.308 .0330568
618.076 .0330221
618.843 .0329896
619.609 .0329602
620.375 .0329319
621.141 .0329045
621.907 .0328765
622.672 .0328480
623.437 .0328180
624.202 .0327857
624.966 .0327522
625.730 .0327179
626.493 .0326837
627.257 .0326500
628.020 .0326171
628.782 .0325847
629.545 .0325518
630.307 .0325184
631.068 .0324831
631.830 .0324471
632.591 .0324093
633.352 .0323702
634.112 .0323305
634.872 .0322910
635.632 .0322522
636.392 .0322141
637.151 .0321779
637.910 .0321429
638.668 .0321092
639.427 .0320770
640.185 .0320454
640.943 .0320161
641.700 .0319897
642.457 .0319651
643.214 .0319421
643.971 .0319211
644.727 .0319018
645.483 .0318839
646.239 .0318671
646.994 .0318514
647.750 .0318359
648.505 .0318210
649.259 .0318061
650.014 .0317913
650.768 .0317772
651.521 .0317634
652.275 .0317494
653.028 .0317364
653.781 .0317230
654.534 .0317089
655.286 .0316946
656.039 .0316803
656.791 .0316653
657.542 .0316492
658.294 .0316321
659.045 .0316151
659.796 .0315977
660.546 .0315810
661.297 .0315644
662.047 .0315490
662.796 .0315342
663.546 .0315190
664.295 .0315035
665.044 .0314874
665.793 .0314697
666.542 .0314504
667.290 .0314291
668.038 .0314067
668.786 .0313825
669.533 .0313573
670.281 .0313313
671.028 .0313050
671.774 .0312778
672.521 .0312501
673.267 .0312214
674.013 .0311923
674.759 .0311619
675.505 .0311312
676.250 .0311000
676.995 .0310689
677.740 .0310384
678.484 .0310080
679.229 .0309783
679.973 .0309498
680.717 .0309217
681.460 .0308945
682.204 .0308676
682.947 .0308414
683.690 .0308153
684.433 .0307895
685.175 .0307640
685.917 .0307391
686.659 .0307145
687.401 .0306903
688.142 .0306662
688.884 .0306421
689.625 .0306175
690.365 .0305918
691.106 .0305652
691.846 .0305370
692.586 .0305075
693.326 .0304768
694.066 .0304449
694.805 .0304127
695.545 .0303796
696.284 .0303459
697.022 .0303117
697.761 .0302774
698.499 .0302429
699.237 .0302082
699.975 .0301740
700.713 .0301407
701.450 .0301086
702.187 .0300782
702.924 .0300495
703.661 .0300227
704.397 .0299979
705.133 .0299751
705.869 .0299534
706.605 .0299328
707.341 .0299138
708.076 .0298959
708.811 .0298787
709.546 .0298619
710.281 .0298453
711.015 .0298283
711.749 .0298105
712.483 .0297920
713.217 .0297721
713.950 .0297518
714.684 .0297310
715.417 .0297098
716.150 .0296892
716.882 .0296697
717.615 .0296510
718.347 .0296336
719.079 .0296172
719.811 .0296013
720.542 .0295856
721.273 .0295705
722.005 .0295553
722.735 .0295403
723.466 .0295261
724.196 .0295124
724.927 .0294995
725.656 .0294874
726.386 .0294754
727.116 .0294641
727.845 .0294532
728.574 .0294418
729.303 .0294299
730.031 .0294181
730.760 .0294061
731.488 .0293947
732.216 .0293846
732.944 .0293758
733.671 .0293688
734.398 .0293638
735.125 .0293601
735.852 .0293575
736.579 .0293565
737.305 .0293567
738.031 .0293575
738.757 .0293589
739.483 .0293602
740.208 .0293616
740.933 .0293628
741.658 .0293638
742.383 .0293640
743.108 .0293639
743.832 .0293635
744.556 .0293622
745.280 .0293608
746.004 .0293591
746.727 .0293571
747.450 .0293546
748.173 .0293515
748.896 .0293472
749.618 .0293411
750.340 .0293339
751.062 .0293257
751.784 .0293165
752.506 .0293072
753.227 .0292979
753.948 .0292890
754.669 .0292804
755.389 .0292718
756.110 .0292625
756.830 .0292522
757.550 .0292404
758.269 .0292268
758.989 .0292113
759.708 .0291947
760.427 .0291772
761.146 .0291590
761.864 .0291407
762.582 .0291223
763.300 .0291034
764.018 .0290839
764.736 .0290636
765.453 .0290427
766.170 .0290214
766.887 .0289998
767.603 .0289780
768.320 .0289563
769.036 .0289353
769.751 .0289143
770.467 .0288933
771.182 .0288724
771.897 .0288513
772.612 .0288300
773.327 .0288087
774.041 .0287881
774.755 .0287679
775.469 .0287488
776.183 .0287308
776.896 .0287135
777.609 .0286967
778.322 .0286799
779.035 .0286629
779.747 .0286453
780.459 .0286271
781.171 .0286081
781.882 .0285890
782.594 .0285706
783.305 .0285527
784.016 .0285356
784.726 .0285195
785.436 .0285042
786.147 .0284892
786.856 .0284747
787.566 .0284601
788.275 .0284453
788.984 .0284304
789.693 .0284150
790.401 .0283994
791.110 .0283834
791.818 .0283673
792.525 .0283509
793.233 .0283343
793.940 .0283173
794.647 .0282996
795.353 .0282813
796.060 .0282628
796.766 .0282435
797.472 .0282238
798.177 .0282038
798.883 .0281836
799.588 .0281633
800.292 .0281435
800.997 .0281240
801.701 .0281048
802.405 .0280857
803.109 .0280666
803.812 .0280473
804.515 .0280279
805.218 .0280078
805.921 .0279873
806.623 .0279663
807.325 .0279454
808.027 .0279246
808.728 .0279042
809.429 .0278840
810.130 .0278640
810.831 .0278438
811.531 .0278231
812.231 .0278016
812.931 .0277793
813.630 .0277563
814.330 .0277338
815.029 .0277120
815.727 .0276919
816.426 .0276740
817.124 .0276593
817.821 .0276474
818.519 .0276381
819.216 .0276306
819.913 .0276249
820.609 .0276205
821.306 .0276172
822.002 .0276149
822.697 .0276138
823.393 .0276144
824.088 .0276167
824.783 .0276204
825.477 .0276253
826.171 .0276303
826.865 .0276357
827.559 .0276410
828.252 .0276456
828.945 .0276496
829.638 .0276531
830.330 .0276570
831.023 .0276614
831.714 .0276663
832.406 .0276720
833.097 .0276783
833.788 .0276850
834.479 .0276915
835.169 .0276977
835.859 .0277042
836.548 .0277107
837.238 .0277179
837.927 .0277254
838.615 .0277334
839.304 .0277419
839.992 .0277511
840.680 .0277604
841.367 .0277697
842.054 .0277782
842.741 .0277861
843.428 .0277935
844.114 .0278002
844.800 .0278056
845.485 .0278099
846.170 .0278135
846.855 .0278158
847.540 .0278165
848.224 .0278162
848.908 .0278147
849.592 .0278128
850.275 .0278101
850.958 .0278063
851.641 .0278018
852.323 .0277966
853.005 .0277903
853.687 .0277830
854.368 .0277747
855.049 .0277658
855.730 .0277567
856.410 .0277481
857.090 .0277402
857.769 .0277331
858.449 .0277270
859.128 .0277217
859.806 .0277163
860.485 .0277108
861.163 .0277046
861.840 .0276977
862.518 .0276899
863.195 .0276809
863.871 .0276707
864.548 .0276596
865.224 .0276481
865.899 .0276357
866.574 .0276224
867.249 .0276082
867.924 .0275933
868.598 .0275780
869.272 .0275626
869.946 .0275471
870.619 .0275322
871.292 .0275187
871.964 .0275059
872.636 .0274937
873.308 .0274820
873.979 .0274709
874.651 .0274600
875.321 .0274490
875.992 .0274382
876.662 .0274278
877.331 .0274185
878.001 .0274098
878.670 .0274017
879.338 .0273944
880.007 .0273875
880.675 .0273804
881.342 .0273731
882.009 .0273650
882.676 .0273560
883.343 .0273464
884.009 .0273367
884.675 .0273269
885.340 .0273172
886.005 .0273078
886.670 .0272990
887.334 .0272910
887.998 .0272837
888.662 .0272764
889.325 .0272695
889.988 .0272624
890.650 .0272548
891.312 .0272464
891.974 .0272375
892.636 .0272283
893.297 .0272194
893.957 .0272106
894.618 .0272021
895.278 .0271934
895.937 .0271849
896.596 .0271761
897.255 .0271669
897.914 .0271564
898.572 .0271444
899.230 .0271308
899.887 .0271157
900.544 .0270987
901.201 .0270808
901.857 .0270614
902.513 .0270408
903.168 .0270187
903.823 .0269954
904.478 .0269704
905.132 .0269439
905.786 .0269162
906.440 .0268871
907.093 .0268566
907.746 .0268251
908.399 .0267925
909.051 .0267594
909.703 .0267263
910.354 .0266921
911.005 .0266575
911.656 .0266231
912.306 .0265884
912.956 .0265539
913.605 .0265193
914.254 .0264849
914.903 .0264501
915.551 .0264153
916.199 .0263804
916.847 .0263456
917.494 .0263119
918.141 .0262794
918.788 .0262483
919.434 .0262196
920.079 .0261924
920.725 .0261661
921.370 .0261411
922.014 .0261165
922.658 .0260912
923.302 .0260651
923.946 .0260382
924.589 .0260108
925.231 .0259830
925.873 .0259554
926.515 .0259279
927.157 .0259005
927.798 .0258733
928.439 .0258450
929.079 .0258156
929.719 .0257846
930.359 .0257516
930.998 .0257175
931.637 .0256828
932.275 .0256483
932.913 .0256148
933.551 .0255830
934.188 .0255537
934.825 .0255266
935.462 .0255015
936.098 .0254781
936.733 .0254562
937.369 .0254355
938.004 .0254154
938.638 .0253963
939.273 .0253787
939.907 .0253630
940.540 .0253499
941.173 .0253393
941.806 .0253314
942.438 .0253260
943.070 .0253225
943.702 .0253197
944.333 .0253173
944.964 .0253143
945.594 .0253111
946.224 .0253069
946.854 .0253031
947.483 .0252994
948.112 .0252967
948.741 .0252952
949.369 .0252950
949.996 .0252953
950.624 .0252966
951.251 .0252978
951.878 .0252985
952.504 .0252985
953.130 .0252980
953.755 .0252966
954.380 .0252954
955.005 .0252942
955.629 .0252938
956.253 .0252941
956.877 .0252957
957.500 .0252978
958.123 .0253011
958.746 .0253046
959.368 .0253080
959.990 .0253111
960.611 .0253138
961.232 .0253160
961.853 .0253182
962.473 .0253209
963.093 .0253239
963.712 .0253272
964.331 .0253308
964.950 .0253342
965.569 .0253377
966.187 .0253414
966.804 .0253452
967.422 .0253496
968.039 .0253553
968.655 .0253617
969.272 .0253689
969.887 .0253776
970.503 .0253867
971.118 .0253963
971.733 .0254060
972.347 .0254150
972.961 .0254234
973.575 .0254315
974.188 .0254392
974.801 .0254465
975.414 .0254539
976.026 .0254614
976.638 .0254677
977.250 .0254740
977.861 .0254794
978.472 .0254837
979.083 .0254871
979.693 .0254895
980.303 .0254905
980.912 .0254910
981.521 .0254912
982.130 .0254917
982.738 .0254933
983.346 .0254966
983.954 .0255008
984.562 .0255065
985.169 .0255135
985.775 .0255211
986.382 .0255286
986.988 .0255360
987.594 .0255423
988.199 .0255477
988.804 .0255528
989.409 .0255571
990.013 .0255618
990.617 .0255670
991.221 .0255728
991.824 .0255788
992.427 .0255857
993.030 .0255931
993.632 .0256009
994.234 .0256100
994.836 .0256192
995.438 .0256288
996.039 .0256392
996.640 .0256497
997.240 .0256607
997.840 .0256721
998.440 .0256838
999.040 .0256950
999.639 .0257065
1000.238 .0257177
1000.836 .0257285
1001.435 .0257393
1002.033 .0257493
1002.630 .0257581
1003.228 .0257657
1003.825 .0257715
1004.422 .0257754
1005.018 .0257783
1005.614 .0257803
1006.210 .0257817
1006.806 .0257835
1007.401 .0257856
1007.996 .0257889
1008.591 .0257938
1009.186 .0258002
1009.780 .0258079
1010.374 .0258162
1010.967 .0258254
1011.561 .0258349
1012.154 .0258449
1012.746 .0258545
1013.339 .0258640
1013.931 .0258735
1014.523 .0258826
1015.115 .0258913
1015.706 .0259004
1016.298 .0259096
1016.888 .0259195
1017.479 .0259299
1018.069 .0259409
1018.660 .0259518
1019.250 .0259633
1019.839 .0259742
1020.429 .0259848
1021.018 .0259945
1021.607 .0260033
1022.195 .0260111
1022.784 .0260186
1023.372 .0260252
1023.960 .0260314
1024.547 .0260367
1025.135 .0260420
1025.722 .0260464
1026.309 .0260502
1026.896 .0260535
1027.483 .0260566
1028.069 .0260593
1028.655 .0260620
1029.241 .0260646
1029.827 .0260678
1030.412 .0260717
1030.997 .0260769
1031.582 .0260834
1032.167 .0260913
1032.752 .0261007
1033.336 .0261110
1033.921 .0261218
1034.505 .0261332
1035.089 .0261438
1035.672 .0261532
1036.256 .0261606
1036.839 .0261653
1037.422 .0261672
1038.005 .0261669
1038.588 .0261642
1039.171 .0261599
1039.753 .0261543
1040.335 .0261481
1040.918 .0261412
1041.500 .0261336
1042.081 .0261256
1042.663 .0261163
1043.244 .0261058
1043.826 .0260942
1044.407 .0260810
1044.988 .0260676
1045.569 .0260541
1046.150 .0260413
1046.730 .0260297
1047.311 .0260190
1047.891 .0260083
1048.471 .0259984
1049.052 .0259880
1049.632 .0259770
1050.211 .0259653
1050.791 .0259530
1051.371 .0259418
1051.950 .0259315
1052.530 .0259228
1053.109 .0259147
1053.688 .0259076
1054.268 .0259009
1054.847 .0258926
1055.426 .0258829
1056.005 .0258712
1056.583 .0258576
1057.162 .0258429
1057.741 .0258272
1058.319 .0258114
1058.898 .0257961
1059.476 .0257812
1060.055 .0257652
1060.633 .0257480
1061.211 .0257268
1061.790 .0257015
1062.368 .0256716
1062.946 .0256392
1063.524 .0256038
1064.102 .0255665
1064.680 .0255297
1065.258 .0254945
1065.836 .0254626
1066.414 .0254337
1066.992 .0254081
1067.570 .0253852
1068.148 .0253646
1068.726 .0253448
1069.304 .0253247
1069.882 .0253061
1070.460 .0252879
1071.038 .0252706
1071.616 .0252556
1072.194 .0252428
1072.772 .0252325
1073.350 .0252251
1073.928 .0252205
1074.506 .0252171
1075.084 .0252150
1075.662 .0252123
1076.240 .0252103
1076.819 .0252086
1077.397 .0252081
1077.976 .0252070
1078.554 .0252080
1079.133 .0252105
1079.711 .0252132
1080.290 .0252149
1080.869 .0252148
1081.448 .0252116
1082.027 .0252064
1082.606 .0251990
1083.185 .0251910
1083.764 .0251842
1084.343 .0251803
1084.923 .0251786
1085.502 .0251789
1086.082 .0251791
1086.662 .0251792
1087.242 .0251766
1087.822 .0251693
1088.402 .0251571
1088.983 .0251422
1089.563 .0251246
1090.144 .0251070
1090.725 .0250923
1091.306 .0250807
1091.887 .0250712
1092.469 .0250640
1093.050 .0250581
1093.632 .0250509
1094.214 .0250432
1094.796 .0250346
1095.379 .0250251
1095.961 .0250183
1096.544 .0250135
1097.127 .0250115
1097.710 .0250153
1098.294 .0250244
1098.877 .0250354
1099.461 .0250490
1100.046 .0250640
1100.630 .0250794
1101.215 .0250950
1101.800 .0251110
1102.385 .0251271
1102.970 .0251430
1103.556 .0251589
1104.142 .0251733
1104.728 .0251866
1105.315 .0251983
1105.902 .0252077
1106.489 .0252164
1107.077 .0252246
1107.664 .0252339
1108.253 .0252460
1108.841 .0252603
1109.430 .0252768
1110.019 .0252972
1110.609 .0253203
1111.198 .0253453
1111.789 .0253736
1112.379 .0254032
1112.970 .0254351
1113.561 .0254725
1114.153 .0255123
1114.745 .0255559
1115.338 .0256063
1115.931 .0256600
1116.524 .0257132
1117.117 .0257652
1117.712 .0258135
1118.306 .0258551
1118.901 .0258939
1119.496 .0259265
1120.092 .0259543
1120.689 .0259824
1121.285 .0260123
1121.882 .0260447
1122.480 .0260829
1123.078 .0261272
1123.677 .0261771
1124.276 .0262336
1124.875 .0262944
1125.476 .0263557
1126.076 .0264228
1126.677 .0264923
1127.279 .0265670
1127.881 .0266452
1128.484 .0267304
1129.087 .0268182
1129.691 .0269157
1130.295 .0270195
1130.900 .0271278
1131.505 .0272394
1132.111 .0273561
1132.718 .0274748
1133.325 .0275969
1133.933 .0277156
1134.541 .0278340
1135.150 .0279496
1135.760 .0280660
1136.370 .0281776
1136.981 .0282912
1137.592 .0284064
1138.204 .0285249
1138.817 .0286494
1139.431 .0287780
1140.045 .0289064
1140.660 .0290316
1141.275 .0291613
1141.891 .0293071
1142.508 .0294591
1143.126 .0294820
1143.744 .0294283
1144.363 .0299002
1144.983 .0305267
