Measurement Sequence started on: 15-12-46-377
Integration time: 28
Scans to Average: 2 
>>>>>Begin Spectral Data<<<<<
432.689 .0000100
433.621 .0000100
434.552 .0000100
435.482 .0000100
436.410 .0000100
437.337 .0000100
438.262 .0259039
439.187 .0548636
440.110 .0909026
441.031 .1314953
441.952 .1708566
442.871 .2017395
443.789 .2185649
444.705 .2193865
445.621 .2066049
446.535 .1854203
447.447 .1614939
448.359 .1250216
449.269 .1069535
450.178 .0954966
451.086 .0874339
451.993 .0812622
452.898 .0763645
453.803 .0723113
454.706 .0689471
455.608 .0660876
456.508 .0636418
457.408 .0615389
458.306 .0596964
459.204 .0580535
460.100 .0565844
460.995 .0552525
461.888 .0540404
462.781 .0529353
463.673 .0519156
464.563 .0509854
465.452 .0501431
466.340 .0493683
467.228 .0486692
468.114 .0480342
468.999 .0474726
469.882 .0469670
470.765 .0465065
471.647 .0460863
472.528 .0457107
473.407 .0453751
474.286 .0450807
475.163 .0448190
476.040 .0445952
476.915 .0444063
477.790 .0442487
478.663 .0441164
479.535 .0440063
480.407 .0439099
481.277 .0438256
482.147 .0437501
483.015 .0436842
483.883 .0436231
484.749 .0435741
485.615 .0435466
486.479 .0435423
487.343 .0435582
488.206 .0435982
489.067 .0436556
489.928 .0437280
490.788 .0438058
491.647 .0438848
492.505 .0439693
493.362 .0440640
494.218 .0441732
495.073 .0442952
495.928 .0444407
496.781 .0446049
497.634 .0447920
498.486 .0449966
499.337 .0452089
500.187 .0454279
501.036 .0456499
501.884 .0458773
502.731 .0461166
503.578 .0463784
504.424 .0466756
505.268 .0470064
506.113 .0473823
506.956 .0477938
507.798 .0482530
508.640 .0487577
509.480 .0493229
510.320 .0499515
511.160 .0506497
511.998 .0514283
512.836 .0523033
513.672 .0532963
514.508 .0544085
515.344 .0556353
516.178 .0570138
517.012 .0585719
517.845 .0603518
518.677 .0623675
519.508 .0646807
520.339 .0673462
521.169 .0704059
521.998 .0738629
522.826 .0777867
523.654 .0822159
524.481 .0871955
525.307 .0927723
526.133 .0988761
526.958 .1055138
527.782 .1125854
528.605 .1199144
529.428 .1273891
530.250 .1344805
531.072 .1408869
531.892 .1461884
532.712 .1501278
533.532 .1525482
534.350 .1532592
535.168 .1522622
535.986 .1496202
536.802 .1455323
537.618 .1402279
538.434 .1338907
539.249 .1270226
540.063 .1198533
540.876 .1126492
541.689 .1056707
542.501 .0990966
543.313 .0931303
544.124 .0878571
544.934 .0832105
545.744 .0790861
546.553 .0754023
547.361 .0720939
548.169 .0691061
548.976 .0663778
549.783 .0639102
550.589 .0616535
551.395 .0595999
552.200 .0577469
553.004 .0560640
553.808 .0545281
554.611 .0531541
555.414 .0519047
556.216 .0507687
557.018 .0497300
557.819 .0487585
558.619 .0478340
559.419 .0469579
560.218 .0461303
561.017 .0453492
561.815 .0446130
562.613 .0439237
563.410 .0432809
564.207 .0426836
565.003 .0421239
565.799 .0415895
566.594 .0410727
567.388 .0405775
568.182 .0400829
568.976 .0395913
569.769 .0391061
570.562 .0386338
571.354 .0381756
572.145 .0377418
572.936 .0373355
573.727 .0369492
574.517 .0365838
575.307 .0362396
576.096 .0359086
576.885 .0355924
577.673 .0352894
578.461 .0349943
579.248 .0347100
580.035 .0344418
580.821 .0341798
581.607 .0339318
582.392 .0336980
583.177 .0334789
583.962 .0332761
584.746 .0330903
585.529 .0329195
586.313 .0327628
587.095 .0326220
587.878 .0324951
588.660 .0323775
589.441 .0322741
590.222 .0321777
591.003 .0320921
591.783 .0320157
592.563 .0319478
593.342 .0318865
594.121 .0318330
594.899 .0317855
595.678 .0317411
596.455 .0316984
597.233 .0316574
598.009 .0316158
598.786 .0315761
599.562 .0315372
600.338 .0314992
601.113 .0314614
601.888 .0314253
602.663 .0313895
603.437 .0313547
604.211 .0313200
604.984 .0312861
605.757 .0312527
606.530 .0312199
607.302 .0311870
608.074 .0311543
608.845 .0311220
609.616 .0310897
610.387 .0310579
611.158 .0310270
611.928 .0309966
612.697 .0309688
613.467 .0309436
614.236 .0309207
615.004 .0308997
615.773 .0308799
616.541 .0308601
617.308 .0308399
618.076 .0308193
618.843 .0307975
619.609 .0307761
620.375 .0307557
621.141 .0307361
621.907 .0307186
622.672 .0307043
623.437 .0306912
624.202 .0306788
624.966 .0306670
625.730 .0306540
626.493 .0306388
627.257 .0306222
628.020 .0306045
628.782 .0305856
629.545 .0305664
630.307 .0305459
631.068 .0305243
631.830 .0305020
632.591 .0304777
633.352 .0304512
634.112 .0304229
634.872 .0303925
635.632 .0303605
636.392 .0303275
637.151 .0302948
637.910 .0302615
638.668 .0302291
639.427 .0301976
640.185 .0301670
640.943 .0301374
641.700 .0301090
642.457 .0300825
643.214 .0300579
643.971 .0300344
644.727 .0300123
645.483 .0299918
646.239 .0299727
646.994 .0299545
647.750 .0299376
648.505 .0299218
649.259 .0299072
650.014 .0298932
650.768 .0298787
651.521 .0298634
652.275 .0298472
653.028 .0298292
653.781 .0298092
654.534 .0297888
655.286 .0297671
656.039 .0297458
656.791 .0297253
657.542 .0297047
658.294 .0296848
659.045 .0296657
659.796 .0296470
660.546 .0296280
661.297 .0296087
662.047 .0295889
662.796 .0295681
663.546 .0295484
664.295 .0295287
665.044 .0295096
665.793 .0294920
666.542 .0294755
667.290 .0294597
668.038 .0294449
668.786 .0294303
669.533 .0294160
670.281 .0294019
671.028 .0293878
671.774 .0293731
672.521 .0293587
673.267 .0293446
674.013 .0293305
674.759 .0293167
675.505 .0293033
676.250 .0292895
676.995 .0292759
677.740 .0292619
678.484 .0292479
679.229 .0292339
679.973 .0292202
680.717 .0292065
681.460 .0291934
682.204 .0291808
682.947 .0291688
683.690 .0291574
684.433 .0291461
685.175 .0291342
685.917 .0291221
686.659 .0291091
687.401 .0290948
688.142 .0290797
688.884 .0290640
689.625 .0290474
690.365 .0290308
691.106 .0290141
691.846 .0289974
692.586 .0289811
693.326 .0289649
694.066 .0289484
694.805 .0289318
695.545 .0289147
696.284 .0288969
697.022 .0288788
697.761 .0288606
698.499 .0288422
699.237 .0288242
699.975 .0288069
700.713 .0287904
701.450 .0287745
702.187 .0287594
702.924 .0287445
703.661 .0287298
704.397 .0287153
705.133 .0287007
705.869 .0286863
706.605 .0286718
707.341 .0286575
708.076 .0286440
708.811 .0286308
709.546 .0286179
710.281 .0286047
711.015 .0285916
711.749 .0285782
712.483 .0285643
713.217 .0285502
713.950 .0285357
714.684 .0285213
715.417 .0285068
716.150 .0284919
716.882 .0284765
717.615 .0284604
718.347 .0284432
719.079 .0284247
719.811 .0284046
720.542 .0283830
721.273 .0283608
722.005 .0283386
722.735 .0283170
723.466 .0282959
724.196 .0282759
724.927 .0282562
725.656 .0282368
726.386 .0282173
727.116 .0281973
727.845 .0281767
728.574 .0281560
729.303 .0281352
730.031 .0281147
730.760 .0280952
731.488 .0280772
732.216 .0280609
732.944 .0280467
733.671 .0280336
734.398 .0280219
735.125 .0280113
735.852 .0280015
736.579 .0279920
737.305 .0279830
738.031 .0279746
738.757 .0279662
739.483 .0279577
740.208 .0279495
740.933 .0279413
741.658 .0279335
742.383 .0279258
743.108 .0279185
743.832 .0279117
744.556 .0279052
745.280 .0278984
746.004 .0278916
746.727 .0278844
747.450 .0278762
748.173 .0278669
748.896 .0278564
749.618 .0278451
750.340 .0278331
751.062 .0278215
751.784 .0278103
752.506 .0277996
753.227 .0277894
753.948 .0277792
754.669 .0277688
755.389 .0277578
756.110 .0277457
756.830 .0277328
757.550 .0277194
758.269 .0277054
758.989 .0276912
759.708 .0276770
760.427 .0276635
761.146 .0276505
761.864 .0276382
762.582 .0276263
763.300 .0276144
764.018 .0276023
764.736 .0275898
765.453 .0275771
766.170 .0275644
766.887 .0275517
767.603 .0275395
768.320 .0275278
769.036 .0275166
769.751 .0275060
770.467 .0274959
771.182 .0274860
771.897 .0274763
772.612 .0274665
773.327 .0274567
774.041 .0274471
774.755 .0274383
775.469 .0274303
776.183 .0274235
776.896 .0274183
777.609 .0274140
778.322 .0274107
779.035 .0274074
779.747 .0274042
780.459 .0274007
781.171 .0273974
781.882 .0273936
782.594 .0273896
783.305 .0273859
784.016 .0273820
784.726 .0273783
785.436 .0273746
786.147 .0273704
786.856 .0273653
787.566 .0273590
788.275 .0273515
788.984 .0273421
789.693 .0273317
790.401 .0273205
791.110 .0273086
791.818 .0272962
792.525 .0272833
793.233 .0272700
793.940 .0272567
794.647 .0272438
795.353 .0272304
796.060 .0272175
796.766 .0272045
797.472 .0271913
798.177 .0271776
798.883 .0271639
799.588 .0271503
800.292 .0271368
800.997 .0271238
801.701 .0271109
802.405 .0270977
803.109 .0270850
803.812 .0270723
804.515 .0270593
805.218 .0270457
805.921 .0270310
806.623 .0270151
807.325 .0269982
808.027 .0269804
808.728 .0269618
809.429 .0269429
810.130 .0269243
810.831 .0269055
811.531 .0268864
812.231 .0268677
812.931 .0268489
813.630 .0268301
814.330 .0268113
815.029 .0267921
815.727 .0267730
816.426 .0267545
817.124 .0267364
817.821 .0267189
818.519 .0267023
819.216 .0266868
819.913 .0266723
820.609 .0266589
821.306 .0266465
822.002 .0266348
822.697 .0266238
823.393 .0266133
824.088 .0266025
824.783 .0265916
825.477 .0265802
826.171 .0265683
826.865 .0265562
827.559 .0265439
828.252 .0265318
828.945 .0265204
829.638 .0265099
830.330 .0265003
831.023 .0264912
831.714 .0264833
832.406 .0264764
833.097 .0264708
833.788 .0264662
834.479 .0264625
835.169 .0264597
835.859 .0264579
836.548 .0264569
837.238 .0264566
837.927 .0264566
838.615 .0264568
839.304 .0264569
839.992 .0264568
840.680 .0264560
841.367 .0264549
842.054 .0264531
842.741 .0264509
843.428 .0264477
844.114 .0264436
844.800 .0264385
845.485 .0264325
846.170 .0264254
846.855 .0264175
847.540 .0264088
848.224 .0263993
848.908 .0263897
849.592 .0263801
850.275 .0263703
850.958 .0263608
851.641 .0263511
852.323 .0263412
853.005 .0263308
853.687 .0263200
854.368 .0263079
855.049 .0262946
855.730 .0262800
856.410 .0262638
857.090 .0262467
857.769 .0262289
858.449 .0262105
859.128 .0261923
859.806 .0261746
860.485 .0261576
861.163 .0261412
861.840 .0261258
862.518 .0261107
863.195 .0260960
863.871 .0260814
864.548 .0260669
865.224 .0260528
865.899 .0260395
866.574 .0260270
867.249 .0260158
867.924 .0260060
868.598 .0259974
869.272 .0259896
869.946 .0259831
870.619 .0259771
871.292 .0259711
871.964 .0259648
872.636 .0259583
873.308 .0259516
873.979 .0259446
874.651 .0259373
875.321 .0259301
875.992 .0259231
876.662 .0259161
877.331 .0259092
878.001 .0259028
878.670 .0258971
879.338 .0258921
880.007 .0258877
880.675 .0258841
881.342 .0258813
882.009 .0258791
882.676 .0258776
883.343 .0258766
884.009 .0258764
884.675 .0258763
885.340 .0258769
886.005 .0258779
886.670 .0258794
887.334 .0258814
887.998 .0258837
888.662 .0258858
889.325 .0258880
889.988 .0258893
890.650 .0258903
891.312 .0258903
891.974 .0258898
892.636 .0258884
893.297 .0258865
893.957 .0258841
894.618 .0258815
895.278 .0258786
895.937 .0258764
896.596 .0258741
897.255 .0258724
897.914 .0258705
898.572 .0258684
899.230 .0258662
899.887 .0258639
900.544 .0258609
901.201 .0258578
901.857 .0258538
902.513 .0258493
903.168 .0258435
903.823 .0258367
904.478 .0258285
905.132 .0258191
905.786 .0258084
906.440 .0257961
907.093 .0257821
907.746 .0257671
908.399 .0257503
909.051 .0257330
909.703 .0257143
910.354 .0256941
911.005 .0256730
911.656 .0256515
912.306 .0256290
912.956 .0256065
913.605 .0255841
914.254 .0255626
914.903 .0255415
915.551 .0255217
916.199 .0255027
916.847 .0254848
917.494 .0254679
918.141 .0254514
918.788 .0254351
919.434 .0254197
920.079 .0254043
920.725 .0253892
921.370 .0253746
922.014 .0253606
922.658 .0253460
923.302 .0253310
923.946 .0253154
924.589 .0252984
925.231 .0252799
925.873 .0252606
926.515 .0252400
927.157 .0252188
927.798 .0251972
928.439 .0251752
929.079 .0251531
929.719 .0251309
930.359 .0251081
930.998 .0250849
931.637 .0250615
932.275 .0250379
932.913 .0250140
933.551 .0249906
934.188 .0249682
934.825 .0249467
935.462 .0249262
936.098 .0249069
936.733 .0248888
937.369 .0248720
938.004 .0248563
938.638 .0248413
939.273 .0248271
939.907 .0248139
940.540 .0248015
941.173 .0247898
941.806 .0247791
942.438 .0247690
943.070 .0247597
943.702 .0247508
944.333 .0247423
944.964 .0247342
945.594 .0247267
946.224 .0247194
946.854 .0247122
947.483 .0247048
948.112 .0246971
948.741 .0246886
949.369 .0246792
949.996 .0246690
950.624 .0246581
951.251 .0246467
951.878 .0246357
952.504 .0246248
953.130 .0246150
953.755 .0246058
954.380 .0245974
955.005 .0245892
955.629 .0245810
956.253 .0245728
956.877 .0245644
957.500 .0245566
958.123 .0245487
958.746 .0245406
959.368 .0245331
959.990 .0245257
960.611 .0245187
961.232 .0245112
961.853 .0245037
962.473 .0244960
963.093 .0244881
963.712 .0244799
964.331 .0244716
964.950 .0244638
965.569 .0244563
966.187 .0244493
966.804 .0244426
967.422 .0244370
968.039 .0244323
968.655 .0244286
969.272 .0244257
969.887 .0244238
970.503 .0244226
971.118 .0244219
971.733 .0244217
972.347 .0244213
972.961 .0244202
973.575 .0244188
974.188 .0244162
974.801 .0244131
975.414 .0244090
976.026 .0244051
976.638 .0244007
977.250 .0243963
977.861 .0243918
978.472 .0243870
979.083 .0243817
979.693 .0243754
980.303 .0243677
980.912 .0243588
981.521 .0243484
982.130 .0243372
982.738 .0243255
983.346 .0243138
983.954 .0243023
984.562 .0242910
985.169 .0242795
985.775 .0242685
986.382 .0242567
986.988 .0242447
987.594 .0242322
988.199 .0242190
988.804 .0242051
989.409 .0241912
990.013 .0241780
990.617 .0241656
991.221 .0241545
991.824 .0241452
992.427 .0241372
993.030 .0241313
993.632 .0241268
994.234 .0241240
994.836 .0241225
995.438 .0241221
996.039 .0241220
996.640 .0241228
997.240 .0241248
997.840 .0241281
998.440 .0241326
999.040 .0241389
999.639 .0241466
1000.238 .0241554
1000.836 .0241648
1001.435 .0241744
1002.033 .0241835
1002.630 .0241926
1003.228 .0242010
1003.825 .0242089
1004.422 .0242171
1005.018 .0242256
1005.614 .0242344
1006.210 .0242437
1006.806 .0242528
1007.401 .0242610
1007.996 .0242681
1008.591 .0242745
1009.186 .0242790
1009.780 .0242825
1010.374 .0242853
1010.967 .0242873
1011.561 .0242895
1012.154 .0242922
1012.746 .0242955
1013.339 .0242995
1013.931 .0243047
1014.523 .0243101
1015.115 .0243154
1015.706 .0243206
1016.298 .0243249
1016.888 .0243284
1017.479 .0243313
1018.069 .0243340
1018.660 .0243361
1019.250 .0243390
1019.839 .0243436
1020.429 .0243493
1021.018 .0243566
1021.607 .0243648
1022.195 .0243730
1022.784 .0243809
1023.372 .0243887
1023.960 .0243959
1024.547 .0244029
1025.135 .0244101
1025.722 .0244175
1026.309 .0244257
1026.896 .0244356
1027.483 .0244461
1028.069 .0244569
1028.655 .0244687
1029.241 .0244803
1029.827 .0244906
1030.412 .0245004
1030.997 .0245101
1031.582 .0245193
1032.167 .0245283
1032.752 .0245368
1033.336 .0245441
1033.921 .0245511
1034.505 .0245573
1035.089 .0245622
1035.672 .0245665
1036.256 .0245708
1036.839 .0245742
1037.422 .0245770
1038.005 .0245802
1038.588 .0245833
1039.171 .0245860
1039.753 .0245889
1040.335 .0245919
1040.918 .0245945
1041.500 .0245979
1042.081 .0246021
1042.663 .0246071
1043.244 .0246133
1043.826 .0246198
1044.407 .0246260
1044.988 .0246323
1045.569 .0246385
1046.150 .0246440
1046.730 .0246492
1047.311 .0246545
1047.891 .0246589
1048.471 .0246626
1049.052 .0246658
1049.632 .0246673
1050.211 .0246679
1050.791 .0246668
1051.371 .0246634
1051.950 .0246585
1052.530 .0246528
1053.109 .0246463
1053.688 .0246398
1054.268 .0246339
1054.847 .0246288
1055.426 .0246244
1056.005 .0246212
1056.583 .0246183
1057.162 .0246158
1057.741 .0246139
1058.319 .0246123
1058.898 .0246119
1059.476 .0246129
1060.055 .0246151
1060.633 .0246188
1061.211 .0246239
1061.790 .0246293
1062.368 .0246348
1062.946 .0246398
1063.524 .0246444
1064.102 .0246484
1064.680 .0246516
1065.258 .0246533
1065.836 .0246542
1066.414 .0246547
1066.992 .0246563
1067.570 .0246588
1068.148 .0246626
1068.726 .0246671
1069.304 .0246730
1069.882 .0246791
1070.460 .0246846
1071.038 .0246891
1071.616 .0246928
1072.194 .0246954
1072.772 .0246981
1073.350 .0247004
1073.928 .0247037
1074.506 .0247086
1075.084 .0247157
1075.662 .0247232
1076.240 .0247317
1076.819 .0247393
1077.397 .0247457
1077.976 .0247498
1078.554 .0247514
1079.133 .0247502
1079.711 .0247470
1080.290 .0247421
1080.869 .0247360
1081.448 .0247290
1082.027 .0247222
1082.606 .0247155
1083.185 .0247112
1083.764 .0247073
1084.343 .0247045
1084.923 .0247022
1085.502 .0247010
1086.082 .0246993
1086.662 .0246977
1087.242 .0246950
1087.822 .0246919
1088.402 .0246906
1088.983 .0246909
1089.563 .0246915
1090.144 .0246960
1090.725 .0247042
1091.306 .0247153
1091.887 .0247282
1092.469 .0247424
1093.050 .0247550
1093.632 .0247668
1094.214 .0247771
1094.796 .0247853
1095.379 .0247922
1095.961 .0248015
1096.544 .0248122
1097.127 .0248245
1097.710 .0248407
1098.294 .0248580
1098.877 .0248761
1099.461 .0248965
1100.046 .0249143
1100.630 .0249301
1101.215 .0249449
1101.800 .0249588
1102.385 .0249703
1102.970 .0249826
1103.556 .0249956
1104.142 .0250072
1104.728 .0250199
1105.315 .0250336
1105.902 .0250443
1106.489 .0250541
1107.077 .0250641
1107.664 .0250732
1108.253 .0250814
1108.841 .0250897
1109.430 .0250963
1110.019 .0251046
1110.609 .0251138
1111.198 .0251219
1111.789 .0251305
1112.379 .0251395
1112.970 .0251478
1113.561 .0251559
1114.153 .0251673
1114.745 .0251817
1115.338 .0251988
1115.931 .0252202
1116.524 .0252443
1117.117 .0252711
1117.712 .0253012
1118.306 .0253343
1118.901 .0253721
1119.496 .0254154
1120.092 .0254644
1120.689 .0255182
1121.285 .0255770
1121.882 .0256399
1122.480 .0257073
1123.078 .0257783
1123.677 .0258497
1124.276 .0259222
1124.875 .0259964
1125.476 .0260709
1126.076 .0261458
1126.677 .0262224
1127.279 .0263007
1127.881 .0263788
1128.484 .0264548
1129.087 .0265269
1129.691 .0265966
1130.295 .0266659
1130.900 .0267345
1131.505 .0268034
1132.111 .0268749
1132.718 .0269505
1133.325 .0270341
1133.933 .0271288
1134.541 .0272356
1135.150 .0273534
1135.760 .0274779
1136.370 .0276070
1136.981 .0277320
1137.592 .0278483
1138.204 .0279584
1138.817 .0280648
1139.431 .0281656
1140.045 .0282713
1140.660 .0283601
1141.275 .0284304
1141.891 .0284799
1142.508 .0287199
1143.126 .0290536
1143.744 .0284756
1144.363 .0281992
1144.983 .0281781
