Measurement Sequence started on: 15-12-46-377
Integration time: 28
Scans to Average: 2 
>>>>>Begin Spectral Data<<<<<
432.689 .0000100
433.621 .0000100
434.552 .0000100
435.482 .0000100
436.410 .0000100
437.337 .0000100
438.262 .0281412
439.187 .0597457
440.110 .0989382
441.031 .1431595
441.952 .1860868
442.871 .2198223
443.789 .2382326
444.705 .2392008
445.621 .2253601
446.535 .2023371
447.447 .1762883
448.359 .1365650
449.269 .1167442
450.178 .1042663
451.086 .0953891
451.993 .0885639
452.898 .0831394
453.803 .0786704
454.706 .0749343
455.608 .0717139
456.508 .0689412
457.408 .0665516
458.306 .0644595
459.204 .0625905
460.100 .0609242
460.995 .0594395
461.888 .0580964
462.781 .0568832
463.673 .0557750
464.563 .0547724
465.452 .0538547
466.340 .0530039
467.228 .0522206
468.114 .0514911
468.999 .0508191
469.882 .0501874
470.765 .0495955
471.647 .0490441
472.528 .0485315
473.407 .0480637
474.286 .0476419
475.163 .0472636
476.040 .0469325
476.915 .0466419
477.790 .0463907
478.663 .0461760
479.535 .0459933
480.407 .0458419
481.277 .0457194
482.147 .0456182
483.015 .0455388
483.883 .0454768
484.749 .0454301
485.615 .0454009
486.479 .0453833
487.343 .0453740
488.206 .0453755
489.067 .0453901
489.928 .0454135
490.788 .0454430
491.647 .0454778
492.505 .0455233
493.362 .0455800
494.218 .0456477
495.073 .0457254
495.928 .0458269
496.781 .0459452
497.634 .0460893
498.486 .0462604
499.337 .0464684
500.187 .0467163
501.036 .0470095
501.884 .0473466
502.731 .0477205
503.578 .0481344
504.424 .0485808
505.268 .0490443
506.113 .0495433
506.956 .0500559
507.798 .0506012
508.640 .0511789
509.480 .0518031
510.320 .0524794
511.160 .0532301
511.998 .0540558
512.836 .0549700
513.672 .0559774
514.508 .0570868
515.344 .0583079
516.178 .0596805
517.012 .0612502
517.845 .0630478
518.677 .0651285
519.508 .0675282
520.339 .0702721
521.169 .0734440
521.998 .0769868
522.826 .0809580
523.654 .0854073
524.481 .0903600
525.307 .0958645
526.133 .1018840
526.958 .1083963
527.782 .1153204
528.605 .1224950
529.428 .1297980
530.250 .1366785
531.072 .1429136
531.892 .1481368
532.712 .1520340
533.532 .1544562
534.350 .1552273
535.168 .1542763
535.986 .1517602
536.802 .1478030
537.618 .1426366
538.434 .1364763
539.249 .1298185
540.063 .1228474
540.876 .1158025
541.689 .1089403
542.501 .1024171
543.313 .0963875
544.124 .0909408
544.934 .0859633
545.744 .0814541
546.553 .0773927
547.361 .0737444
548.169 .0704868
548.976 .0675813
549.783 .0650306
550.589 .0627903
551.395 .0608199
552.200 .0590966
553.004 .0575630
553.808 .0561949
554.611 .0549620
555.414 .0538361
556.216 .0528049
557.018 .0518648
557.819 .0510115
558.619 .0502276
559.419 .0495057
560.218 .0488377
561.017 .0482025
561.815 .0475846
562.613 .0469636
563.410 .0463321
564.207 .0456944
565.003 .0450488
565.799 .0444028
566.594 .0437614
567.388 .0431380
568.182 .0425396
568.976 .0419630
569.769 .0414113
570.562 .0408801
571.354 .0403645
572.145 .0398690
572.936 .0393890
573.727 .0389237
574.517 .0384761
575.307 .0380524
576.096 .0376560
576.885 .0372843
577.673 .0369372
578.461 .0366082
579.248 .0362944
580.035 .0359957
580.821 .0357056
581.607 .0354230
582.392 .0351549
583.177 .0349017
583.962 .0346675
584.746 .0344525
585.529 .0342592
586.313 .0340865
587.095 .0339329
587.878 .0337928
588.660 .0336647
589.441 .0335471
590.222 .0334368
591.003 .0333332
591.783 .0332395
592.563 .0331533
593.342 .0330770
594.121 .0330079
594.899 .0329474
595.678 .0328920
596.455 .0328414
597.233 .0327914
598.009 .0327418
598.786 .0326909
599.562 .0326394
600.338 .0325867
601.113 .0325347
601.888 .0324836
602.663 .0324343
603.437 .0323863
604.211 .0323405
604.984 .0322953
605.757 .0322515
606.530 .0322083
607.302 .0321664
608.074 .0321252
608.845 .0320863
609.616 .0320491
610.387 .0320140
611.158 .0319809
611.928 .0319494
612.697 .0319177
613.467 .0318866
614.236 .0318552
615.004 .0318239
615.773 .0317928
616.541 .0317636
617.308 .0317360
618.076 .0317112
618.843 .0316893
619.609 .0316688
620.375 .0316492
621.141 .0316301
621.907 .0316099
622.672 .0315887
623.437 .0315665
624.202 .0315437
624.966 .0315213
625.730 .0315002
626.493 .0314799
627.257 .0314604
628.020 .0314414
628.782 .0314218
629.545 .0314006
630.307 .0313768
631.068 .0313500
631.830 .0313201
632.591 .0312880
633.352 .0312546
634.112 .0312207
634.872 .0311868
635.632 .0311537
636.392 .0311212
637.151 .0310895
637.910 .0310579
638.668 .0310266
639.427 .0309952
640.185 .0309643
640.943 .0309336
641.700 .0309037
642.457 .0308747
643.214 .0308475
643.971 .0308216
644.727 .0307972
645.483 .0307739
646.239 .0307510
646.994 .0307284
647.750 .0307069
648.505 .0306854
649.259 .0306655
650.014 .0306470
650.768 .0306297
651.521 .0306138
652.275 .0305994
653.028 .0305857
653.781 .0305725
654.534 .0305593
655.286 .0305452
656.039 .0305301
656.791 .0305145
657.542 .0304975
658.294 .0304799
659.045 .0304631
659.796 .0304456
660.546 .0304276
661.297 .0304092
662.047 .0303903
662.796 .0303704
663.546 .0303496
664.295 .0303279
665.044 .0303062
665.793 .0302852
666.542 .0302651
667.290 .0302461
668.038 .0302291
668.786 .0302135
669.533 .0301987
670.281 .0301838
671.028 .0301686
671.774 .0301524
672.521 .0301356
673.267 .0301177
674.013 .0300997
674.759 .0300815
675.505 .0300643
676.250 .0300484
676.995 .0300339
677.740 .0300206
678.484 .0300084
679.229 .0299967
679.973 .0299845
680.717 .0299717
681.460 .0299580
682.204 .0299430
682.947 .0299278
683.690 .0299121
684.433 .0298959
685.175 .0298797
685.917 .0298640
686.659 .0298481
687.401 .0298322
688.142 .0298160
688.884 .0297988
689.625 .0297807
690.365 .0297610
691.106 .0297397
691.846 .0297173
692.586 .0296943
693.326 .0296705
694.066 .0296469
694.805 .0296236
695.545 .0296006
696.284 .0295783
697.022 .0295567
697.761 .0295353
698.499 .0295137
699.237 .0294916
699.975 .0294690
700.713 .0294460
701.450 .0294226
702.187 .0293990
702.924 .0293760
703.661 .0293531
704.397 .0293305
705.133 .0293083
705.869 .0292869
706.605 .0292659
707.341 .0292457
708.076 .0292259
708.811 .0292065
709.546 .0291873
710.281 .0291684
711.015 .0291501
711.749 .0291321
712.483 .0291140
713.217 .0290957
713.950 .0290769
714.684 .0290579
715.417 .0290378
716.150 .0290177
716.882 .0289975
717.615 .0289770
718.347 .0289559
719.079 .0289347
719.811 .0289133
720.542 .0288917
721.273 .0288699
722.005 .0288481
722.735 .0288261
723.466 .0288045
724.196 .0287831
724.927 .0287620
725.656 .0287415
726.386 .0287216
727.116 .0287016
727.845 .0286817
728.574 .0286619
729.303 .0286418
730.031 .0286221
730.760 .0286031
731.488 .0285849
732.216 .0285678
732.944 .0285525
733.671 .0285389
734.398 .0285271
735.125 .0285172
735.852 .0285083
736.579 .0284999
737.305 .0284917
738.031 .0284832
738.757 .0284741
739.483 .0284649
740.208 .0284558
740.933 .0284471
741.658 .0284388
742.383 .0284316
743.108 .0284251
743.832 .0284194
744.556 .0284141
745.280 .0284086
746.004 .0284029
746.727 .0283966
747.450 .0283892
748.173 .0283811
748.896 .0283726
749.618 .0283640
750.340 .0283552
751.062 .0283468
751.784 .0283389
752.506 .0283316
753.227 .0283247
753.948 .0283179
754.669 .0283108
755.389 .0283034
756.110 .0282949
756.830 .0282856
757.550 .0282757
758.269 .0282652
758.989 .0282547
759.708 .0282439
760.427 .0282334
761.146 .0282233
761.864 .0282133
762.582 .0282035
763.300 .0281936
764.018 .0281838
764.736 .0281738
765.453 .0281633
766.170 .0281531
766.887 .0281428
767.603 .0281329
768.320 .0281234
769.036 .0281142
769.751 .0281057
770.467 .0280974
771.182 .0280892
771.897 .0280816
772.612 .0280742
773.327 .0280675
774.041 .0280610
774.755 .0280555
775.469 .0280510
776.183 .0280475
776.896 .0280451
777.609 .0280438
778.322 .0280432
779.035 .0280427
779.747 .0280417
780.459 .0280405
781.171 .0280385
781.882 .0280355
782.594 .0280316
783.305 .0280271
784.016 .0280225
784.726 .0280175
785.436 .0280126
786.147 .0280073
786.856 .0280014
787.566 .0279945
788.275 .0279859
788.984 .0279760
789.693 .0279650
790.401 .0279530
791.110 .0279407
791.818 .0279286
792.525 .0279167
793.233 .0279054
793.940 .0278947
794.647 .0278840
795.353 .0278729
796.060 .0278612
796.766 .0278489
797.472 .0278356
798.177 .0278222
798.883 .0278087
799.588 .0277951
800.292 .0277822
800.997 .0277690
801.701 .0277552
802.405 .0277405
803.109 .0277244
803.812 .0277066
804.515 .0276865
805.218 .0276645
805.921 .0276405
806.623 .0276155
807.325 .0275903
808.027 .0275647
808.728 .0275391
809.429 .0275140
810.130 .0274892
810.831 .0274647
811.531 .0274403
812.231 .0274156
812.931 .0273908
813.630 .0273660
814.330 .0273410
815.029 .0273163
815.727 .0272921
816.426 .0272692
817.124 .0272468
817.821 .0272251
818.519 .0272039
819.216 .0271832
819.913 .0271628
820.609 .0271424
821.306 .0271216
822.002 .0271009
822.697 .0270800
823.393 .0270597
824.088 .0270395
824.783 .0270196
825.477 .0269999
826.171 .0269807
826.865 .0269617
827.559 .0269435
828.252 .0269265
828.945 .0269105
829.638 .0268955
830.330 .0268821
831.023 .0268691
831.714 .0268570
832.406 .0268457
833.097 .0268347
833.788 .0268231
834.479 .0268113
835.169 .0267993
835.859 .0267872
836.548 .0267751
837.238 .0267630
837.927 .0267505
838.615 .0267382
839.304 .0267254
839.992 .0267122
840.680 .0266991
841.367 .0266861
842.054 .0266729
842.741 .0266600
843.428 .0266475
844.114 .0266356
844.800 .0266246
845.485 .0266143
846.170 .0266043
846.855 .0265943
847.540 .0265841
848.224 .0265735
848.908 .0265631
849.592 .0265529
850.275 .0265427
850.958 .0265329
851.641 .0265236
852.323 .0265149
853.005 .0265065
853.687 .0264984
854.368 .0264905
855.049 .0264820
855.730 .0264729
856.410 .0264629
857.090 .0264526
857.769 .0264418
858.449 .0264309
859.128 .0264201
859.806 .0264093
860.485 .0263991
861.163 .0263891
861.840 .0263794
862.518 .0263702
863.195 .0263606
863.871 .0263502
864.548 .0263393
865.224 .0263278
865.899 .0263157
866.574 .0263035
867.249 .0262914
867.924 .0262799
868.598 .0262694
869.272 .0262605
869.946 .0262532
870.619 .0262478
871.292 .0262441
871.964 .0262414
872.636 .0262398
873.308 .0262390
873.979 .0262381
874.651 .0262375
875.321 .0262371
875.992 .0262368
876.662 .0262372
877.331 .0262382
878.001 .0262399
878.670 .0262422
879.338 .0262450
880.007 .0262480
880.675 .0262510
881.342 .0262543
882.009 .0262578
882.676 .0262617
883.343 .0262661
884.009 .0262710
884.675 .0262764
885.340 .0262822
886.005 .0262882
886.670 .0262946
887.334 .0263014
887.998 .0263084
888.662 .0263163
889.325 .0263251
889.988 .0263347
890.650 .0263453
891.312 .0263559
891.974 .0263666
892.636 .0263766
893.297 .0263861
893.957 .0263946
894.618 .0264027
895.278 .0264107
895.937 .0264187
896.596 .0264280
897.255 .0264380
897.914 .0264484
898.572 .0264591
899.230 .0264694
899.887 .0264783
900.544 .0264853
901.201 .0264906
901.857 .0264941
902.513 .0264966
903.168 .0264979
903.823 .0264981
904.478 .0264974
905.132 .0264957
905.786 .0264925
906.440 .0264875
907.093 .0264801
907.746 .0264707
908.399 .0264592
909.051 .0264468
909.703 .0264335
910.354 .0264200
911.005 .0264063
911.656 .0263929
912.306 .0263791
912.956 .0263647
913.605 .0263494
914.254 .0263335
914.903 .0263168
915.551 .0262999
916.199 .0262835
916.847 .0262681
917.494 .0262542
918.141 .0262423
918.788 .0262315
919.434 .0262216
920.079 .0262114
920.725 .0262006
921.370 .0261882
922.014 .0261748
922.658 .0261600
923.302 .0261442
923.946 .0261282
924.589 .0261121
925.231 .0260955
925.873 .0260790
926.515 .0260617
927.157 .0260431
927.798 .0260232
928.439 .0260014
929.079 .0259778
929.719 .0259530
930.359 .0259274
930.998 .0259015
931.637 .0258759
932.275 .0258513
932.913 .0258270
933.551 .0258036
934.188 .0257812
934.825 .0257595
935.462 .0257386
936.098 .0257186
936.733 .0256999
937.369 .0256823
938.004 .0256661
938.638 .0256510
939.273 .0256372
939.907 .0256245
940.540 .0256127
941.173 .0256018
941.806 .0255915
942.438 .0255816
943.070 .0255718
943.702 .0255619
944.333 .0255517
944.964 .0255408
945.594 .0255289
946.224 .0255162
946.854 .0255027
947.483 .0254881
948.112 .0254726
948.741 .0254563
949.369 .0254392
949.996 .0254208
950.624 .0254015
951.251 .0253808
951.878 .0253593
952.504 .0253371
953.130 .0253144
953.755 .0252914
954.380 .0252682
955.005 .0252448
955.629 .0252213
956.253 .0251976
956.877 .0251737
957.500 .0251498
958.123 .0251260
958.746 .0251023
959.368 .0250791
959.990 .0250565
960.611 .0250346
961.232 .0250130
961.853 .0249913
962.473 .0249694
963.093 .0249471
963.712 .0249244
964.331 .0249012
964.950 .0248780
965.569 .0248552
966.187 .0248330
966.804 .0248115
967.422 .0247907
968.039 .0247710
968.655 .0247516
969.272 .0247327
969.887 .0247140
970.503 .0246953
971.118 .0246769
971.733 .0246589
972.347 .0246413
972.961 .0246240
973.575 .0246074
974.188 .0245914
974.801 .0245755
975.414 .0245598
976.026 .0245436
976.638 .0245271
977.250 .0245106
977.861 .0244939
978.472 .0244768
979.083 .0244603
979.693 .0244438
980.303 .0244272
980.912 .0244101
981.521 .0243926
982.130 .0243741
982.738 .0243551
983.346 .0243354
983.954 .0243150
984.562 .0242943
985.169 .0242736
985.775 .0242528
986.382 .0242326
986.988 .0242126
987.594 .0241927
988.199 .0241729
988.804 .0241532
989.409 .0241329
990.013 .0241123
990.617 .0240913
991.221 .0240700
991.824 .0240485
992.427 .0240278
993.030 .0240080
993.632 .0239901
994.234 .0239740
994.836 .0239597
995.438 .0239473
996.039 .0239365
996.640 .0239262
997.240 .0239170
997.840 .0239086
998.440 .0239013
999.040 .0238946
999.639 .0238890
1000.238 .0238848
1000.836 .0238814
1001.435 .0238794
1002.033 .0238786
1002.630 .0238783
1003.228 .0238791
1003.825 .0238799
1004.422 .0238809
1005.018 .0238822
1005.614 .0238838
1006.210 .0238853
1006.806 .0238869
1007.401 .0238886
1007.996 .0238893
1008.591 .0238895
1009.186 .0238901
1009.780 .0238905
1010.374 .0238911
1010.967 .0238923
1011.561 .0238941
1012.154 .0238971
1012.746 .0239014
1013.339 .0239064
1013.931 .0239122
1014.523 .0239191
1015.115 .0239261
1015.706 .0239328
1016.298 .0239395
1016.888 .0239468
1017.479 .0239544
1018.069 .0239628
1018.660 .0239719
1019.250 .0239818
1019.839 .0239935
1020.429 .0240064
1021.018 .0240199
1021.607 .0240342
1022.195 .0240483
1022.784 .0240618
1023.372 .0240747
1023.960 .0240869
1024.547 .0240982
1025.135 .0241093
1025.722 .0241207
1026.309 .0241332
1026.896 .0241470
1027.483 .0241626
1028.069 .0241797
1028.655 .0241986
1029.241 .0242183
1029.827 .0242374
1030.412 .0242566
1030.997 .0242753
1031.582 .0242926
1032.167 .0243083
1032.752 .0243227
1033.336 .0243376
1033.921 .0243528
1034.505 .0243688
1035.089 .0243859
1035.672 .0244041
1036.256 .0244229
1036.839 .0244409
1037.422 .0244574
1038.005 .0244726
1038.588 .0244858
1039.171 .0244968
1039.753 .0245054
1040.335 .0245129
1040.918 .0245202
1041.500 .0245282
1042.081 .0245370
1042.663 .0245464
1043.244 .0245555
1043.826 .0245646
1044.407 .0245729
1044.988 .0245803
1045.569 .0245864
1046.150 .0245915
1046.730 .0245959
1047.311 .0246002
1047.891 .0246040
1048.471 .0246085
1049.052 .0246133
1049.632 .0246193
1050.211 .0246257
1050.791 .0246320
1051.371 .0246386
1051.950 .0246462
1052.530 .0246548
1053.109 .0246634
1053.688 .0246718
1054.268 .0246804
1054.847 .0246884
1055.426 .0246966
1056.005 .0247043
1056.583 .0247132
1057.162 .0247241
1057.741 .0247372
1058.319 .0247528
1058.898 .0247718
1059.476 .0247934
1060.055 .0248167
1060.633 .0248418
1061.211 .0248667
1061.790 .0248925
1062.368 .0249175
1062.946 .0249420
1063.524 .0249671
1064.102 .0249927
1064.680 .0250180
1065.258 .0250419
1065.836 .0250654
1066.414 .0250868
1066.992 .0251052
1067.570 .0251217
1068.148 .0251346
1068.726 .0251465
1069.304 .0251571
1069.882 .0251674
1070.460 .0251773
1071.038 .0251890
1071.616 .0252002
1072.194 .0252116
1072.772 .0252222
1073.350 .0252313
1073.928 .0252388
1074.506 .0252462
1075.084 .0252529
1075.662 .0252600
1076.240 .0252688
1076.819 .0252804
1077.397 .0252941
1077.976 .0253107
1078.554 .0253280
1079.133 .0253466
1079.711 .0253639
1080.290 .0253799
1080.869 .0253929
1081.448 .0254043
1082.027 .0254136
1082.606 .0254220
1083.185 .0254302
1083.764 .0254383
1084.343 .0254473
1084.923 .0254574
1085.502 .0254671
1086.082 .0254749
1086.662 .0254806
1087.242 .0254838
1087.822 .0254852
1088.402 .0254853
1088.983 .0254849
1089.563 .0254862
1090.144 .0254901
1090.725 .0254972
1091.306 .0255063
1091.887 .0255189
1092.469 .0255352
1093.050 .0255531
1093.632 .0255732
1094.214 .0255953
1094.796 .0256199
1095.379 .0256466
1095.961 .0256771
1096.544 .0257103
1097.127 .0257453
1097.710 .0257826
1098.294 .0258214
1098.877 .0258601
1099.461 .0258979
1100.046 .0259351
1100.630 .0259694
1101.215 .0260015
1101.800 .0260298
1102.385 .0260539
1102.970 .0260756
1103.556 .0260955
1104.142 .0261119
1104.728 .0261279
1105.315 .0261454
1105.902 .0261631
1106.489 .0261825
1107.077 .0262050
1107.664 .0262274
1108.253 .0262511
1108.841 .0262757
1109.430 .0263010
1110.019 .0263262
1110.609 .0263542
1111.198 .0263838
1111.789 .0264183
1112.379 .0264571
1112.970 .0264987
1113.561 .0265420
1114.153 .0265896
1114.745 .0266348
1115.338 .0266771
1115.931 .0267186
1116.524 .0267595
1117.117 .0267982
1117.712 .0268367
1118.306 .0268732
1118.901 .0269096
1119.496 .0269456
1120.092 .0269802
1120.689 .0270135
1121.285 .0270477
1121.882 .0270796
1122.480 .0271111
1123.078 .0271452
1123.677 .0271834
1124.276 .0272235
1124.875 .0272693
1125.476 .0273201
1126.076 .0273752
1126.677 .0274338
1127.279 .0274937
1127.881 .0275561
1128.484 .0276191
1129.087 .0276811
1129.691 .0277431
1130.295 .0278050
1130.900 .0278661
1131.505 .0279287
1132.111 .0279934
1132.718 .0280588
1133.325 .0281234
1133.933 .0281846
1134.541 .0282431
1135.150 .0283000
1135.760 .0283556
1136.370 .0284083
1136.981 .0284615
1137.592 .0285173
1138.204 .0285757
1138.817 .0286307
1139.431 .0286923
1140.045 .0287565
1140.660 .0288318
1141.275 .0289187
1141.891 .0290072
1142.508 .0290748
1143.126 .0291182
1143.744 .0294164
1144.363 .0296394
1144.983 .0294436
