Measurement Sequence started on: 15-12-46-377
Integration time: 28
Scans to Average: 2 
>>>>>Begin Spectral Data<<<<<
432.689 .0000100
433.621 .0000100
434.552 .0000100
435.482 .0000100
436.410 .0000100
437.337 .0000100
438.262 .0295449
439.187 .0625615
440.110 .1035757
441.031 .1497851
441.952 .1946355
442.871 .2298791
443.789 .2491073
444.705 .2501458
445.621 .2357313
446.535 .2117403
447.447 .1846069
448.359 .1431112
449.269 .1225409
450.178 .1095178
451.086 .1002881
451.993 .0931670
452.898 .0875356
453.803 .0829358
454.706 .0791286
455.608 .0758927
456.508 .0731381
457.408 .0707497
458.306 .0686327
459.204 .0667403
460.100 .0650203
460.995 .0634603
461.888 .0620530
462.781 .0607531
463.673 .0595679
464.563 .0584936
465.452 .0575061
466.340 .0565925
467.228 .0557650
468.114 .0550026
468.999 .0543029
469.882 .0536553
470.765 .0530677
471.647 .0525192
472.528 .0520209
473.407 .0515726
474.286 .0511611
475.163 .0507937
476.040 .0504617
476.915 .0501632
477.790 .0498991
478.663 .0496610
479.535 .0494531
480.407 .0492694
481.277 .0491108
482.147 .0489747
483.015 .0488510
483.883 .0487474
484.749 .0486612
485.615 .0485872
486.479 .0485228
487.343 .0484764
488.206 .0484392
489.067 .0484100
489.928 .0483849
490.788 .0483721
491.647 .0483666
492.505 .0483828
493.362 .0484258
494.218 .0484889
495.073 .0485849
495.928 .0487207
496.781 .0488756
497.634 .0490665
498.486 .0492823
499.337 .0495165
500.187 .0497633
501.036 .0500322
501.884 .0503160
502.731 .0506224
503.578 .0509736
504.424 .0513687
505.268 .0518026
506.113 .0522936
506.956 .0528215
507.798 .0533876
508.640 .0540058
509.480 .0546627
510.320 .0553679
511.160 .0561475
511.998 .0570159
512.836 .0579964
513.672 .0591108
514.508 .0603871
515.344 .0618365
516.178 .0634897
517.012 .0653644
517.845 .0674572
518.677 .0698370
519.508 .0725107
520.339 .0755317
521.169 .0789862
521.998 .0828906
522.826 .0873065
523.654 .0922740
524.481 .0977718
525.307 .1038652
526.133 .1105042
526.958 .1176136
527.782 .1251614
528.605 .1329576
529.428 .1408900
530.250 .1483296
531.072 .1551334
531.892 .1608978
532.712 .1652440
533.532 .1680694
534.350 .1690774
535.168 .1682193
535.986 .1656476
536.802 .1614119
537.618 .1558528
538.434 .1491508
539.249 .1418401
540.063 .1340634
540.876 .1262141
541.689 .1185810
542.501 .1113091
543.313 .1046324
544.124 .0986265
544.934 .0931649
545.744 .0882347
546.553 .0837692
547.361 .0797475
548.169 .0761631
548.976 .0729346
549.783 .0700364
550.589 .0674763
551.395 .0651819
552.200 .0631359
553.004 .0612984
553.808 .0596442
554.611 .0581530
555.414 .0568096
556.216 .0556018
557.018 .0545153
557.819 .0535386
558.619 .0526604
559.419 .0518657
560.218 .0511519
561.017 .0504938
561.815 .0498572
562.613 .0492552
563.410 .0486600
564.207 .0480559
565.003 .0474472
565.799 .0468374
566.594 .0462242
567.388 .0456323
568.182 .0450535
568.976 .0444873
569.769 .0439384
570.562 .0434105
571.354 .0428837
572.145 .0423655
572.936 .0418500
573.727 .0413369
574.517 .0408214
575.307 .0403226
576.096 .0398350
576.885 .0393674
577.673 .0389256
578.461 .0385162
579.248 .0381384
580.035 .0377933
580.821 .0374709
581.607 .0371710
582.392 .0368913
583.177 .0366319
583.962 .0363883
584.746 .0361660
585.529 .0359642
586.313 .0357844
587.095 .0356238
587.878 .0354844
588.660 .0353601
589.441 .0352488
590.222 .0351472
591.003 .0350542
591.783 .0349657
592.563 .0348794
593.342 .0347975
594.121 .0347175
594.899 .0346395
595.678 .0345622
596.455 .0344854
597.233 .0344104
598.009 .0343369
598.786 .0342667
599.562 .0341997
600.338 .0341368
601.113 .0340784
601.888 .0340238
602.663 .0339726
603.437 .0339244
604.211 .0338774
604.984 .0338314
605.757 .0337870
606.530 .0337421
607.302 .0336975
608.074 .0336545
608.845 .0336135
609.616 .0335755
610.387 .0335405
611.158 .0335094
611.928 .0334794
612.697 .0334518
613.467 .0334246
614.236 .0333978
615.004 .0333716
615.773 .0333454
616.541 .0333196
617.308 .0332956
618.076 .0332739
618.843 .0332545
619.609 .0332385
620.375 .0332261
621.141 .0332156
621.907 .0332062
622.672 .0331960
623.437 .0331840
624.202 .0331688
624.966 .0331513
625.730 .0331304
626.493 .0331071
627.257 .0330822
628.020 .0330561
628.782 .0330296
629.545 .0330024
630.307 .0329741
631.068 .0329438
631.830 .0329107
632.591 .0328741
633.352 .0328338
634.112 .0327906
634.872 .0327454
635.632 .0326993
636.392 .0326530
637.151 .0326083
637.910 .0325648
638.668 .0325234
639.427 .0324839
640.185 .0324467
640.943 .0324106
641.700 .0323754
642.457 .0323414
643.214 .0323074
643.971 .0322741
644.727 .0322420
645.483 .0322107
646.239 .0321805
646.994 .0321508
647.750 .0321217
648.505 .0320930
649.259 .0320648
650.014 .0320363
650.768 .0320076
651.521 .0319786
652.275 .0319486
653.028 .0319169
653.781 .0318847
654.534 .0318516
655.286 .0318175
656.039 .0317832
656.791 .0317491
657.542 .0317154
658.294 .0316829
659.045 .0316517
659.796 .0316216
660.546 .0315929
661.297 .0315649
662.047 .0315368
662.796 .0315092
663.546 .0314822
664.295 .0314555
665.044 .0314291
665.793 .0314035
666.542 .0313782
667.290 .0313536
668.038 .0313305
668.786 .0313080
669.533 .0312868
670.281 .0312671
671.028 .0312490
671.774 .0312324
672.521 .0312183
673.267 .0312066
674.013 .0311973
674.759 .0311903
675.505 .0311847
676.250 .0311795
676.995 .0311748
677.740 .0311702
678.484 .0311649
679.229 .0311589
679.973 .0311520
680.717 .0311436
681.460 .0311351
682.204 .0311254
682.947 .0311148
683.690 .0311033
684.433 .0310909
685.175 .0310773
685.917 .0310626
686.659 .0310473
687.401 .0310314
688.142 .0310144
688.884 .0309969
689.625 .0309779
690.365 .0309581
691.106 .0309370
691.846 .0309152
692.586 .0308928
693.326 .0308703
694.066 .0308477
694.805 .0308252
695.545 .0308033
696.284 .0307813
697.022 .0307588
697.761 .0307357
698.499 .0307111
699.237 .0306848
699.975 .0306568
700.713 .0306281
701.450 .0305984
702.187 .0305685
702.924 .0305387
703.661 .0305092
704.397 .0304807
705.133 .0304529
705.869 .0304254
706.605 .0303981
707.341 .0303706
708.076 .0303420
708.811 .0303124
709.546 .0302826
710.281 .0302521
711.015 .0302217
711.749 .0301914
712.483 .0301620
713.217 .0301335
713.950 .0301057
714.684 .0300787
715.417 .0300522
716.150 .0300263
716.882 .0299996
717.615 .0299726
718.347 .0299455
719.079 .0299183
719.811 .0298910
720.542 .0298643
721.273 .0298380
722.005 .0298123
722.735 .0297874
723.466 .0297632
724.196 .0297395
724.927 .0297160
725.656 .0296920
726.386 .0296681
727.116 .0296439
727.845 .0296196
728.574 .0295949
729.303 .0295712
730.031 .0295484
730.760 .0295268
731.488 .0295065
732.216 .0294881
732.944 .0294718
733.671 .0294576
734.398 .0294445
735.125 .0294328
735.852 .0294223
736.579 .0294130
737.305 .0294048
738.031 .0293983
738.757 .0293930
739.483 .0293893
740.208 .0293872
740.933 .0293868
741.658 .0293868
742.383 .0293875
743.108 .0293878
743.832 .0293875
744.556 .0293865
745.280 .0293847
746.004 .0293823
746.727 .0293799
747.450 .0293780
748.173 .0293758
748.896 .0293742
749.618 .0293728
750.340 .0293714
751.062 .0293702
751.784 .0293694
752.506 .0293685
753.227 .0293678
753.948 .0293680
754.669 .0293689
755.389 .0293705
756.110 .0293729
756.830 .0293751
757.550 .0293775
758.269 .0293787
758.989 .0293789
759.708 .0293768
760.427 .0293731
761.146 .0293677
761.864 .0293608
762.582 .0293529
763.300 .0293443
764.018 .0293356
764.736 .0293271
765.453 .0293185
766.170 .0293098
766.887 .0293004
767.603 .0292907
768.320 .0292804
769.036 .0292699
769.751 .0292594
770.467 .0292495
771.182 .0292403
771.897 .0292320
772.612 .0292241
773.327 .0292165
774.041 .0292086
774.755 .0291998
775.469 .0291902
776.183 .0291792
776.896 .0291670
777.609 .0291538
778.322 .0291398
779.035 .0291253
779.747 .0291101
780.459 .0290947
781.171 .0290789
781.882 .0290626
782.594 .0290461
783.305 .0290294
784.016 .0290127
784.726 .0289959
785.436 .0289793
786.147 .0289625
786.856 .0289452
787.566 .0289275
788.275 .0289086
788.984 .0288889
789.693 .0288684
790.401 .0288465
791.110 .0288235
791.818 .0288000
792.525 .0287757
793.233 .0287506
793.940 .0287250
794.647 .0286989
795.353 .0286716
796.060 .0286439
796.766 .0286159
797.472 .0285876
798.177 .0285596
798.883 .0285327
799.588 .0285066
800.292 .0284823
800.997 .0284592
801.701 .0284368
802.405 .0284154
803.109 .0283947
803.812 .0283740
804.515 .0283531
805.218 .0283317
805.921 .0283096
806.623 .0282865
807.325 .0282632
808.027 .0282393
808.728 .0282154
809.429 .0281916
810.130 .0281673
810.831 .0281430
811.531 .0281183
812.231 .0280928
812.931 .0280670
813.630 .0280410
814.330 .0280148
815.029 .0279891
815.727 .0279645
816.426 .0279420
817.124 .0279217
817.821 .0279037
818.519 .0278881
819.216 .0278747
819.913 .0278632
820.609 .0278532
821.306 .0278446
822.002 .0278379
822.697 .0278327
823.393 .0278294
824.088 .0278280
824.783 .0278281
825.477 .0278299
826.171 .0278330
826.865 .0278371
827.559 .0278420
828.252 .0278470
828.945 .0278525
829.638 .0278577
830.330 .0278629
831.023 .0278682
831.714 .0278734
832.406 .0278785
833.097 .0278831
833.788 .0278873
834.479 .0278913
835.169 .0278952
835.859 .0278995
836.548 .0279042
837.238 .0279098
837.927 .0279164
838.615 .0279235
839.304 .0279316
839.992 .0279407
840.680 .0279500
841.367 .0279598
842.054 .0279703
842.741 .0279808
843.428 .0279920
844.114 .0280037
844.800 .0280161
845.485 .0280286
846.170 .0280410
846.855 .0280527
847.540 .0280633
848.224 .0280729
848.908 .0280810
849.592 .0280874
850.275 .0280927
850.958 .0280960
851.641 .0280978
852.323 .0280984
853.005 .0280981
853.687 .0280967
854.368 .0280947
855.049 .0280919
855.730 .0280889
856.410 .0280857
857.090 .0280829
857.769 .0280803
858.449 .0280781
859.128 .0280761
859.806 .0280741
860.485 .0280720
861.163 .0280699
861.840 .0280675
862.518 .0280649
863.195 .0280619
863.871 .0280590
864.548 .0280557
865.224 .0280524
865.899 .0280489
866.574 .0280449
867.249 .0280403
867.924 .0280345
868.598 .0280274
869.272 .0280187
869.946 .0280085
870.619 .0279969
871.292 .0279842
871.964 .0279709
872.636 .0279570
873.308 .0279431
873.979 .0279293
874.651 .0279151
875.321 .0279007
875.992 .0278858
876.662 .0278700
877.331 .0278532
878.001 .0278349
878.670 .0278151
879.338 .0277945
880.007 .0277732
880.675 .0277514
881.342 .0277294
882.009 .0277076
882.676 .0276858
883.343 .0276640
884.009 .0276423
884.675 .0276201
885.340 .0275974
886.005 .0275744
886.670 .0275509
887.334 .0275274
887.998 .0275040
888.662 .0274810
889.325 .0274581
889.988 .0274358
890.650 .0274128
891.312 .0273893
891.974 .0273657
892.636 .0273417
893.297 .0273174
893.957 .0272933
894.618 .0272696
895.278 .0272465
895.937 .0272237
896.596 .0272015
897.255 .0271794
897.914 .0271574
898.572 .0271348
899.230 .0271119
899.887 .0270887
900.544 .0270654
901.201 .0270421
901.857 .0270192
902.513 .0269967
903.168 .0269745
903.823 .0269518
904.478 .0269285
905.132 .0269039
905.786 .0268776
906.440 .0268492
907.093 .0268188
907.746 .0267864
908.399 .0267519
909.051 .0267159
909.703 .0266790
910.354 .0266412
911.005 .0266031
911.656 .0265650
912.306 .0265273
912.956 .0264901
913.605 .0264537
914.254 .0264181
914.903 .0263843
915.551 .0263525
916.199 .0263223
916.847 .0262940
917.494 .0262676
918.141 .0262429
918.788 .0262198
919.434 .0261986
920.079 .0261787
920.725 .0261605
921.370 .0261440
922.014 .0261287
922.658 .0261148
923.302 .0261014
923.946 .0260880
924.589 .0260743
925.231 .0260591
925.873 .0260423
926.515 .0260233
927.157 .0260030
927.798 .0259812
928.439 .0259589
929.079 .0259364
929.719 .0259140
930.359 .0258919
930.998 .0258698
931.637 .0258475
932.275 .0258251
932.913 .0258027
933.551 .0257803
934.188 .0257584
934.825 .0257380
935.462 .0257191
936.098 .0257028
936.733 .0256892
937.369 .0256784
938.004 .0256701
938.638 .0256640
939.273 .0256600
939.907 .0256580
940.540 .0256583
941.173 .0256603
941.806 .0256648
942.438 .0256717
943.070 .0256804
943.702 .0256905
944.333 .0257021
944.964 .0257146
945.594 .0257278
946.224 .0257413
946.854 .0257554
947.483 .0257698
948.112 .0257845
948.741 .0257989
949.369 .0258134
949.996 .0258275
950.624 .0258408
951.251 .0258534
951.878 .0258653
952.504 .0258763
953.130 .0258866
953.755 .0258963
954.380 .0259056
955.005 .0259142
955.629 .0259224
956.253 .0259297
956.877 .0259368
957.500 .0259436
958.123 .0259497
958.746 .0259558
959.368 .0259621
959.990 .0259687
960.611 .0259749
961.232 .0259817
961.853 .0259890
962.473 .0259970
963.093 .0260057
963.712 .0260149
964.331 .0260248
964.950 .0260350
965.569 .0260454
966.187 .0260561
966.804 .0260670
967.422 .0260785
968.039 .0260897
968.655 .0261011
969.272 .0261129
969.887 .0261252
970.503 .0261381
971.118 .0261524
971.733 .0261671
972.347 .0261824
972.961 .0261980
973.575 .0262134
974.188 .0262279
974.801 .0262408
975.414 .0262515
976.026 .0262598
976.638 .0262655
977.250 .0262692
977.861 .0262708
978.472 .0262718
979.083 .0262726
979.693 .0262727
980.303 .0262723
980.912 .0262715
981.521 .0262699
982.130 .0262673
982.738 .0262636
983.346 .0262593
983.954 .0262537
984.562 .0262482
985.169 .0262429
985.775 .0262380
986.382 .0262343
986.988 .0262318
987.594 .0262306
988.199 .0262307
988.804 .0262313
989.409 .0262320
990.013 .0262326
990.617 .0262328
991.221 .0262313
991.824 .0262288
992.427 .0262254
993.030 .0262215
993.632 .0262175
994.234 .0262148
994.836 .0262131
995.438 .0262132
996.039 .0262147
996.640 .0262167
997.240 .0262190
997.840 .0262208
998.440 .0262213
999.040 .0262210
999.639 .0262194
1000.238 .0262173
1000.836 .0262145
1001.435 .0262121
1002.033 .0262094
1002.630 .0262063
1003.228 .0262025
1003.825 .0261972
1004.422 .0261901
1005.018 .0261805
1005.614 .0261688
1006.210 .0261557
1006.806 .0261416
1007.401 .0261267
1007.996 .0261117
1008.591 .0260969
1009.186 .0260825
1009.780 .0260680
1010.374 .0260532
1010.967 .0260381
1011.561 .0260227
1012.154 .0260062
1012.746 .0259892
1013.339 .0259715
1013.931 .0259532
1014.523 .0259352
1015.115 .0259181
1015.706 .0259017
1016.298 .0258868
1016.888 .0258735
1017.479 .0258608
1018.069 .0258487
1018.660 .0258371
1019.250 .0258249
1019.839 .0258128
1020.429 .0258010
1021.018 .0257895
1021.607 .0257786
1022.195 .0257691
1022.784 .0257606
1023.372 .0257526
1023.960 .0257457
1024.547 .0257378
1025.135 .0257285
1025.722 .0257177
1026.309 .0257049
1026.896 .0256912
1027.483 .0256771
1028.069 .0256633
1028.655 .0256501
1029.241 .0256381
1029.827 .0256276
1030.412 .0256177
1030.997 .0256083
1031.582 .0255992
1032.167 .0255893
1032.752 .0255788
1033.336 .0255668
1033.921 .0255539
1034.505 .0255407
1035.089 .0255273
1035.672 .0255137
1036.256 .0254995
1036.839 .0254842
1037.422 .0254685
1038.005 .0254515
1038.588 .0254333
1039.171 .0254135
1039.753 .0253919
1040.335 .0253683
1040.918 .0253427
1041.500 .0253148
1042.081 .0252849
1042.663 .0252540
1043.244 .0252230
1043.826 .0251914
1044.407 .0251599
1044.988 .0251296
1045.569 .0251005
1046.150 .0250732
1046.730 .0250479
1047.311 .0250240
1047.891 .0250021
1048.471 .0249820
1049.052 .0249636
1049.632 .0249463
1050.211 .0249309
1050.791 .0249168
1051.371 .0249046
1051.950 .0248948
1052.530 .0248865
1053.109 .0248800
1053.688 .0248748
1054.268 .0248701
1054.847 .0248655
1055.426 .0248590
1056.005 .0248508
1056.583 .0248411
1057.162 .0248296
1057.741 .0248154
1058.319 .0248005
1058.898 .0247860
1059.476 .0247720
1060.055 .0247589
1060.633 .0247468
1061.211 .0247350
1061.790 .0247243
1062.368 .0247141
1062.946 .0247029
1063.524 .0246931
1064.102 .0246844
1064.680 .0246768
1065.258 .0246715
1065.836 .0246685
1066.414 .0246676
1066.992 .0246683
1067.570 .0246713
1068.148 .0246737
1068.726 .0246753
1069.304 .0246776
1069.882 .0246785
1070.460 .0246805
1071.038 .0246836
1071.616 .0246872
1072.194 .0246928
1072.772 .0246999
1073.350 .0247076
1073.928 .0247147
1074.506 .0247221
1075.084 .0247294
1075.662 .0247354
1076.240 .0247410
1076.819 .0247456
1077.397 .0247495
1077.976 .0247556
1078.554 .0247617
1079.133 .0247669
1079.711 .0247717
1080.290 .0247766
1080.869 .0247801
1081.448 .0247817
1082.027 .0247817
1082.606 .0247813
1083.185 .0247802
1083.764 .0247803
1084.343 .0247803
1084.923 .0247825
1085.502 .0247882
1086.082 .0247965
1086.662 .0248077
1087.242 .0248221
1087.822 .0248388
1088.402 .0248569
1088.983 .0248773
1089.563 .0248995
1090.144 .0249210
1090.725 .0249441
1091.306 .0249698
1091.887 .0249965
1092.469 .0250263
1093.050 .0250590
1093.632 .0250960
1094.214 .0251371
1094.796 .0251809
1095.379 .0252254
1095.961 .0252712
1096.544 .0253179
1097.127 .0253631
1097.710 .0254065
1098.294 .0254505
1098.877 .0254926
1099.461 .0255347
1100.046 .0255760
1100.630 .0256162
1101.215 .0256545
1101.800 .0256902
1102.385 .0257226
1102.970 .0257523
1103.556 .0257774
1104.142 .0257988
1104.728 .0258171
1105.315 .0258354
1105.902 .0258518
1106.489 .0258687
1107.077 .0258869
1107.664 .0259073
1108.253 .0259277
1108.841 .0259508
1109.430 .0259771
1110.019 .0260063
1110.609 .0260378
1111.198 .0260722
1111.789 .0261122
1112.379 .0261573
1112.970 .0262065
1113.561 .0262613
1114.153 .0263200
1114.745 .0263825
1115.338 .0264431
1115.931 .0265031
1116.524 .0265638
1117.117 .0266235
1117.712 .0266816
1118.306 .0267408
1118.901 .0268045
1119.496 .0268712
1120.092 .0269420
1120.689 .0270186
1121.285 .0270983
1121.882 .0271797
1122.480 .0272600
1123.078 .0273383
1123.677 .0274156
1124.276 .0274928
1124.875 .0275696
1125.476 .0276527
1126.076 .0277437
1126.677 .0278414
1127.279 .0279469
1127.881 .0280562
1128.484 .0281661
1129.087 .0282715
1129.691 .0283708
1130.295 .0284640
1130.900 .0285508
1131.505 .0286362
1132.111 .0287211
1132.718 .0288131
1133.325 .0289100
1133.933 .0290068
1134.541 .0291041
1135.150 .0291983
1135.760 .0292844
1136.370 .0293610
1136.981 .0294297
1137.592 .0294925
1138.204 .0295571
1138.817 .0296220
1139.431 .0296903
1140.045 .0297662
1140.660 .0298483
1141.275 .0299473
1141.891 .0300609
1142.508 .0301249
1143.126 .0302180
1143.744 .0302634
1144.363 .0307329
1144.983 .0309721
