Measurement Sequence started on: 15-12-46-377
Integration time: 28
Scans to Average: 2 
>>>>>Begin Spectral Data<<<<<
432.689 .0000100
433.621 .0000100
434.552 .0000100
435.482 .0000100
436.410 .0000100
437.337 .0000100
438.262 .0276046
439.187 .0584941
440.110 .0968958
441.031 .1401966
441.952 .1821940
442.871 .2152017
443.789 .2332168
444.705 .2341971
445.621 .2206885
446.535 .1982388
447.447 .1728573
448.359 .1340873
449.269 .1148995
450.178 .1027985
451.086 .0942669
451.993 .0877428
452.898 .0825539
453.803 .0782954
454.706 .0747481
455.608 .0717309
456.508 .0691237
457.408 .0668864
458.306 .0649203
459.204 .0631599
460.100 .0615687
460.995 .0601293
461.888 .0588190
462.781 .0576152
463.673 .0565010
464.563 .0554795
465.452 .0545464
466.340 .0536895
467.228 .0529030
468.114 .0521711
468.999 .0514951
469.882 .0508620
470.765 .0502639
471.647 .0497048
472.528 .0491768
473.407 .0486819
474.286 .0482378
475.163 .0478398
476.040 .0474974
476.915 .0472031
477.790 .0469550
478.663 .0467361
479.535 .0465380
480.407 .0463534
481.277 .0461826
482.147 .0460213
483.015 .0458757
483.883 .0457461
484.749 .0456391
485.615 .0455571
486.479 .0454990
487.343 .0454643
488.206 .0454576
489.067 .0454635
489.928 .0454784
490.788 .0454926
491.647 .0455150
492.505 .0455499
493.362 .0455952
494.218 .0456589
495.073 .0457402
495.928 .0458469
496.781 .0459779
497.634 .0461400
498.486 .0463337
499.337 .0465517
500.187 .0467953
501.036 .0470601
501.884 .0473481
502.731 .0476593
503.578 .0480001
504.424 .0483868
505.268 .0488172
506.113 .0492914
506.956 .0498071
507.798 .0503867
508.640 .0510342
509.480 .0517614
510.320 .0525714
511.160 .0534748
511.998 .0544733
512.836 .0555806
513.672 .0568040
514.508 .0581519
515.344 .0596370
516.178 .0612714
517.012 .0630728
517.845 .0650781
518.677 .0672976
519.508 .0697708
520.339 .0725846
521.169 .0757790
521.998 .0793524
522.826 .0833682
523.654 .0878057
524.481 .0926686
525.307 .0979872
526.133 .1037556
526.958 .1099184
527.782 .1164216
528.605 .1231465
529.428 .1299518
530.250 .1363929
531.072 .1422733
531.892 .1471450
532.712 .1508156
533.532 .1530553
534.350 .1535641
535.168 .1523324
535.986 .1495314
536.802 .1452811
537.618 .1398637
538.434 .1334987
539.249 .1266658
540.063 .1195213
540.876 .1124416
541.689 .1055932
542.501 .0991853
543.313 .0934131
544.124 .0882681
544.934 .0836740
545.744 .0796381
546.553 .0760414
547.361 .0728619
548.169 .0700532
548.976 .0675295
549.783 .0652180
550.589 .0631084
551.395 .0611775
552.200 .0594375
553.004 .0578654
553.808 .0564577
554.611 .0551988
555.414 .0540841
556.216 .0530720
557.018 .0521401
557.819 .0512810
558.619 .0504692
559.419 .0496804
560.218 .0489157
561.017 .0481737
561.815 .0474424
562.613 .0467407
563.410 .0460771
564.207 .0454442
565.003 .0448497
565.799 .0442783
566.594 .0437279
567.388 .0431999
568.182 .0426787
568.976 .0421636
569.769 .0416521
570.562 .0411533
571.354 .0406637
572.145 .0401888
572.936 .0397330
573.727 .0392946
574.517 .0388715
575.307 .0384640
576.096 .0380676
576.885 .0376803
577.673 .0373028
578.461 .0369332
579.248 .0365756
580.035 .0362303
580.821 .0358996
581.607 .0355868
582.392 .0352925
583.177 .0350200
583.962 .0347699
584.746 .0345436
585.529 .0343415
586.313 .0341605
587.095 .0340013
587.878 .0338572
588.660 .0337261
589.441 .0336063
590.222 .0334944
591.003 .0333893
591.783 .0332915
592.563 .0332013
593.342 .0331171
594.121 .0330383
594.899 .0329663
595.678 .0328988
596.455 .0328355
597.233 .0327759
598.009 .0327185
598.786 .0326639
599.562 .0326115
600.338 .0325600
601.113 .0325106
601.888 .0324629
602.663 .0324158
603.437 .0323708
604.211 .0323279
604.984 .0322860
605.757 .0322436
606.530 .0322017
607.302 .0321600
608.074 .0321179
608.845 .0320762
609.616 .0320356
610.387 .0319963
611.158 .0319591
611.928 .0319235
612.697 .0318903
613.467 .0318597
614.236 .0318315
615.004 .0318045
615.773 .0317790
616.541 .0317542
617.308 .0317298
618.076 .0317064
618.843 .0316849
619.609 .0316654
620.375 .0316478
621.141 .0316323
621.907 .0316187
622.672 .0316063
623.437 .0315944
624.202 .0315816
624.966 .0315684
625.730 .0315537
626.493 .0315368
627.257 .0315186
628.020 .0315003
628.782 .0314818
629.545 .0314635
630.307 .0314462
631.068 .0314296
631.830 .0314140
632.591 .0313985
633.352 .0313823
634.112 .0313648
634.872 .0313455
635.632 .0313231
636.392 .0312983
637.151 .0312722
637.910 .0312446
638.668 .0312160
639.427 .0311878
640.185 .0311601
640.943 .0311330
641.700 .0311063
642.457 .0310803
643.214 .0310544
643.971 .0310284
644.727 .0310018
645.483 .0309748
646.239 .0309486
646.994 .0309236
647.750 .0308994
648.505 .0308768
649.259 .0308560
650.014 .0308367
650.768 .0308186
651.521 .0308011
652.275 .0307841
653.028 .0307671
653.781 .0307494
654.534 .0307305
655.286 .0307103
656.039 .0306891
656.791 .0306663
657.542 .0306424
658.294 .0306178
659.045 .0305927
659.796 .0305672
660.546 .0305418
661.297 .0305167
662.047 .0304922
662.796 .0304677
663.546 .0304422
664.295 .0304164
665.044 .0303895
665.793 .0303618
666.542 .0303339
667.290 .0303060
668.038 .0302786
668.786 .0302515
669.533 .0302246
670.281 .0301982
671.028 .0301714
671.774 .0301446
672.521 .0301174
673.267 .0300904
674.013 .0300635
674.759 .0300368
675.505 .0300109
676.250 .0299860
676.995 .0299620
677.740 .0299382
678.484 .0299143
679.229 .0298909
679.973 .0298673
680.717 .0298431
681.460 .0298192
682.204 .0297956
682.947 .0297723
683.690 .0297498
684.433 .0297274
685.175 .0297055
685.917 .0296842
686.659 .0296630
687.401 .0296416
688.142 .0296205
688.884 .0295997
689.625 .0295792
690.365 .0295592
691.106 .0295401
691.846 .0295213
692.586 .0295037
693.326 .0294873
694.066 .0294716
694.805 .0294572
695.545 .0294433
696.284 .0294294
697.022 .0294158
697.761 .0294017
698.499 .0293865
699.237 .0293707
699.975 .0293542
700.713 .0293371
701.450 .0293195
702.187 .0293020
702.924 .0292848
703.661 .0292683
704.397 .0292522
705.133 .0292365
705.869 .0292214
706.605 .0292067
707.341 .0291919
708.076 .0291776
708.811 .0291639
709.546 .0291506
710.281 .0291379
711.015 .0291259
711.749 .0291147
712.483 .0291041
713.217 .0290932
713.950 .0290822
714.684 .0290709
715.417 .0290591
716.150 .0290469
716.882 .0290344
717.615 .0290221
718.347 .0290103
719.079 .0289992
719.811 .0289885
720.542 .0289781
721.273 .0289680
722.005 .0289573
722.735 .0289461
723.466 .0289344
724.196 .0289218
724.927 .0289088
725.656 .0288955
726.386 .0288820
727.116 .0288682
727.845 .0288544
728.574 .0288402
729.303 .0288258
730.031 .0288111
730.760 .0287959
731.488 .0287806
732.216 .0287660
732.944 .0287523
733.671 .0287396
734.398 .0287286
735.125 .0287191
735.852 .0287111
736.579 .0287045
737.305 .0286989
738.031 .0286946
738.757 .0286908
739.483 .0286873
740.208 .0286838
740.933 .0286799
741.658 .0286755
742.383 .0286700
743.108 .0286634
743.832 .0286556
744.556 .0286461
745.280 .0286354
746.004 .0286238
746.727 .0286115
747.450 .0285987
748.173 .0285854
748.896 .0285716
749.618 .0285571
750.340 .0285421
751.062 .0285269
751.784 .0285114
752.506 .0284959
753.227 .0284804
753.948 .0284646
754.669 .0284487
755.389 .0284324
756.110 .0284152
756.830 .0283972
757.550 .0283780
758.269 .0283575
758.989 .0283355
759.708 .0283127
760.427 .0282891
761.146 .0282652
761.864 .0282415
762.582 .0282181
763.300 .0281954
764.018 .0281737
764.736 .0281528
765.453 .0281328
766.170 .0281141
766.887 .0280961
767.603 .0280787
768.320 .0280617
769.036 .0280453
769.751 .0280292
770.467 .0280133
771.182 .0279977
771.897 .0279819
772.612 .0279661
773.327 .0279498
774.041 .0279333
774.755 .0279164
775.469 .0278994
776.183 .0278822
776.896 .0278649
777.609 .0278478
778.322 .0278304
779.035 .0278132
779.747 .0277963
780.459 .0277800
781.171 .0277642
781.882 .0277491
782.594 .0277351
783.305 .0277224
784.016 .0277111
784.726 .0277011
785.436 .0276924
786.147 .0276843
786.856 .0276766
787.566 .0276686
788.275 .0276600
788.984 .0276506
789.693 .0276404
790.401 .0276293
791.110 .0276168
791.818 .0276037
792.525 .0275900
793.233 .0275763
793.940 .0275626
794.647 .0275492
795.353 .0275360
796.060 .0275229
796.766 .0275097
797.472 .0274960
798.177 .0274817
798.883 .0274668
799.588 .0274509
800.292 .0274350
800.997 .0274192
801.701 .0274042
802.405 .0273903
803.109 .0273787
803.812 .0273689
804.515 .0273605
805.218 .0273523
805.921 .0273440
806.623 .0273343
807.325 .0273233
808.027 .0273103
808.728 .0272960
809.429 .0272808
810.130 .0272654
810.831 .0272502
811.531 .0272362
812.231 .0272231
812.931 .0272108
813.630 .0271980
814.330 .0271853
815.029 .0271716
815.727 .0271570
816.426 .0271421
817.124 .0271277
817.821 .0271140
818.519 .0271018
819.216 .0270914
819.913 .0270833
820.609 .0270771
821.306 .0270726
822.002 .0270693
822.697 .0270674
823.393 .0270664
824.088 .0270659
824.783 .0270660
825.477 .0270673
826.171 .0270691
826.865 .0270718
827.559 .0270755
828.252 .0270801
828.945 .0270852
829.638 .0270904
830.330 .0270954
831.023 .0271003
831.714 .0271042
832.406 .0271074
833.097 .0271095
833.788 .0271111
834.479 .0271118
835.169 .0271122
835.859 .0271125
836.548 .0271136
837.238 .0271151
837.927 .0271170
838.615 .0271195
839.304 .0271223
839.992 .0271250
840.680 .0271276
841.367 .0271300
842.054 .0271324
842.741 .0271343
843.428 .0271367
844.114 .0271394
844.800 .0271430
845.485 .0271471
846.170 .0271517
846.855 .0271565
847.540 .0271610
848.224 .0271644
848.908 .0271670
849.592 .0271689
850.275 .0271695
850.958 .0271692
851.641 .0271680
852.323 .0271661
853.005 .0271636
853.687 .0271599
854.368 .0271556
855.049 .0271505
855.730 .0271445
856.410 .0271371
857.090 .0271283
857.769 .0271185
858.449 .0271073
859.128 .0270951
859.806 .0270818
860.485 .0270680
861.163 .0270539
861.840 .0270396
862.518 .0270251
863.195 .0270109
863.871 .0269967
864.548 .0269827
865.224 .0269687
865.899 .0269548
866.574 .0269405
867.249 .0269261
867.924 .0269120
868.598 .0268985
869.272 .0268855
869.946 .0268739
870.619 .0268630
871.292 .0268537
871.964 .0268453
872.636 .0268372
873.308 .0268294
873.979 .0268218
874.651 .0268137
875.321 .0268051
875.992 .0267967
876.662 .0267891
877.331 .0267823
878.001 .0267771
878.670 .0267728
879.338 .0267690
880.007 .0267658
880.675 .0267621
881.342 .0267577
882.009 .0267524
882.676 .0267459
883.343 .0267383
884.009 .0267298
884.675 .0267208
885.340 .0267112
886.005 .0267016
886.670 .0266921
887.334 .0266822
887.998 .0266717
888.662 .0266606
889.325 .0266487
889.988 .0266366
890.650 .0266243
891.312 .0266120
891.974 .0266001
892.636 .0265889
893.297 .0265786
893.957 .0265690
894.618 .0265605
895.278 .0265529
895.937 .0265457
896.596 .0265388
897.255 .0265315
897.914 .0265235
898.572 .0265150
899.230 .0265057
899.887 .0264956
900.544 .0264845
901.201 .0264726
901.857 .0264599
902.513 .0264462
903.168 .0264315
903.823 .0264152
904.478 .0263971
905.132 .0263770
905.786 .0263542
906.440 .0263294
907.093 .0263030
907.746 .0262754
908.399 .0262472
909.051 .0262190
909.703 .0261909
910.354 .0261629
911.005 .0261350
911.656 .0261068
912.306 .0260784
912.956 .0260495
913.605 .0260200
914.254 .0259903
914.903 .0259603
915.551 .0259306
916.199 .0259017
916.847 .0258741
917.494 .0258478
918.141 .0258228
918.788 .0257990
919.434 .0257767
920.079 .0257549
920.725 .0257336
921.370 .0257125
922.014 .0256916
922.658 .0256705
923.302 .0256487
923.946 .0256266
924.589 .0256039
925.231 .0255811
925.873 .0255580
926.515 .0255341
927.157 .0255098
927.798 .0254844
928.439 .0254574
929.079 .0254286
929.719 .0253982
930.359 .0253658
930.998 .0253323
931.637 .0252982
932.275 .0252643
932.913 .0252311
933.551 .0251992
934.188 .0251692
934.825 .0251408
935.462 .0251141
936.098 .0250887
936.733 .0250649
937.369 .0250434
938.004 .0250239
938.638 .0250066
939.273 .0249917
939.907 .0249795
940.540 .0249693
941.173 .0249608
941.806 .0249540
942.438 .0249484
943.070 .0249435
943.702 .0249389
944.333 .0249340
944.964 .0249288
945.594 .0249234
946.224 .0249168
946.854 .0249097
947.483 .0249021
948.112 .0248937
948.741 .0248843
949.369 .0248752
949.996 .0248659
950.624 .0248566
951.251 .0248475
951.878 .0248381
952.504 .0248276
953.130 .0248167
953.755 .0248050
954.380 .0247926
955.005 .0247804
955.629 .0247685
956.253 .0247566
956.877 .0247461
957.500 .0247369
958.123 .0247282
958.746 .0247205
959.368 .0247139
959.990 .0247072
960.611 .0247006
961.232 .0246941
961.853 .0246876
962.473 .0246818
963.093 .0246764
963.712 .0246707
964.331 .0246645
964.950 .0246587
965.569 .0246531
966.187 .0246479
966.804 .0246440
967.422 .0246411
968.039 .0246396
968.655 .0246392
969.272 .0246393
969.887 .0246397
970.503 .0246400
971.118 .0246397
971.733 .0246389
972.347 .0246373
972.961 .0246355
973.575 .0246346
974.188 .0246345
974.801 .0246357
975.414 .0246375
976.026 .0246400
976.638 .0246425
977.250 .0246449
977.861 .0246469
978.472 .0246476
979.083 .0246478
979.693 .0246473
980.303 .0246460
980.912 .0246446
981.521 .0246432
982.130 .0246420
982.738 .0246412
983.346 .0246409
983.954 .0246406
984.562 .0246406
985.169 .0246402
985.775 .0246396
986.382 .0246381
986.988 .0246364
987.594 .0246340
988.199 .0246317
988.804 .0246301
989.409 .0246292
990.013 .0246290
990.617 .0246302
991.221 .0246325
991.824 .0246364
992.427 .0246412
993.030 .0246476
993.632 .0246549
994.234 .0246638
994.836 .0246737
995.438 .0246852
996.039 .0246976
996.640 .0247109
997.240 .0247248
997.840 .0247391
998.440 .0247531
999.040 .0247673
999.639 .0247810
1000.238 .0247942
1000.836 .0248064
1001.435 .0248174
1002.033 .0248269
1002.630 .0248358
1003.228 .0248439
1003.825 .0248517
1004.422 .0248597
1005.018 .0248691
1005.614 .0248796
1006.210 .0248917
1006.806 .0249046
1007.401 .0249180
1007.996 .0249320
1008.591 .0249461
1009.186 .0249599
1009.780 .0249736
1010.374 .0249877
1010.967 .0250020
1011.561 .0250171
1012.154 .0250332
1012.746 .0250500
1013.339 .0250676
1013.931 .0250852
1014.523 .0251020
1015.115 .0251174
1015.706 .0251315
1016.298 .0251444
1016.888 .0251562
1017.479 .0251677
1018.069 .0251788
1018.660 .0251896
1019.250 .0252013
1019.839 .0252134
1020.429 .0252262
1021.018 .0252396
1021.607 .0252535
1022.195 .0252669
1022.784 .0252801
1023.372 .0252924
1023.960 .0253049
1024.547 .0253176
1025.135 .0253307
1025.722 .0253437
1026.309 .0253578
1026.896 .0253725
1027.483 .0253884
1028.069 .0254050
1028.655 .0254230
1029.241 .0254406
1029.827 .0254586
1030.412 .0254757
1030.997 .0254931
1031.582 .0255104
1032.167 .0255281
1032.752 .0255456
1033.336 .0255633
1033.921 .0255808
1034.505 .0255975
1035.089 .0256127
1035.672 .0256267
1036.256 .0256378
1036.839 .0256465
1037.422 .0256519
1038.005 .0256553
1038.588 .0256571
1039.171 .0256578
1039.753 .0256584
1040.335 .0256595
1040.918 .0256612
1041.500 .0256629
1042.081 .0256648
1042.663 .0256671
1043.244 .0256694
1043.826 .0256709
1044.407 .0256723
1044.988 .0256744
1045.569 .0256777
1046.150 .0256826
1046.730 .0256893
1047.311 .0256984
1047.891 .0257101
1048.471 .0257222
1049.052 .0257349
1049.632 .0257465
1050.211 .0257566
1050.791 .0257628
1051.371 .0257663
1051.950 .0257674
1052.530 .0257663
1053.109 .0257643
1053.688 .0257627
1054.268 .0257621
1054.847 .0257637
1055.426 .0257664
1056.005 .0257702
1056.583 .0257741
1057.162 .0257774
1057.741 .0257776
1058.319 .0257762
1058.898 .0257740
1059.476 .0257711
1060.055 .0257678
1060.633 .0257652
1061.211 .0257626
1061.790 .0257602
1062.368 .0257572
1062.946 .0257527
1063.524 .0257464
1064.102 .0257390
1064.680 .0257290
1065.258 .0257183
1065.836 .0257078
1066.414 .0256981
1066.992 .0256891
1067.570 .0256822
1068.148 .0256760
1068.726 .0256706
1069.304 .0256662
1069.882 .0256626
1070.460 .0256599
1071.038 .0256588
1071.616 .0256565
1072.194 .0256543
1072.772 .0256518
1073.350 .0256485
1073.928 .0256434
1074.506 .0256381
1075.084 .0256317
1075.662 .0256255
1076.240 .0256201
1076.819 .0256157
1077.397 .0256113
1077.976 .0256083
1078.554 .0256041
1079.133 .0255991
1079.711 .0255934
1080.290 .0255877
1080.869 .0255820
1081.448 .0255795
1082.027 .0255794
1082.606 .0255831
1083.185 .0255907
1083.764 .0256011
1084.343 .0256134
1084.923 .0256257
1085.502 .0256364
1086.082 .0256447
1086.662 .0256517
1087.242 .0256565
1087.822 .0256602
1088.402 .0256642
1088.983 .0256688
1089.563 .0256740
1090.144 .0256801
1090.725 .0256867
1091.306 .0256928
1091.887 .0256977
1092.469 .0257023
1093.050 .0257050
1093.632 .0257082
1094.214 .0257093
1094.796 .0257105
1095.379 .0257104
1095.961 .0257103
1096.544 .0257076
1097.127 .0257036
1097.710 .0256994
1098.294 .0256954
1098.877 .0256907
1099.461 .0256877
1100.046 .0256865
1100.630 .0256884
1101.215 .0256920
1101.800 .0256974
1102.385 .0257012
1102.970 .0257052
1103.556 .0257054
1104.142 .0257047
1104.728 .0257048
1105.315 .0257053
1105.902 .0257072
1106.489 .0257136
1107.077 .0257258
1107.664 .0257425
1108.253 .0257631
1108.841 .0257858
1109.430 .0258081
1110.019 .0258290
1110.609 .0258442
1111.198 .0258559
1111.789 .0258675
1112.379 .0258794
1112.970 .0258893
1113.561 .0259004
1114.153 .0259137
1114.745 .0259273
1115.338 .0259428
1115.931 .0259572
1116.524 .0259684
1117.117 .0259778
1117.712 .0259847
1118.306 .0259896
1118.901 .0259958
1119.496 .0260036
1120.092 .0260119
1120.689 .0260230
1121.285 .0260371
1121.882 .0260501
1122.480 .0260627
1123.078 .0260789
1123.677 .0260971
1124.276 .0261143
1124.875 .0261343
1125.476 .0261549
1126.076 .0261836
1126.677 .0262177
1127.279 .0262543
1127.881 .0262936
1128.484 .0263385
1129.087 .0263874
1129.691 .0264405
1130.295 .0265001
1130.900 .0265702
1131.505 .0266486
1132.111 .0267396
1132.718 .0268382
1133.325 .0269454
1133.933 .0270541
1134.541 .0271643
1135.150 .0272688
1135.760 .0273702
1136.370 .0274643
1136.981 .0275562
1137.592 .0276473
1138.204 .0277381
1138.817 .0278278
1139.431 .0279201
1140.045 .0280107
1140.660 .0281070
1141.275 .0282149
1141.891 .0283402
1142.508 .0284169
1143.126 .0284195
1143.744 .0286152
1144.363 .0290937
1144.983 .0293855
