Measurement Sequence started on: 15-12-46-377
Integration time: 28
Scans to Average: 2 
>>>>>Begin Spectral Data<<<<<
432.689 .0000100
433.621 .0000100
434.552 .0000100
435.482 .0000100
436.410 .0000100
437.337 .0000100
438.262 .0274576
439.187 .0581792
440.110 .0964646
441.031 .1396155
441.952 .1815396
442.871 .2145757
443.789 .2326912
444.705 .2338711
445.621 .2206109
446.535 .1983985
447.447 .1732269
448.359 .1346952
449.269 .1156203
450.178 .1035557
451.086 .0951225
451.993 .0887245
452.898 .0837154
453.803 .0796953
454.706 .0763875
455.608 .0736136
456.508 .0712465
457.408 .0692108
458.306 .0674115
459.204 .0657849
460.100 .0642908
460.995 .0629386
461.888 .0616932
462.781 .0605591
463.673 .0595264
464.563 .0585891
465.452 .0577181
466.340 .0568984
467.228 .0561243
468.114 .0553835
468.999 .0546772
469.882 .0539998
470.765 .0533506
471.647 .0527441
472.528 .0521855
473.407 .0516814
474.286 .0512344
475.163 .0508525
476.040 .0505254
476.915 .0502417
477.790 .0499979
478.663 .0497827
479.535 .0495939
480.407 .0494355
481.277 .0493072
482.147 .0492090
483.015 .0491469
483.883 .0491166
484.749 .0491141
485.615 .0491395
486.479 .0491809
487.343 .0492348
488.206 .0492999
489.067 .0493704
489.928 .0494392
490.788 .0495089
491.647 .0495900
492.505 .0496850
493.362 .0498014
494.218 .0499416
495.073 .0501043
495.928 .0502940
496.781 .0504995
497.634 .0507251
498.486 .0509666
499.337 .0512228
500.187 .0514892
501.036 .0517745
501.884 .0520794
502.731 .0524147
503.578 .0527823
504.424 .0531918
505.268 .0536390
506.113 .0541182
506.956 .0546189
507.798 .0551450
508.640 .0556995
509.480 .0562933
510.320 .0569509
511.160 .0577115
511.998 .0585794
512.836 .0595899
513.672 .0607656
514.508 .0621164
515.344 .0636262
516.178 .0653084
517.012 .0671501
517.845 .0691828
518.677 .0714040
519.508 .0738592
520.339 .0766257
521.169 .0798090
521.998 .0834597
522.826 .0876546
523.654 .0924485
524.481 .0978287
525.307 .1037539
526.133 .1101914
526.958 .1170327
527.782 .1241771
528.605 .1314305
529.428 .1387629
530.250 .1456877
531.072 .1520730
531.892 .1575644
532.712 .1619718
533.532 .1650244
534.350 .1664061
535.168 .1659296
535.986 .1636062
536.802 .1595276
537.618 .1539514
538.434 .1470637
539.249 .1394864
540.063 .1314782
540.876 .1234673
541.689 .1156984
542.501 .1084674
543.313 .1019053
544.124 .0960095
544.934 .0906804
545.744 .0858642
546.553 .0814893
547.361 .0775673
548.169 .0740878
548.976 .0709940
549.783 .0682734
550.589 .0658929
551.395 .0637971
552.200 .0619667
553.004 .0603528
553.808 .0589018
554.611 .0575938
555.414 .0564065
556.216 .0553101
557.018 .0542978
557.819 .0533761
558.619 .0525173
559.419 .0517150
560.218 .0509686
561.017 .0502567
561.815 .0495632
562.613 .0488973
563.410 .0482457
564.207 .0476124
565.003 .0470010
565.799 .0464026
566.594 .0458182
567.388 .0452623
568.182 .0447214
568.976 .0441888
569.769 .0436730
570.562 .0431689
571.354 .0426718
572.145 .0421869
572.936 .0417092
573.727 .0412433
574.517 .0407878
575.307 .0403455
576.096 .0399130
576.885 .0394931
577.673 .0390890
578.461 .0386997
579.248 .0383315
580.035 .0379828
580.821 .0376540
581.607 .0373498
582.392 .0370688
583.177 .0368124
583.962 .0365797
584.746 .0363702
585.529 .0361814
586.313 .0360126
587.095 .0358585
587.878 .0357169
588.660 .0355867
589.441 .0354665
590.222 .0353556
591.003 .0352525
591.783 .0351569
592.563 .0350677
593.342 .0349848
594.121 .0349061
594.899 .0348311
595.678 .0347600
596.455 .0346933
597.233 .0346301
598.009 .0345690
598.786 .0345095
599.562 .0344516
600.338 .0343940
601.113 .0343374
601.888 .0342821
602.663 .0342276
603.437 .0341746
604.211 .0341235
604.984 .0340745
605.757 .0340276
606.530 .0339830
607.302 .0339394
608.074 .0338966
608.845 .0338544
609.616 .0338112
610.387 .0337685
611.158 .0337268
611.928 .0336858
612.697 .0336453
613.467 .0336068
614.236 .0335696
615.004 .0335332
615.773 .0334981
616.541 .0334637
617.308 .0334299
618.076 .0333963
618.843 .0333630
619.609 .0333294
620.375 .0332965
621.141 .0332634
621.907 .0332296
622.672 .0331965
623.437 .0331625
624.202 .0331280
624.966 .0330935
625.730 .0330595
626.493 .0330255
627.257 .0329915
628.020 .0329579
628.782 .0329240
629.545 .0328901
630.307 .0328556
631.068 .0328211
631.830 .0327868
632.591 .0327534
633.352 .0327209
634.112 .0326899
634.872 .0326608
635.632 .0326327
636.392 .0326058
637.151 .0325795
637.910 .0325536
638.668 .0325277
639.427 .0325020
640.185 .0324773
640.943 .0324534
641.700 .0324305
642.457 .0324088
643.214 .0323879
643.971 .0323668
644.727 .0323459
645.483 .0323244
646.239 .0323022
646.994 .0322798
647.750 .0322573
648.505 .0322353
649.259 .0322144
650.014 .0321944
650.768 .0321755
651.521 .0321574
652.275 .0321390
653.028 .0321195
653.781 .0320991
654.534 .0320782
655.286 .0320559
656.039 .0320328
656.791 .0320096
657.542 .0319848
658.294 .0319592
659.045 .0319325
659.796 .0319042
660.546 .0318742
661.297 .0318425
662.047 .0318092
662.796 .0317743
663.546 .0317392
664.295 .0317037
665.044 .0316683
665.793 .0316340
666.542 .0316004
667.290 .0315675
668.038 .0315363
668.786 .0315066
669.533 .0314778
670.281 .0314498
671.028 .0314227
671.774 .0313960
672.521 .0313701
673.267 .0313448
674.013 .0313203
674.759 .0312964
675.505 .0312740
676.250 .0312521
676.995 .0312309
677.740 .0312102
678.484 .0311901
679.229 .0311695
679.973 .0311482
680.717 .0311261
681.460 .0311032
682.204 .0310798
682.947 .0310564
683.690 .0310324
684.433 .0310085
685.175 .0309841
685.917 .0309597
686.659 .0309347
687.401 .0309096
688.142 .0308839
688.884 .0308579
689.625 .0308312
690.365 .0308042
691.106 .0307761
691.846 .0307477
692.586 .0307192
693.326 .0306902
694.066 .0306606
694.805 .0306314
695.545 .0306023
696.284 .0305738
697.022 .0305456
697.761 .0305185
698.499 .0304918
699.237 .0304657
699.975 .0304397
700.713 .0304141
701.450 .0303892
702.187 .0303653
702.924 .0303421
703.661 .0303208
704.397 .0303015
705.133 .0302841
705.869 .0302683
706.605 .0302543
707.341 .0302418
708.076 .0302302
708.811 .0302191
709.546 .0302081
710.281 .0301970
711.015 .0301860
711.749 .0301748
712.483 .0301636
713.217 .0301518
713.950 .0301399
714.684 .0301270
715.417 .0301136
716.150 .0300991
716.882 .0300839
717.615 .0300682
718.347 .0300525
719.079 .0300365
719.811 .0300204
720.542 .0300043
721.273 .0299886
722.005 .0299737
722.735 .0299594
723.466 .0299454
724.196 .0299323
724.927 .0299196
725.656 .0299079
726.386 .0298959
727.116 .0298847
727.845 .0298739
728.574 .0298635
729.303 .0298533
730.031 .0298432
730.760 .0298334
731.488 .0298242
732.216 .0298152
732.944 .0298065
733.671 .0297974
734.398 .0297885
735.125 .0297794
735.852 .0297698
736.579 .0297600
737.305 .0297506
738.031 .0297409
738.757 .0297315
739.483 .0297217
740.208 .0297117
740.933 .0297015
741.658 .0296908
742.383 .0296790
743.108 .0296662
743.832 .0296527
744.556 .0296384
745.280 .0296237
746.004 .0296087
746.727 .0295930
747.450 .0295766
748.173 .0295593
748.896 .0295407
749.618 .0295209
750.340 .0295003
751.062 .0294790
751.784 .0294574
752.506 .0294356
753.227 .0294134
753.948 .0293909
754.669 .0293679
755.389 .0293437
756.110 .0293177
756.830 .0292902
757.550 .0292613
758.269 .0292314
758.989 .0292013
759.708 .0291714
760.427 .0291421
761.146 .0291140
761.864 .0290864
762.582 .0290597
763.300 .0290335
764.018 .0290080
764.736 .0289828
765.453 .0289584
766.170 .0289349
766.887 .0289127
767.603 .0288923
768.320 .0288738
769.036 .0288568
769.751 .0288415
770.467 .0288270
771.182 .0288133
771.897 .0287995
772.612 .0287861
773.327 .0287732
774.041 .0287607
774.755 .0287483
775.469 .0287364
776.183 .0287247
776.896 .0287131
777.609 .0287008
778.322 .0286880
779.035 .0286740
779.747 .0286597
780.459 .0286449
781.171 .0286306
781.882 .0286171
782.594 .0286054
783.305 .0285952
784.016 .0285873
784.726 .0285812
785.436 .0285763
786.147 .0285723
786.856 .0285689
787.566 .0285653
788.275 .0285617
788.984 .0285582
789.693 .0285552
790.401 .0285525
791.110 .0285507
791.818 .0285491
792.525 .0285481
793.233 .0285474
793.940 .0285460
794.647 .0285438
795.353 .0285409
796.060 .0285370
796.766 .0285322
797.472 .0285267
798.177 .0285211
798.883 .0285158
799.588 .0285113
800.292 .0285075
800.997 .0285049
801.701 .0285035
802.405 .0285030
803.109 .0285030
803.812 .0285033
804.515 .0285037
805.218 .0285033
805.921 .0285025
806.623 .0285007
807.325 .0284984
808.027 .0284960
808.728 .0284936
809.429 .0284910
810.130 .0284884
810.831 .0284856
811.531 .0284823
812.231 .0284781
812.931 .0284733
813.630 .0284675
814.330 .0284611
815.029 .0284545
815.727 .0284479
816.426 .0284413
817.124 .0284353
817.821 .0284298
818.519 .0284252
819.216 .0284213
819.913 .0284176
820.609 .0284140
821.306 .0284108
822.002 .0284082
822.697 .0284059
823.393 .0284040
824.088 .0284027
824.783 .0284014
825.477 .0283997
826.171 .0283975
826.865 .0283949
827.559 .0283923
828.252 .0283893
828.945 .0283860
829.638 .0283823
830.330 .0283784
831.023 .0283743
831.714 .0283697
832.406 .0283647
833.097 .0283586
833.788 .0283511
834.479 .0283425
835.169 .0283328
835.859 .0283227
836.548 .0283120
837.238 .0283013
837.927 .0282905
838.615 .0282793
839.304 .0282672
839.992 .0282545
840.680 .0282409
841.367 .0282264
842.054 .0282109
842.741 .0281944
843.428 .0281773
844.114 .0281600
844.800 .0281426
845.485 .0281250
846.170 .0281068
846.855 .0280879
847.540 .0280679
848.224 .0280472
848.908 .0280258
849.592 .0280040
850.275 .0279822
850.958 .0279607
851.641 .0279393
852.323 .0279176
853.005 .0278957
853.687 .0278726
854.368 .0278480
855.049 .0278223
855.730 .0277948
856.410 .0277662
857.090 .0277374
857.769 .0277087
858.449 .0276802
859.128 .0276529
859.806 .0276263
860.485 .0276003
861.163 .0275748
861.840 .0275497
862.518 .0275245
863.195 .0274998
863.871 .0274758
864.548 .0274522
865.224 .0274298
865.899 .0274083
866.574 .0273875
867.249 .0273674
867.924 .0273476
868.598 .0273278
869.272 .0273081
869.946 .0272887
870.619 .0272690
871.292 .0272493
871.964 .0272294
872.636 .0272090
873.308 .0271880
873.979 .0271663
874.651 .0271437
875.321 .0271205
875.992 .0270972
876.662 .0270740
877.331 .0270512
878.001 .0270289
878.670 .0270075
879.338 .0269867
880.007 .0269661
880.675 .0269460
881.342 .0269260
882.009 .0269067
882.676 .0268880
883.343 .0268704
884.009 .0268539
884.675 .0268389
885.340 .0268252
886.005 .0268130
886.670 .0268020
887.334 .0267928
887.998 .0267852
888.662 .0267797
889.325 .0267764
889.988 .0267756
890.650 .0267771
891.312 .0267805
891.974 .0267853
892.636 .0267911
893.297 .0267966
893.957 .0268020
894.618 .0268065
895.278 .0268104
895.937 .0268138
896.596 .0268173
897.255 .0268209
897.914 .0268249
898.572 .0268292
899.230 .0268337
899.887 .0268381
900.544 .0268423
901.201 .0268456
901.857 .0268482
902.513 .0268503
903.168 .0268510
903.823 .0268504
904.478 .0268490
905.132 .0268464
905.786 .0268432
906.440 .0268396
907.093 .0268356
907.746 .0268316
908.399 .0268276
909.051 .0268238
909.703 .0268196
910.354 .0268151
911.005 .0268100
911.656 .0268040
912.306 .0267970
912.956 .0267892
913.605 .0267809
914.254 .0267730
914.903 .0267659
915.551 .0267602
916.199 .0267563
916.847 .0267541
917.494 .0267538
918.141 .0267551
918.788 .0267575
919.434 .0267611
920.079 .0267646
920.725 .0267683
921.370 .0267716
922.014 .0267747
922.658 .0267770
923.302 .0267788
923.946 .0267802
924.589 .0267804
925.231 .0267791
925.873 .0267765
926.515 .0267726
927.157 .0267676
927.798 .0267613
928.439 .0267538
929.079 .0267452
929.719 .0267359
930.359 .0267251
930.998 .0267137
931.637 .0267018
932.275 .0266897
932.913 .0266769
933.551 .0266645
934.188 .0266524
934.825 .0266410
935.462 .0266308
936.098 .0266219
936.733 .0266147
937.369 .0266091
938.004 .0266043
938.638 .0266007
939.273 .0265979
939.907 .0265961
940.540 .0265949
941.173 .0265950
941.806 .0265961
942.438 .0265986
943.070 .0266022
943.702 .0266073
944.333 .0266128
944.964 .0266186
945.594 .0266240
946.224 .0266289
946.854 .0266331
947.483 .0266362
948.112 .0266384
948.741 .0266396
949.369 .0266399
949.996 .0266390
950.624 .0266363
951.251 .0266322
951.878 .0266263
952.504 .0266187
953.130 .0266092
953.755 .0265982
954.380 .0265857
955.005 .0265723
955.629 .0265583
956.253 .0265436
956.877 .0265289
957.500 .0265142
958.123 .0264996
958.746 .0264847
959.368 .0264693
959.990 .0264534
960.611 .0264367
961.232 .0264198
961.853 .0264020
962.473 .0263841
963.093 .0263659
963.712 .0263474
964.331 .0263284
964.950 .0263091
965.569 .0262897
966.187 .0262702
966.804 .0262510
967.422 .0262323
968.039 .0262139
968.655 .0261964
969.272 .0261797
969.887 .0261638
970.503 .0261489
971.118 .0261347
971.733 .0261206
972.347 .0261067
972.961 .0260925
973.575 .0260775
974.188 .0260615
974.801 .0260444
975.414 .0260264
976.026 .0260064
976.638 .0259852
977.250 .0259628
977.861 .0259393
978.472 .0259154
979.083 .0258904
979.693 .0258643
980.303 .0258373
980.912 .0258088
981.521 .0257790
982.130 .0257484
982.738 .0257174
983.346 .0256864
983.954 .0256558
984.562 .0256262
985.169 .0255973
985.775 .0255694
986.382 .0255425
986.988 .0255159
987.594 .0254894
988.199 .0254625
988.804 .0254357
989.409 .0254097
990.013 .0253849
990.617 .0253615
991.221 .0253394
991.824 .0253189
992.427 .0252997
993.030 .0252813
993.632 .0252637
994.234 .0252469
994.836 .0252307
995.438 .0252149
996.039 .0251996
996.640 .0251851
997.240 .0251716
997.840 .0251599
998.440 .0251496
999.040 .0251396
999.639 .0251298
1000.238 .0251200
1000.836 .0251092
1001.435 .0250973
1002.033 .0250840
1002.630 .0250690
1003.228 .0250529
1003.825 .0250361
1004.422 .0250187
1005.018 .0250014
1005.614 .0249853
1006.210 .0249696
1006.806 .0249536
1007.401 .0249376
1007.996 .0249207
1008.591 .0249027
1009.186 .0248846
1009.780 .0248660
1010.374 .0248470
1010.967 .0248288
1011.561 .0248116
1012.154 .0247957
1012.746 .0247812
1013.339 .0247682
1013.931 .0247561
1014.523 .0247446
1015.115 .0247333
1015.706 .0247219
1016.298 .0247116
1016.888 .0247025
1017.479 .0246944
1018.069 .0246877
1018.660 .0246824
1019.250 .0246785
1019.839 .0246755
1020.429 .0246736
1021.018 .0246726
1021.607 .0246728
1022.195 .0246735
1022.784 .0246751
1023.372 .0246775
1023.960 .0246806
1024.547 .0246835
1025.135 .0246863
1025.722 .0246889
1026.309 .0246911
1026.896 .0246932
1027.483 .0246964
1028.069 .0247001
1028.655 .0247056
1029.241 .0247122
1029.827 .0247198
1030.412 .0247280
1030.997 .0247376
1031.582 .0247482
1032.167 .0247598
1032.752 .0247730
1033.336 .0247878
1033.921 .0248044
1034.505 .0248233
1035.089 .0248431
1035.672 .0248635
1036.256 .0248836
1036.839 .0249026
1037.422 .0249195
1038.005 .0249350
1038.588 .0249489
1039.171 .0249613
1039.753 .0249729
1040.335 .0249840
1040.918 .0249937
1041.500 .0250032
1042.081 .0250122
1042.663 .0250201
1043.244 .0250280
1043.826 .0250348
1044.407 .0250415
1044.988 .0250496
1045.569 .0250583
1046.150 .0250679
1046.730 .0250787
1047.311 .0250912
1047.891 .0251040
1048.471 .0251173
1049.052 .0251317
1049.632 .0251468
1050.211 .0251633
1050.791 .0251816
1051.371 .0251996
1051.950 .0252194
1052.530 .0252404
1053.109 .0252611
1053.688 .0252812
1054.268 .0253006
1054.847 .0253188
1055.426 .0253367
1056.005 .0253539
1056.583 .0253717
1057.162 .0253888
1057.741 .0254072
1058.319 .0254251
1058.898 .0254425
1059.476 .0254589
1060.055 .0254740
1060.633 .0254864
1061.211 .0254967
1061.790 .0255051
1062.368 .0255133
1062.946 .0255219
1063.524 .0255332
1064.102 .0255473
1064.680 .0255648
1065.258 .0255848
1065.836 .0256081
1066.414 .0256328
1066.992 .0256601
1067.570 .0256885
1068.148 .0257171
1068.726 .0257455
1069.304 .0257746
1069.882 .0258033
1070.460 .0258313
1071.038 .0258586
1071.616 .0258838
1072.194 .0259067
1072.772 .0259281
1073.350 .0259467
1073.928 .0259636
1074.506 .0259781
1075.084 .0259911
1075.662 .0260022
1076.240 .0260119
1076.819 .0260205
1077.397 .0260276
1077.976 .0260352
1078.554 .0260426
1079.133 .0260493
1079.711 .0260570
1080.290 .0260663
1080.869 .0260781
1081.448 .0260928
1082.027 .0261097
1082.606 .0261282
1083.185 .0261491
1083.764 .0261705
1084.343 .0261925
1084.923 .0262130
1085.502 .0262326
1086.082 .0262507
1086.662 .0262672
1087.242 .0262832
1087.822 .0262980
1088.402 .0263140
1088.983 .0263328
1089.563 .0263523
1090.144 .0263741
1090.725 .0263982
1091.306 .0264229
1091.887 .0264477
1092.469 .0264707
1093.050 .0264902
1093.632 .0265079
1094.214 .0265236
1094.796 .0265398
1095.379 .0265559
1095.961 .0265753
1096.544 .0265986
1097.127 .0266243
1097.710 .0266539
1098.294 .0266845
1098.877 .0267159
1099.461 .0267475
1100.046 .0267775
1100.630 .0268047
1101.215 .0268299
1101.800 .0268539
1102.385 .0268759
1102.970 .0268965
1103.556 .0269163
1104.142 .0269354
1104.728 .0269547
1105.315 .0269756
1105.902 .0269967
1106.489 .0270153
1107.077 .0270340
1107.664 .0270496
1108.253 .0270620
1108.841 .0270694
1109.430 .0270742
1110.019 .0270764
1110.609 .0270776
1111.198 .0270789
1111.789 .0270829
1112.379 .0270937
1112.970 .0271143
1113.561 .0271419
1114.153 .0271764
1114.745 .0272163
1115.338 .0272586
1115.931 .0272995
1116.524 .0273401
1117.117 .0273794
1117.712 .0274179
1118.306 .0274569
1118.901 .0275007
1119.496 .0275479
1120.092 .0276006
1120.689 .0276583
1121.285 .0277192
1121.882 .0277771
1122.480 .0278296
1123.078 .0278741
1123.677 .0279100
1124.276 .0279379
1124.875 .0279599
1125.476 .0279781
1126.076 .0279990
1126.677 .0280262
1127.279 .0280608
1127.881 .0281064
1128.484 .0281638
1129.087 .0282264
1129.691 .0282944
1130.295 .0283642
1130.900 .0284380
1131.505 .0285119
1132.111 .0285918
1132.718 .0286795
1133.325 .0287753
1133.933 .0288832
1134.541 .0290030
1135.150 .0291336
1135.760 .0292739
1136.370 .0294191
1136.981 .0295716
1137.592 .0297212
1138.204 .0298721
1138.817 .0300241
1139.431 .0301761
1140.045 .0303322
1140.660 .0304924
1141.275 .0306600
1141.891 .0308568
1142.508 .0309857
1143.126 .0312142
1143.744 .0313929
1144.363 .0316363
1144.983 .0323779
