Measurement Sequence started on: 15-12-46-377
Integration time: 28
Scans to Average: 2 
>>>>>Begin Spectral Data<<<<<
432.689 .0000100
433.621 .0000100
434.552 .0000100
435.482 .0000100
436.410 .0000100
437.337 .0000100
438.262 .0266954
439.187 .0566303
440.110 .0939019
441.031 .1359940
441.952 .1769618
442.871 .2093770
443.789 .2273932
444.705 .2289633
445.621 .2165023
446.535 .1953137
447.447 .1711681
448.359 .1339453
449.269 .1154893
450.178 .1037918
451.086 .0954845
451.993 .0890789
452.898 .0839410
453.803 .0797049
454.706 .0761578
455.608 .0730848
456.508 .0703929
457.408 .0680377
458.306 .0659207
459.204 .0640182
460.100 .0622918
460.995 .0607396
461.888 .0593283
462.781 .0580481
463.673 .0568728
464.563 .0557983
465.452 .0548028
466.340 .0538617
467.228 .0529788
468.114 .0521579
468.999 .0513890
469.882 .0506792
470.765 .0500360
471.647 .0494613
472.528 .0489580
473.407 .0485225
474.286 .0481551
475.163 .0478446
476.040 .0475787
476.915 .0473539
477.790 .0471615
478.663 .0469966
479.535 .0468510
480.407 .0467233
481.277 .0466123
482.147 .0465117
483.015 .0464219
483.883 .0463388
484.749 .0462657
485.615 .0462047
486.479 .0461562
487.343 .0461234
488.206 .0461053
489.067 .0460928
489.928 .0460888
490.788 .0460890
491.647 .0460906
492.505 .0460973
493.362 .0461186
494.218 .0461624
495.073 .0462392
495.928 .0463658
496.781 .0465438
497.634 .0467912
498.486 .0471081
499.337 .0474792
500.187 .0478958
501.036 .0483419
501.884 .0488056
502.731 .0492802
503.578 .0497618
504.424 .0502499
505.268 .0507511
506.113 .0512749
506.956 .0518267
507.798 .0524219
508.640 .0530703
509.480 .0537717
510.320 .0545370
511.160 .0553702
511.998 .0562515
512.836 .0571979
513.672 .0582266
514.508 .0593534
515.344 .0606035
516.178 .0620058
517.012 .0636073
517.845 .0654495
518.677 .0675653
519.508 .0699909
520.339 .0727813
521.169 .0760032
521.998 .0796519
522.826 .0837879
523.654 .0884731
524.481 .0936731
525.307 .0994625
526.133 .1058414
526.958 .1127568
527.782 .1200787
528.605 .1276344
529.428 .1352769
530.250 .1424454
531.072 .1488803
531.892 .1541762
532.712 .1580667
533.532 .1604456
534.350 .1610632
535.168 .1598759
535.986 .1570493
536.802 .1527661
537.618 .1472581
538.434 .1407355
539.249 .1336819
540.063 .1262726
540.876 .1188263
541.689 .1115856
542.501 .1047464
543.313 .0984931
544.124 .0928799
544.934 .0878332
545.744 .0833236
546.553 .0792670
547.361 .0756295
548.169 .0723985
548.976 .0695017
549.783 .0668727
550.589 .0644720
551.395 .0622629
552.200 .0602519
553.004 .0584168
553.808 .0567403
554.611 .0552177
555.414 .0538615
556.216 .0526478
557.018 .0515656
557.819 .0506020
558.619 .0497503
559.419 .0489846
560.218 .0483078
561.017 .0476925
561.815 .0471147
562.613 .0465595
563.410 .0460198
564.207 .0454845
565.003 .0449532
565.799 .0444118
566.594 .0438675
567.388 .0433375
568.182 .0428238
568.976 .0423148
569.769 .0418183
570.562 .0413310
571.354 .0408465
572.145 .0403556
572.936 .0398533
573.727 .0393437
574.517 .0388301
575.307 .0383213
576.096 .0378221
576.885 .0373440
577.673 .0368977
578.461 .0364830
579.248 .0361075
580.035 .0357659
580.821 .0354545
581.607 .0351707
582.392 .0349106
583.177 .0346711
583.962 .0344515
584.746 .0342518
585.529 .0340733
586.313 .0339200
587.095 .0337880
587.878 .0336766
588.660 .0335822
589.441 .0335014
590.222 .0334270
591.003 .0333563
591.783 .0332887
592.563 .0332217
593.342 .0331580
594.121 .0330950
594.899 .0330347
595.678 .0329785
596.455 .0329248
597.233 .0328720
598.009 .0328195
598.786 .0327680
599.562 .0327155
600.338 .0326618
601.113 .0326088
601.888 .0325566
602.663 .0325060
603.437 .0324581
604.211 .0324130
604.984 .0323706
605.757 .0323322
606.530 .0322965
607.302 .0322638
608.074 .0322343
608.845 .0322071
609.616 .0321811
610.387 .0321566
611.158 .0321340
611.928 .0321111
612.697 .0320884
613.467 .0320655
614.236 .0320416
615.004 .0320171
615.773 .0319919
616.541 .0319665
617.308 .0319409
618.076 .0319158
618.843 .0318906
619.609 .0318651
620.375 .0318398
621.141 .0318140
621.907 .0317876
622.672 .0317614
623.437 .0317353
624.202 .0317089
624.966 .0316833
625.730 .0316592
626.493 .0316361
627.257 .0316137
628.020 .0315921
628.782 .0315709
629.545 .0315486
630.307 .0315255
631.068 .0315006
631.830 .0314738
632.591 .0314453
633.352 .0314153
634.112 .0313846
634.872 .0313540
635.632 .0313241
636.392 .0312944
637.151 .0312659
637.910 .0312382
638.668 .0312099
639.427 .0311817
640.185 .0311530
640.943 .0311247
641.700 .0310961
642.457 .0310686
643.214 .0310427
643.971 .0310178
644.727 .0309938
645.483 .0309706
646.239 .0309473
646.994 .0309229
647.750 .0308966
648.505 .0308687
649.259 .0308392
650.014 .0308090
650.768 .0307781
651.521 .0307479
652.275 .0307192
653.028 .0306922
653.781 .0306663
654.534 .0306419
655.286 .0306186
656.039 .0305951
656.791 .0305719
657.542 .0305479
658.294 .0305242
659.045 .0305004
659.796 .0304770
660.546 .0304546
661.297 .0304330
662.047 .0304122
662.796 .0303912
663.546 .0303696
664.295 .0303476
665.044 .0303242
665.793 .0303003
666.542 .0302754
667.290 .0302506
668.038 .0302261
668.786 .0302020
669.533 .0301784
670.281 .0301556
671.028 .0301328
671.774 .0301099
672.521 .0300871
673.267 .0300644
674.013 .0300421
674.759 .0300208
675.505 .0300009
676.250 .0299826
676.995 .0299655
677.740 .0299493
678.484 .0299338
679.229 .0299178
679.973 .0299005
680.717 .0298819
681.460 .0298620
682.204 .0298412
682.947 .0298199
683.690 .0297992
684.433 .0297791
685.175 .0297599
685.917 .0297418
686.659 .0297243
687.401 .0297076
688.142 .0296910
688.884 .0296747
689.625 .0296586
690.365 .0296429
691.106 .0296269
691.846 .0296113
692.586 .0295960
693.326 .0295805
694.066 .0295653
694.805 .0295497
695.545 .0295339
696.284 .0295175
697.022 .0295008
697.761 .0294839
698.499 .0294665
699.237 .0294491
699.975 .0294310
700.713 .0294125
701.450 .0293935
702.187 .0293737
702.924 .0293540
703.661 .0293340
704.397 .0293140
705.133 .0292941
705.869 .0292746
706.605 .0292553
707.341 .0292362
708.076 .0292173
708.811 .0291980
709.546 .0291781
710.281 .0291576
711.015 .0291369
711.749 .0291154
712.483 .0290941
713.217 .0290724
713.950 .0290513
714.684 .0290301
715.417 .0290086
716.150 .0289874
716.882 .0289670
717.615 .0289470
718.347 .0289278
719.079 .0289089
719.811 .0288913
720.542 .0288749
721.273 .0288596
722.005 .0288451
722.735 .0288314
723.466 .0288176
724.196 .0288029
724.927 .0287866
725.656 .0287693
726.386 .0287502
727.116 .0287302
727.845 .0287094
728.574 .0286879
729.303 .0286662
730.031 .0286449
730.760 .0286241
731.488 .0286043
732.216 .0285851
732.944 .0285665
733.671 .0285485
734.398 .0285315
735.125 .0285155
735.852 .0285006
736.579 .0284867
737.305 .0284743
738.031 .0284626
738.757 .0284513
739.483 .0284403
740.208 .0284291
740.933 .0284176
741.658 .0284054
742.383 .0283920
743.108 .0283773
743.832 .0283616
744.556 .0283452
745.280 .0283278
746.004 .0283099
746.727 .0282916
747.450 .0282732
748.173 .0282543
748.896 .0282356
749.618 .0282168
750.340 .0281986
751.062 .0281807
751.784 .0281633
752.506 .0281464
753.227 .0281294
753.948 .0281127
754.669 .0280964
755.389 .0280799
756.110 .0280636
756.830 .0280465
757.550 .0280299
758.269 .0280132
758.989 .0279963
759.708 .0279790
760.427 .0279617
761.146 .0279447
761.864 .0279274
762.582 .0279099
763.300 .0278929
764.018 .0278769
764.736 .0278620
765.453 .0278484
766.170 .0278363
766.887 .0278255
767.603 .0278159
768.320 .0278065
769.036 .0277974
769.751 .0277879
770.467 .0277781
771.182 .0277679
771.897 .0277574
772.612 .0277468
773.327 .0277358
774.041 .0277254
774.755 .0277152
775.469 .0277048
776.183 .0276945
776.896 .0276839
777.609 .0276733
778.322 .0276625
779.035 .0276516
779.747 .0276410
780.459 .0276316
781.171 .0276231
781.882 .0276156
782.594 .0276090
783.305 .0276035
784.016 .0275986
784.726 .0275942
785.436 .0275903
786.147 .0275865
786.856 .0275831
787.566 .0275803
788.275 .0275777
788.984 .0275755
789.693 .0275735
790.401 .0275715
791.110 .0275694
791.818 .0275666
792.525 .0275630
793.233 .0275587
793.940 .0275539
794.647 .0275481
795.353 .0275415
796.060 .0275342
796.766 .0275261
797.472 .0275171
798.177 .0275075
798.883 .0274972
799.588 .0274868
800.292 .0274764
800.997 .0274660
801.701 .0274559
802.405 .0274464
803.109 .0274375
803.812 .0274292
804.515 .0274211
805.218 .0274124
805.921 .0274029
806.623 .0273928
807.325 .0273814
808.027 .0273692
808.728 .0273566
809.429 .0273438
810.130 .0273313
810.831 .0273189
811.531 .0273066
812.231 .0272940
812.931 .0272810
813.630 .0272669
814.330 .0272509
815.029 .0272338
815.727 .0272158
816.426 .0271974
817.124 .0271796
817.821 .0271624
818.519 .0271465
819.216 .0271323
819.913 .0271199
820.609 .0271085
821.306 .0270981
822.002 .0270886
822.697 .0270797
823.393 .0270714
824.088 .0270638
824.783 .0270571
825.477 .0270520
826.171 .0270487
826.865 .0270464
827.559 .0270451
828.252 .0270449
828.945 .0270450
829.638 .0270453
830.330 .0270454
831.023 .0270451
831.714 .0270444
832.406 .0270438
833.097 .0270428
833.788 .0270417
834.479 .0270405
835.169 .0270385
835.859 .0270358
836.548 .0270322
837.238 .0270273
837.927 .0270212
838.615 .0270145
839.304 .0270074
839.992 .0269998
840.680 .0269923
841.367 .0269848
842.054 .0269776
842.741 .0269704
843.428 .0269629
844.114 .0269550
844.800 .0269464
845.485 .0269365
846.170 .0269253
846.855 .0269133
847.540 .0269001
848.224 .0268858
848.908 .0268706
849.592 .0268543
850.275 .0268372
850.958 .0268195
851.641 .0268012
852.323 .0267822
853.005 .0267633
853.687 .0267436
854.368 .0267234
855.049 .0267031
855.730 .0266826
856.410 .0266622
857.090 .0266430
857.769 .0266248
858.449 .0266077
859.128 .0265925
859.806 .0265789
860.485 .0265667
861.163 .0265556
861.840 .0265447
862.518 .0265330
863.195 .0265205
863.871 .0265069
864.548 .0264922
865.224 .0264772
865.899 .0264625
866.574 .0264481
867.249 .0264344
867.924 .0264209
868.598 .0264072
869.272 .0263929
869.946 .0263778
870.619 .0263609
871.292 .0263429
871.964 .0263239
872.636 .0263048
873.308 .0262865
873.979 .0262691
874.651 .0262529
875.321 .0262378
875.992 .0262240
876.662 .0262108
877.331 .0261980
878.001 .0261852
878.670 .0261722
879.338 .0261592
880.007 .0261461
880.675 .0261331
881.342 .0261204
882.009 .0261084
882.676 .0260971
883.343 .0260866
884.009 .0260768
884.675 .0260679
885.340 .0260600
886.005 .0260521
886.670 .0260444
887.334 .0260362
887.998 .0260272
888.662 .0260177
889.325 .0260077
889.988 .0259977
890.650 .0259878
891.312 .0259788
891.974 .0259708
892.636 .0259642
893.297 .0259594
893.957 .0259557
894.618 .0259529
895.278 .0259499
895.937 .0259464
896.596 .0259418
897.255 .0259365
897.914 .0259305
898.572 .0259237
899.230 .0259169
899.887 .0259100
900.544 .0259033
901.201 .0258962
901.857 .0258889
902.513 .0258809
903.168 .0258713
903.823 .0258600
904.478 .0258467
905.132 .0258316
905.786 .0258152
906.440 .0257977
907.093 .0257793
907.746 .0257610
908.399 .0257431
909.051 .0257255
909.703 .0257088
910.354 .0256927
911.005 .0256771
911.656 .0256614
912.306 .0256460
912.956 .0256311
913.605 .0256163
914.254 .0256023
914.903 .0255884
915.551 .0255751
916.199 .0255624
916.847 .0255496
917.494 .0255371
918.141 .0255249
918.788 .0255130
919.434 .0255011
920.079 .0254892
920.725 .0254782
921.370 .0254676
922.014 .0254576
922.658 .0254481
923.302 .0254388
923.946 .0254291
924.589 .0254190
925.231 .0254075
925.873 .0253950
926.515 .0253811
927.157 .0253656
927.798 .0253489
928.439 .0253314
929.079 .0253135
929.719 .0252953
930.359 .0252772
930.998 .0252596
931.637 .0252418
932.275 .0252239
932.913 .0252053
933.551 .0251861
934.188 .0251662
934.825 .0251460
935.462 .0251259
936.098 .0251064
936.733 .0250882
937.369 .0250714
938.004 .0250563
938.638 .0250430
939.273 .0250313
939.907 .0250209
940.540 .0250112
941.173 .0250025
941.806 .0249945
942.438 .0249873
943.070 .0249813
943.702 .0249764
944.333 .0249725
944.964 .0249693
945.594 .0249668
946.224 .0249644
946.854 .0249625
947.483 .0249607
948.112 .0249594
948.741 .0249581
949.369 .0249574
949.996 .0249568
950.624 .0249563
951.251 .0249556
951.878 .0249544
952.504 .0249517
953.130 .0249480
953.755 .0249428
954.380 .0249366
955.005 .0249292
955.629 .0249216
956.253 .0249139
956.877 .0249066
957.500 .0248995
958.123 .0248932
958.746 .0248873
959.368 .0248824
959.990 .0248776
960.611 .0248735
961.232 .0248699
961.853 .0248668
962.473 .0248640
963.093 .0248617
963.712 .0248594
964.331 .0248572
964.950 .0248544
965.569 .0248521
966.187 .0248498
966.804 .0248484
967.422 .0248477
968.039 .0248483
968.655 .0248498
969.272 .0248518
969.887 .0248532
970.503 .0248540
971.118 .0248536
971.733 .0248520
972.347 .0248495
972.961 .0248471
973.575 .0248450
974.188 .0248441
974.801 .0248443
975.414 .0248458
976.026 .0248477
976.638 .0248496
977.250 .0248502
977.861 .0248496
978.472 .0248475
979.083 .0248433
979.693 .0248375
980.303 .0248307
980.912 .0248234
981.521 .0248153
982.130 .0248068
982.738 .0247985
983.346 .0247899
983.954 .0247810
984.562 .0247715
985.169 .0247609
985.775 .0247495
986.382 .0247373
986.988 .0247240
987.594 .0247098
988.199 .0246958
988.804 .0246824
989.409 .0246700
990.013 .0246598
990.617 .0246519
991.221 .0246462
991.824 .0246434
992.427 .0246430
993.030 .0246439
993.632 .0246463
994.234 .0246499
994.836 .0246548
995.438 .0246607
996.039 .0246678
996.640 .0246757
997.240 .0246851
997.840 .0246957
998.440 .0247060
999.040 .0247154
999.639 .0247241
1000.238 .0247305
1000.836 .0247344
1001.435 .0247355
1002.033 .0247345
1002.630 .0247317
1003.228 .0247272
1003.825 .0247214
1004.422 .0247156
1005.018 .0247100
1005.614 .0247047
1006.210 .0246996
1006.806 .0246955
1007.401 .0246918
1007.996 .0246883
1008.591 .0246855
1009.186 .0246834
1009.780 .0246828
1010.374 .0246831
1010.967 .0246845
1011.561 .0246872
1012.154 .0246899
1012.746 .0246919
1013.339 .0246932
1013.931 .0246933
1014.523 .0246920
1015.115 .0246892
1015.706 .0246865
1016.298 .0246839
1016.888 .0246830
1017.479 .0246832
1018.069 .0246853
1018.660 .0246884
1019.250 .0246921
1019.839 .0246945
1020.429 .0246966
1021.018 .0246974
1021.607 .0246977
1022.195 .0246980
1022.784 .0246995
1023.372 .0247026
1023.960 .0247082
1024.547 .0247156
1025.135 .0247248
1025.722 .0247345
1026.309 .0247443
1026.896 .0247525
1027.483 .0247597
1028.069 .0247650
1028.655 .0247688
1029.241 .0247722
1029.827 .0247756
1030.412 .0247792
1030.997 .0247841
1031.582 .0247900
1032.167 .0247966
1032.752 .0248039
1033.336 .0248113
1033.921 .0248184
1034.505 .0248241
1035.089 .0248278
1035.672 .0248285
1036.256 .0248269
1036.839 .0248232
1037.422 .0248182
1038.005 .0248133
1038.588 .0248093
1039.171 .0248063
1039.753 .0248046
1040.335 .0248038
1040.918 .0248035
1041.500 .0248027
1042.081 .0248005
1042.663 .0247960
1043.244 .0247894
1043.826 .0247812
1044.407 .0247724
1044.988 .0247645
1045.569 .0247580
1046.150 .0247531
1046.730 .0247505
1047.311 .0247495
1047.891 .0247490
1048.471 .0247490
1049.052 .0247484
1049.632 .0247465
1050.211 .0247435
1050.791 .0247397
1051.371 .0247358
1051.950 .0247334
1052.530 .0247328
1053.109 .0247337
1053.688 .0247360
1054.268 .0247390
1054.847 .0247411
1055.426 .0247424
1056.005 .0247418
1056.583 .0247388
1057.162 .0247345
1057.741 .0247295
1058.319 .0247243
1058.898 .0247204
1059.476 .0247187
1060.055 .0247192
1060.633 .0247213
1061.211 .0247234
1061.790 .0247249
1062.368 .0247250
1062.946 .0247230
1063.524 .0247192
1064.102 .0247142
1064.680 .0247096
1065.258 .0247060
1065.836 .0247042
1066.414 .0247047
1066.992 .0247063
1067.570 .0247097
1068.148 .0247126
1068.726 .0247138
1069.304 .0247137
1069.882 .0247118
1070.460 .0247076
1071.038 .0247031
1071.616 .0246980
1072.194 .0246943
1072.772 .0246926
1073.350 .0246922
1073.928 .0246927
1074.506 .0246927
1075.084 .0246924
1075.662 .0246903
1076.240 .0246873
1076.819 .0246843
1077.397 .0246800
1077.976 .0246768
1078.554 .0246746
1079.133 .0246731
1079.711 .0246720
1080.290 .0246710
1080.869 .0246676
1081.448 .0246620
1082.027 .0246526
1082.606 .0246391
1083.185 .0246242
1083.764 .0246091
1084.343 .0245952
1084.923 .0245825
1085.502 .0245736
1086.082 .0245685
1086.662 .0245665
1087.242 .0245681
1087.822 .0245721
1088.402 .0245783
1088.983 .0245863
1089.563 .0245954
1090.144 .0246061
1090.725 .0246217
1091.306 .0246393
1091.887 .0246603
1092.469 .0246855
1093.050 .0247127
1093.632 .0247406
1094.214 .0247668
1094.796 .0247912
1095.379 .0248113
1095.961 .0248260
1096.544 .0248349
1097.127 .0248369
1097.710 .0248352
1098.294 .0248288
1098.877 .0248200
1099.461 .0248103
1100.046 .0248013
1100.630 .0247913
1101.215 .0247839
1101.800 .0247787
1102.385 .0247763
1102.970 .0247764
1103.556 .0247812
1104.142 .0247931
1104.728 .0248115
1105.315 .0248367
1105.902 .0248678
1106.489 .0249032
1107.077 .0249413
1107.664 .0249776
1108.253 .0250116
1108.841 .0250398
1109.430 .0250628
1110.019 .0250810
1110.609 .0250948
1111.198 .0251065
1111.789 .0251188
1112.379 .0251316
1112.970 .0251433
1113.561 .0251527
1114.153 .0251574
1114.745 .0251592
1115.338 .0251585
1115.931 .0251549
1116.524 .0251497
1117.117 .0251497
1117.712 .0251546
1118.306 .0251645
1118.901 .0251818
1119.496 .0252053
1120.092 .0252329
1120.689 .0252661
1121.285 .0253006
1121.882 .0253366
1122.480 .0253747
1123.078 .0254158
1123.677 .0254582
1124.276 .0255035
1124.875 .0255497
1125.476 .0255956
1126.076 .0256445
1126.677 .0256951
1127.279 .0257434
1127.881 .0257935
1128.484 .0258462
1129.087 .0259024
1129.691 .0259672
1130.295 .0260382
1130.900 .0261173
1131.505 .0262066
1132.111 .0263027
1132.718 .0264033
1133.325 .0265100
1133.933 .0266236
1134.541 .0267443
1135.150 .0268709
1135.760 .0270036
1136.370 .0271377
1136.981 .0272815
1137.592 .0274287
1138.204 .0275814
1138.817 .0277315
1139.431 .0278855
1140.045 .0280474
1140.660 .0282164
1141.275 .0283837
1141.891 .0285555
1142.508 .0287172
1143.126 .0290198
1143.744 .0291873
1144.363 .0291293
1144.983 .0293644
