Measurement Sequence started on: 15-12-46-377
Integration time: 28
Scans to Average: 2 
>>>>>Begin Spectral Data<<<<<
432.689 .0000100
433.621 .0000100
434.552 .0000100
435.482 .0000100
436.410 .0000100
437.337 .0000100
438.262 .0270118
439.187 .0572746
440.110 .0949729
441.031 .1375286
441.952 .1788887
442.871 .2114484
443.789 .2293285
444.705 .2304648
445.621 .2173391
446.535 .1953424
447.447 .1704144
448.359 .1323693
449.269 .1134884
450.178 .1015883
451.086 .0932892
451.993 .0870343
452.898 .0821885
453.803 .0782288
454.706 .0749397
455.608 .0720905
456.508 .0695996
457.408 .0673963
458.306 .0654125
459.204 .0636253
460.100 .0619956
460.995 .0605148
461.888 .0591774
462.781 .0579425
463.673 .0568125
464.563 .0557696
465.452 .0548054
466.340 .0538977
467.228 .0530475
468.114 .0522516
468.999 .0515146
469.882 .0508331
470.765 .0502040
471.647 .0496238
472.528 .0491022
473.407 .0486409
474.286 .0482293
475.163 .0478744
476.040 .0475716
476.915 .0473081
477.790 .0470822
478.663 .0468776
479.535 .0466926
480.407 .0465242
481.277 .0463669
482.147 .0462203
483.015 .0460901
483.883 .0459833
484.749 .0458905
485.615 .0458209
486.479 .0457708
487.343 .0457290
488.206 .0456999
489.067 .0456813
489.928 .0456730
490.788 .0456827
491.647 .0457120
492.505 .0457641
493.362 .0458420
494.218 .0459534
495.073 .0460898
495.928 .0462629
496.781 .0464661
497.634 .0466983
498.486 .0469541
499.337 .0472383
500.187 .0475523
501.036 .0478987
501.884 .0482803
502.731 .0486964
503.578 .0491442
504.424 .0496263
505.268 .0501241
506.113 .0506511
506.956 .0512040
507.798 .0518032
508.640 .0524423
509.480 .0531440
510.320 .0539197
511.160 .0547882
511.998 .0557596
512.836 .0568481
513.672 .0580512
514.508 .0593753
515.344 .0608149
516.178 .0623933
517.012 .0641316
517.845 .0660708
518.677 .0682527
519.508 .0707256
520.339 .0735485
521.169 .0768026
521.998 .0804834
522.826 .0846802
523.654 .0893870
524.481 .0945793
525.307 .1003273
526.133 .1065482
526.958 .1131925
527.782 .1201802
528.605 .1273777
529.428 .1346656
530.250 .1415258
531.072 .1478225
531.892 .1531311
532.712 .1571444
533.532 .1597561
534.350 .1606308
535.168 .1597177
535.986 .1571034
536.802 .1528756
537.618 .1472941
538.434 .1406241
539.249 .1333472
540.063 .1256752
540.876 .1180313
541.689 .1107018
542.501 .1038177
543.313 .0976246
544.124 .0921696
544.934 .0873224
545.744 .0830546
546.553 .0792573
547.361 .0758576
548.169 .0728607
548.976 .0701570
549.783 .0677115
550.589 .0655131
551.395 .0635196
552.200 .0617141
553.004 .0600740
553.808 .0585842
554.611 .0572195
555.414 .0559880
556.216 .0548745
557.018 .0538510
557.819 .0529190
558.619 .0520508
559.419 .0512369
560.218 .0504624
561.017 .0497184
561.815 .0489886
562.613 .0482723
563.410 .0475651
564.207 .0468543
565.003 .0461599
565.799 .0454802
566.594 .0448069
567.388 .0441613
568.182 .0435327
568.976 .0429227
569.769 .0423375
570.562 .0417757
571.354 .0412320
572.145 .0407114
572.936 .0402118
573.727 .0397256
574.517 .0392578
575.307 .0388118
576.096 .0383840
576.885 .0379825
577.673 .0376065
578.461 .0372493
579.248 .0369131
580.035 .0366005
580.821 .0363027
581.607 .0360230
582.392 .0357598
583.177 .0355108
583.962 .0352737
584.746 .0350513
585.529 .0348414
586.313 .0346467
587.095 .0344672
587.878 .0343012
588.660 .0341492
589.441 .0340120
590.222 .0338865
591.003 .0337750
591.783 .0336761
592.563 .0335891
593.342 .0335132
594.121 .0334473
594.899 .0333894
595.678 .0333370
596.455 .0332886
597.233 .0332422
598.009 .0331968
598.786 .0331531
599.562 .0331106
600.338 .0330708
601.113 .0330333
601.888 .0329970
602.663 .0329627
603.437 .0329293
604.211 .0328957
604.984 .0328609
605.757 .0328247
606.530 .0327864
607.302 .0327473
608.074 .0327088
608.845 .0326715
609.616 .0326362
610.387 .0326045
611.158 .0325753
611.928 .0325487
612.697 .0325239
613.467 .0325015
614.236 .0324817
615.004 .0324645
615.773 .0324492
616.541 .0324367
617.308 .0324257
618.076 .0324164
618.843 .0324070
619.609 .0323977
620.375 .0323868
621.141 .0323736
621.907 .0323576
622.672 .0323394
623.437 .0323191
624.202 .0322978
624.966 .0322757
625.730 .0322535
626.493 .0322297
627.257 .0322046
628.020 .0321776
628.782 .0321486
629.545 .0321172
630.307 .0320847
631.068 .0320509
631.830 .0320175
632.591 .0319838
633.352 .0319512
634.112 .0319199
634.872 .0318902
635.632 .0318611
636.392 .0318323
637.151 .0318034
637.910 .0317739
638.668 .0317436
639.427 .0317132
640.185 .0316823
640.943 .0316515
641.700 .0316208
642.457 .0315905
643.214 .0315600
643.971 .0315294
644.727 .0314987
645.483 .0314682
646.239 .0314378
646.994 .0314075
647.750 .0313784
648.505 .0313516
649.259 .0313273
650.014 .0313051
650.768 .0312849
651.521 .0312668
652.275 .0312509
653.028 .0312356
653.781 .0312210
654.534 .0312060
655.286 .0311907
656.039 .0311747
656.791 .0311581
657.542 .0311404
658.294 .0311228
659.045 .0311051
659.796 .0310871
660.546 .0310686
661.297 .0310493
662.047 .0310289
662.796 .0310075
663.546 .0309845
664.295 .0309601
665.044 .0309341
665.793 .0309080
666.542 .0308817
667.290 .0308571
668.038 .0308341
668.786 .0308132
669.533 .0307950
670.281 .0307794
671.028 .0307658
671.774 .0307545
672.521 .0307447
673.267 .0307360
674.013 .0307277
674.759 .0307194
675.505 .0307105
676.250 .0307014
676.995 .0306915
677.740 .0306816
678.484 .0306710
679.229 .0306603
679.973 .0306486
680.717 .0306370
681.460 .0306253
682.204 .0306130
682.947 .0306003
683.690 .0305865
684.433 .0305715
685.175 .0305553
685.917 .0305376
686.659 .0305193
687.401 .0305013
688.142 .0304841
688.884 .0304676
689.625 .0304521
690.365 .0304367
691.106 .0304207
691.846 .0304037
692.586 .0303852
693.326 .0303644
694.066 .0303418
694.805 .0303183
695.545 .0302938
696.284 .0302694
697.022 .0302449
697.761 .0302206
698.499 .0301963
699.237 .0301713
699.975 .0301448
700.713 .0301174
701.450 .0300897
702.187 .0300620
702.924 .0300352
703.661 .0300099
704.397 .0299864
705.133 .0299653
705.869 .0299460
706.605 .0299288
707.341 .0299126
708.076 .0298976
708.811 .0298826
709.546 .0298681
710.281 .0298532
711.015 .0298383
711.749 .0298232
712.483 .0298081
713.217 .0297918
713.950 .0297747
714.684 .0297561
715.417 .0297367
716.150 .0297162
716.882 .0296950
717.615 .0296728
718.347 .0296505
719.079 .0296272
719.811 .0296028
720.542 .0295776
721.273 .0295521
722.005 .0295257
722.735 .0294998
723.466 .0294746
724.196 .0294507
724.927 .0294283
725.656 .0294079
726.386 .0293886
727.116 .0293713
727.845 .0293547
728.574 .0293385
729.303 .0293231
730.031 .0293083
730.760 .0292939
731.488 .0292802
732.216 .0292680
732.944 .0292572
733.671 .0292475
734.398 .0292397
735.125 .0292332
735.852 .0292280
736.579 .0292232
737.305 .0292191
738.031 .0292156
738.757 .0292127
739.483 .0292096
740.208 .0292066
740.933 .0292042
741.658 .0292026
742.383 .0292013
743.108 .0292005
743.832 .0292006
744.556 .0292013
745.280 .0292020
746.004 .0292026
746.727 .0292029
747.450 .0292023
748.173 .0292005
748.896 .0291978
749.618 .0291938
750.340 .0291889
751.062 .0291834
751.784 .0291776
752.506 .0291714
753.227 .0291650
753.948 .0291573
754.669 .0291483
755.389 .0291385
756.110 .0291269
756.830 .0291135
757.550 .0290994
758.269 .0290849
758.989 .0290705
759.708 .0290562
760.427 .0290426
761.146 .0290291
761.864 .0290162
762.582 .0290027
763.300 .0289885
764.018 .0289736
764.736 .0289583
765.453 .0289426
766.170 .0289267
766.887 .0289107
767.603 .0288948
768.320 .0288790
769.036 .0288630
769.751 .0288464
770.467 .0288295
771.182 .0288119
771.897 .0287945
772.612 .0287773
773.327 .0287609
774.041 .0287452
774.755 .0287308
775.469 .0287176
776.183 .0287053
776.896 .0286939
777.609 .0286827
778.322 .0286718
779.035 .0286615
779.747 .0286510
780.459 .0286405
781.171 .0286302
781.882 .0286200
782.594 .0286089
783.305 .0285971
784.016 .0285846
784.726 .0285713
785.436 .0285571
786.147 .0285419
786.856 .0285256
787.566 .0285085
788.275 .0284905
788.984 .0284715
789.693 .0284520
790.401 .0284320
791.110 .0284114
791.818 .0283907
792.525 .0283704
793.233 .0283509
793.940 .0283319
794.647 .0283143
795.353 .0282972
796.060 .0282805
796.766 .0282642
797.472 .0282476
798.177 .0282310
798.883 .0282143
799.588 .0281971
800.292 .0281802
800.997 .0281634
801.701 .0281466
802.405 .0281300
803.109 .0281136
803.812 .0280972
804.515 .0280802
805.218 .0280624
805.921 .0280436
806.623 .0280235
807.325 .0280028
808.027 .0279815
808.728 .0279596
809.429 .0279383
810.130 .0279176
810.831 .0278981
811.531 .0278800
812.231 .0278633
812.931 .0278479
813.630 .0278335
814.330 .0278200
815.029 .0278072
815.727 .0277954
816.426 .0277851
817.124 .0277759
817.821 .0277682
818.519 .0277622
819.216 .0277581
819.913 .0277557
820.609 .0277547
821.306 .0277549
822.002 .0277556
822.697 .0277564
823.393 .0277570
824.088 .0277575
824.783 .0277572
825.477 .0277567
826.171 .0277555
826.865 .0277542
827.559 .0277529
828.252 .0277521
828.945 .0277516
829.638 .0277518
830.330 .0277524
831.023 .0277535
831.714 .0277543
832.406 .0277554
833.097 .0277563
833.788 .0277571
834.479 .0277579
835.169 .0277593
835.859 .0277611
836.548 .0277639
837.238 .0277673
837.927 .0277715
838.615 .0277755
839.304 .0277795
839.992 .0277829
840.680 .0277856
841.367 .0277874
842.054 .0277881
842.741 .0277875
843.428 .0277862
844.114 .0277837
844.800 .0277803
845.485 .0277758
846.170 .0277707
846.855 .0277648
847.540 .0277584
848.224 .0277519
848.908 .0277457
849.592 .0277397
850.275 .0277342
850.958 .0277286
851.641 .0277231
852.323 .0277175
853.005 .0277118
853.687 .0277060
854.368 .0276998
855.049 .0276931
855.730 .0276859
856.410 .0276775
857.090 .0276685
857.769 .0276581
858.449 .0276464
859.128 .0276331
859.806 .0276183
860.485 .0276023
861.163 .0275856
861.840 .0275683
862.518 .0275502
863.195 .0275319
863.871 .0275128
864.548 .0274927
865.224 .0274719
865.899 .0274505
866.574 .0274293
867.249 .0274082
867.924 .0273878
868.598 .0273682
869.272 .0273497
869.946 .0273326
870.619 .0273160
871.292 .0273000
871.964 .0272839
872.636 .0272674
873.308 .0272506
873.979 .0272336
874.651 .0272162
875.321 .0271992
875.992 .0271827
876.662 .0271668
877.331 .0271515
878.001 .0271368
878.670 .0271230
879.338 .0271099
880.007 .0270975
880.675 .0270853
881.342 .0270733
882.009 .0270616
882.676 .0270497
883.343 .0270377
884.009 .0270259
884.675 .0270140
885.340 .0270019
886.005 .0269899
886.670 .0269780
887.334 .0269665
887.998 .0269551
888.662 .0269439
889.325 .0269327
889.988 .0269213
890.650 .0269095
891.312 .0268969
891.974 .0268842
892.636 .0268710
893.297 .0268572
893.957 .0268429
894.618 .0268282
895.278 .0268133
895.937 .0267980
896.596 .0267827
897.255 .0267673
897.914 .0267516
898.572 .0267359
899.230 .0267199
899.887 .0267041
900.544 .0266880
901.201 .0266716
901.857 .0266547
902.513 .0266373
903.168 .0266194
903.823 .0266008
904.478 .0265821
905.132 .0265635
905.786 .0265451
906.440 .0265266
907.093 .0265083
907.746 .0264901
908.399 .0264715
909.051 .0264524
909.703 .0264327
910.354 .0264121
911.005 .0263908
911.656 .0263690
912.306 .0263471
912.956 .0263252
913.605 .0263039
914.254 .0262828
914.903 .0262622
915.551 .0262419
916.199 .0262222
916.847 .0262027
917.494 .0261841
918.141 .0261663
918.788 .0261493
919.434 .0261333
920.079 .0261181
920.725 .0261035
921.370 .0260896
922.014 .0260762
922.658 .0260629
923.302 .0260498
923.946 .0260371
924.589 .0260244
925.231 .0260120
925.873 .0259998
926.515 .0259878
927.157 .0259758
927.798 .0259634
928.439 .0259503
929.079 .0259368
929.719 .0259234
930.359 .0259099
930.998 .0258968
931.637 .0258845
932.275 .0258731
932.913 .0258626
933.551 .0258531
934.188 .0258446
934.825 .0258369
935.462 .0258297
936.098 .0258229
936.733 .0258167
937.369 .0258111
938.004 .0258064
938.638 .0258027
939.273 .0258002
939.907 .0257987
940.540 .0257979
941.173 .0257984
941.806 .0258000
942.438 .0258026
943.070 .0258059
943.702 .0258098
944.333 .0258138
944.964 .0258177
945.594 .0258216
946.224 .0258252
946.854 .0258292
947.483 .0258330
948.112 .0258372
948.741 .0258418
949.369 .0258472
949.996 .0258525
950.624 .0258578
951.251 .0258629
951.878 .0258666
952.504 .0258690
953.130 .0258702
953.755 .0258700
954.380 .0258692
955.005 .0258676
955.629 .0258660
956.253 .0258646
956.877 .0258641
957.500 .0258641
958.123 .0258653
958.746 .0258675
959.368 .0258703
959.990 .0258733
960.611 .0258769
961.232 .0258810
961.853 .0258855
962.473 .0258906
963.093 .0258961
963.712 .0259023
964.331 .0259085
964.950 .0259147
965.569 .0259210
966.187 .0259274
966.804 .0259339
967.422 .0259404
968.039 .0259466
968.655 .0259523
969.272 .0259571
969.887 .0259604
970.503 .0259620
971.118 .0259623
971.733 .0259608
972.347 .0259583
972.961 .0259548
973.575 .0259511
974.188 .0259466
974.801 .0259421
975.414 .0259369
976.026 .0259308
976.638 .0259238
977.250 .0259155
977.861 .0259064
978.472 .0258966
979.083 .0258862
979.693 .0258755
980.303 .0258645
980.912 .0258529
981.521 .0258405
982.130 .0258274
982.738 .0258133
983.346 .0257986
983.954 .0257829
984.562 .0257668
985.169 .0257502
985.775 .0257333
986.382 .0257161
986.988 .0256988
987.594 .0256816
988.199 .0256640
988.804 .0256461
989.409 .0256284
990.013 .0256107
990.617 .0255940
991.221 .0255784
991.824 .0255644
992.427 .0255521
993.030 .0255416
993.632 .0255323
994.234 .0255246
994.836 .0255183
995.438 .0255134
996.039 .0255097
996.640 .0255073
997.240 .0255058
997.840 .0255049
998.440 .0255047
999.040 .0255050
999.639 .0255048
1000.238 .0255042
1000.836 .0255024
1001.435 .0254998
1002.033 .0254959
1002.630 .0254911
1003.228 .0254861
1003.825 .0254808
1004.422 .0254748
1005.018 .0254683
1005.614 .0254611
1006.210 .0254528
1006.806 .0254433
1007.401 .0254321
1007.996 .0254193
1008.591 .0254053
1009.186 .0253903
1009.780 .0253746
1010.374 .0253592
1010.967 .0253451
1011.561 .0253314
1012.154 .0253188
1012.746 .0253066
1013.339 .0252946
1013.931 .0252827
1014.523 .0252713
1015.115 .0252597
1015.706 .0252485
1016.298 .0252385
1016.888 .0252291
1017.479 .0252207
1018.069 .0252140
1018.660 .0252081
1019.250 .0252037
1019.839 .0251996
1020.429 .0251952
1021.018 .0251896
1021.607 .0251837
1022.195 .0251769
1022.784 .0251693
1023.372 .0251614
1023.960 .0251538
1024.547 .0251464
1025.135 .0251400
1025.722 .0251337
1026.309 .0251278
1026.896 .0251224
1027.483 .0251171
1028.069 .0251112
1028.655 .0251059
1029.241 .0251012
1029.827 .0250978
1030.412 .0250958
1030.997 .0250957
1031.582 .0250965
1032.167 .0250984
1032.752 .0251005
1033.336 .0251022
1033.921 .0251031
1034.505 .0251030
1035.089 .0251015
1035.672 .0250997
1036.256 .0250979
1036.839 .0250965
1037.422 .0250955
1038.005 .0250952
1038.588 .0250947
1039.171 .0250933
1039.753 .0250909
1040.335 .0250872
1040.918 .0250822
1041.500 .0250760
1042.081 .0250684
1042.663 .0250595
1043.244 .0250503
1043.826 .0250405
1044.407 .0250303
1044.988 .0250195
1045.569 .0250080
1046.150 .0249955
1046.730 .0249831
1047.311 .0249707
1047.891 .0249594
1048.471 .0249493
1049.052 .0249406
1049.632 .0249331
1050.211 .0249273
1050.791 .0249218
1051.371 .0249183
1051.950 .0249166
1052.530 .0249169
1053.109 .0249185
1053.688 .0249226
1054.268 .0249283
1054.847 .0249353
1055.426 .0249429
1056.005 .0249501
1056.583 .0249558
1057.162 .0249610
1057.741 .0249631
1058.319 .0249638
1058.898 .0249636
1059.476 .0249621
1060.055 .0249601
1060.633 .0249580
1061.211 .0249552
1061.790 .0249530
1062.368 .0249517
1062.946 .0249521
1063.524 .0249546
1064.102 .0249604
1064.680 .0249695
1065.258 .0249806
1065.836 .0249950
1066.414 .0250107
1066.992 .0250256
1067.570 .0250404
1068.148 .0250526
1068.726 .0250630
1069.304 .0250731
1069.882 .0250818
1070.460 .0250901
1071.038 .0250979
1071.616 .0251044
1072.194 .0251083
1072.772 .0251085
1073.350 .0251044
1073.928 .0250949
1074.506 .0250818
1075.084 .0250667
1075.662 .0250488
1076.240 .0250328
1076.819 .0250211
1077.397 .0250145
1077.976 .0250140
1078.554 .0250175
1079.133 .0250244
1079.711 .0250336
1080.290 .0250437
1080.869 .0250522
1081.448 .0250592
1082.027 .0250658
1082.606 .0250713
1083.185 .0250774
1083.764 .0250861
1084.343 .0250985
1084.923 .0251162
1085.502 .0251393
1086.082 .0251665
1086.662 .0251959
1087.242 .0252270
1087.822 .0252582
1088.402 .0252895
1088.983 .0253201
1089.563 .0253499
1090.144 .0253805
1090.725 .0254147
1091.306 .0254508
1091.887 .0254904
1092.469 .0255334
1093.050 .0255778
1093.632 .0256227
1094.214 .0256647
1094.796 .0257011
1095.379 .0257313
1095.961 .0257550
1096.544 .0257724
1097.127 .0257835
1097.710 .0257925
1098.294 .0258007
1098.877 .0258089
1099.461 .0258203
1100.046 .0258350
1100.630 .0258524
1101.215 .0258736
1101.800 .0258951
1102.385 .0259152
1102.970 .0259328
1103.556 .0259482
1104.142 .0259617
1104.728 .0259773
1105.315 .0259982
1105.902 .0260232
1106.489 .0260557
1107.077 .0260986
1107.664 .0261471
1108.253 .0261992
1108.841 .0262539
1109.430 .0263069
1110.019 .0263543
1110.609 .0263972
1111.198 .0264346
1111.789 .0264724
1112.379 .0265127
1112.970 .0265566
1113.561 .0266029
1114.153 .0266538
1114.745 .0267070
1115.338 .0267571
1115.931 .0268040
1116.524 .0268462
1117.117 .0268801
1117.712 .0269112
1118.306 .0269408
1118.901 .0269743
1119.496 .0270124
1120.092 .0270607
1120.689 .0271173
1121.285 .0271786
1121.882 .0272390
1122.480 .0272979
1123.078 .0273527
1123.677 .0274028
1124.276 .0274459
1124.875 .0274875
1125.476 .0275284
1126.076 .0275746
1126.677 .0276254
1127.279 .0276824
1127.881 .0277435
1128.484 .0278080
1129.087 .0278648
1129.691 .0279164
1130.295 .0279622
1130.900 .0280011
1131.505 .0280401
1132.111 .0280878
1132.718 .0281420
1133.325 .0282105
1133.933 .0282945
1134.541 .0283934
1135.150 .0284996
1135.760 .0286138
1136.370 .0287283
1136.981 .0288407
1137.592 .0289499
1138.204 .0290531
1138.817 .0291601
1139.431 .0292780
1140.045 .0294007
1140.660 .0295276
1141.275 .0296718
1141.891 .0298372
1142.508 .0300913
1143.126 .0301498
1143.744 .0301472
1144.363 .0305979
1144.983 .0310129
