Measurement Sequence started on: 15-12-46-377
Integration time: 28
Scans to Average: 2 
>>>>>Begin Spectral Data<<<<<
432.689 .0000100
433.621 .0000100
434.552 .0000100
435.482 .0000100
436.410 .0000100
437.337 .0000100
438.262 .0289393
439.187 .0614436
440.110 .1018599
441.031 .1474797
441.952 .1917451
442.871 .2266074
443.789 .2457063
444.705 .2468404
445.621 .2326456
446.535 .2089462
447.447 .1820936
448.359 .1411435
449.269 .1206602
450.178 .1077107
451.086 .0985832
451.993 .0916670
452.898 .0861985
453.803 .0817526
454.706 .0780799
455.608 .0749612
456.508 .0722589
457.408 .0699253
458.306 .0678813
459.204 .0660545
460.100 .0644183
460.995 .0629552
461.888 .0616457
462.781 .0604520
463.673 .0593624
464.563 .0583706
465.452 .0574439
466.340 .0565769
467.228 .0557662
468.114 .0550135
468.999 .0543082
469.882 .0536460
470.765 .0530292
471.647 .0524645
472.528 .0519449
473.407 .0514678
474.286 .0510446
475.163 .0506765
476.040 .0503502
476.915 .0500631
477.790 .0498212
478.663 .0496204
479.535 .0494508
480.407 .0493230
481.277 .0492233
482.147 .0491504
483.015 .0490999
483.883 .0490670
484.749 .0490430
485.615 .0490247
486.479 .0490086
487.343 .0489947
488.206 .0489887
489.067 .0489926
489.928 .0490020
490.788 .0490302
491.647 .0490803
492.505 .0491510
493.362 .0492425
494.218 .0493582
495.073 .0494846
495.928 .0496287
496.781 .0497837
497.634 .0499599
498.486 .0501589
499.337 .0503923
500.187 .0506661
501.036 .0509833
501.884 .0513469
502.731 .0517497
503.578 .0521859
504.424 .0526569
505.268 .0531402
506.113 .0536406
506.956 .0541521
507.798 .0546832
508.640 .0552477
509.480 .0558606
510.320 .0565341
511.160 .0572961
511.998 .0581418
512.836 .0590938
513.672 .0601471
514.508 .0613167
515.344 .0626043
516.178 .0640308
517.012 .0656252
517.845 .0674330
518.677 .0694833
519.508 .0718382
520.339 .0745247
521.169 .0775995
521.998 .0810635
522.826 .0849562
523.654 .0893099
524.481 .0941248
525.307 .0994543
526.133 .1053153
526.958 .1116575
527.782 .1185175
528.605 .1257507
529.428 .1332262
530.250 .1404671
531.072 .1472460
531.892 .1530633
532.712 .1575881
533.532 .1605907
534.350 .1618487
535.168 .1612773
535.986 .1589789
536.802 .1550858
537.618 .1498923
538.434 .1436797
539.249 .1368560
540.063 .1295868
540.876 .1222693
541.689 .1150618
542.501 .1081538
543.313 .1017112
544.124 .0958360
544.934 .0905277
545.744 .0857446
546.553 .0814843
547.361 .0776971
548.169 .0743909
548.976 .0714794
549.783 .0689136
550.589 .0666550
551.395 .0646412
552.200 .0628289
553.004 .0612018
553.808 .0597292
554.611 .0584123
555.414 .0572228
556.216 .0561704
557.018 .0552267
557.819 .0543780
558.619 .0535801
559.419 .0528396
560.218 .0521270
561.017 .0514461
561.815 .0507632
562.613 .0500847
563.410 .0494061
564.207 .0487288
565.003 .0480463
565.799 .0473670
566.594 .0466872
567.388 .0460301
568.182 .0453784
568.976 .0447459
569.769 .0441228
570.562 .0435201
571.354 .0429274
572.145 .0423471
572.936 .0417778
573.727 .0412283
574.517 .0406942
575.307 .0401852
576.096 .0397001
576.885 .0392423
577.673 .0388122
578.461 .0384103
579.248 .0380324
580.035 .0376799
580.821 .0373479
581.607 .0370374
582.392 .0367454
583.177 .0364734
583.962 .0362217
584.746 .0359881
585.529 .0357749
586.313 .0355813
587.095 .0354053
587.878 .0352481
588.660 .0351072
589.441 .0349837
590.222 .0348741
591.003 .0347776
591.783 .0346944
592.563 .0346207
593.342 .0345562
594.121 .0344971
594.899 .0344417
595.678 .0343882
596.455 .0343366
597.233 .0342866
598.009 .0342393
598.786 .0341949
599.562 .0341530
600.338 .0341125
601.113 .0340733
601.888 .0340335
602.663 .0339919
603.437 .0339494
604.211 .0339049
604.984 .0338590
605.757 .0338126
606.530 .0337659
607.302 .0337205
608.074 .0336760
608.845 .0336325
609.616 .0335893
610.387 .0335466
611.158 .0335047
611.928 .0334640
612.697 .0334247
613.467 .0333874
614.236 .0333519
615.004 .0333193
615.773 .0332897
616.541 .0332626
617.308 .0332379
618.076 .0332147
618.843 .0331930
619.609 .0331724
620.375 .0331514
621.141 .0331303
621.907 .0331085
622.672 .0330852
623.437 .0330595
624.202 .0330310
624.966 .0329993
625.730 .0329652
626.493 .0329292
627.257 .0328908
628.020 .0328506
628.782 .0328091
629.545 .0327666
630.307 .0327229
631.068 .0326787
631.830 .0326330
632.591 .0325867
633.352 .0325405
634.112 .0324936
634.872 .0324464
635.632 .0324012
636.392 .0323572
637.151 .0323144
637.910 .0322724
638.668 .0322313
639.427 .0321903
640.185 .0321503
640.943 .0321108
641.700 .0320716
642.457 .0320334
643.214 .0319963
643.971 .0319590
644.727 .0319230
645.483 .0318878
646.239 .0318536
646.994 .0318209
647.750 .0317903
648.505 .0317612
649.259 .0317344
650.014 .0317108
650.768 .0316898
651.521 .0316697
652.275 .0316505
653.028 .0316312
653.781 .0316106
654.534 .0315882
655.286 .0315638
656.039 .0315384
656.791 .0315130
657.542 .0314877
658.294 .0314625
659.045 .0314385
659.796 .0314160
660.546 .0313943
661.297 .0313728
662.047 .0313516
662.796 .0313300
663.546 .0313081
664.295 .0312865
665.044 .0312652
665.793 .0312453
666.542 .0312276
667.290 .0312123
668.038 .0311992
668.786 .0311875
669.533 .0311772
670.281 .0311674
671.028 .0311571
671.774 .0311460
672.521 .0311335
673.267 .0311209
674.013 .0311077
674.759 .0310944
675.505 .0310813
676.250 .0310689
676.995 .0310573
677.740 .0310457
678.484 .0310336
679.229 .0310208
679.973 .0310069
680.717 .0309920
681.460 .0309764
682.204 .0309603
682.947 .0309447
683.690 .0309293
684.433 .0309144
685.175 .0309001
685.917 .0308857
686.659 .0308713
687.401 .0308562
688.142 .0308403
688.884 .0308236
689.625 .0308053
690.365 .0307858
691.106 .0307650
691.846 .0307438
692.586 .0307209
693.326 .0306965
694.066 .0306706
694.805 .0306429
695.545 .0306129
696.284 .0305814
697.022 .0305484
697.761 .0305142
698.499 .0304793
699.237 .0304439
699.975 .0304079
700.713 .0303726
701.450 .0303376
702.187 .0303038
702.924 .0302715
703.661 .0302407
704.397 .0302106
705.133 .0301823
705.869 .0301555
706.605 .0301293
707.341 .0301038
708.076 .0300793
708.811 .0300551
709.546 .0300312
710.281 .0300073
711.015 .0299837
711.749 .0299601
712.483 .0299369
713.217 .0299126
713.950 .0298877
714.684 .0298619
715.417 .0298349
716.150 .0298074
716.882 .0297795
717.615 .0297516
718.347 .0297238
719.079 .0296970
719.811 .0296714
720.542 .0296465
721.273 .0296229
722.005 .0295997
722.735 .0295774
723.466 .0295548
724.196 .0295316
724.927 .0295079
725.656 .0294840
726.386 .0294604
727.116 .0294370
727.845 .0294145
728.574 .0293926
729.303 .0293718
730.031 .0293517
730.760 .0293323
731.488 .0293135
732.216 .0292951
732.944 .0292776
733.671 .0292607
734.398 .0292451
735.125 .0292306
735.852 .0292179
736.579 .0292069
737.305 .0291974
738.031 .0291894
738.757 .0291819
739.483 .0291749
740.208 .0291682
740.933 .0291614
741.658 .0291544
742.383 .0291475
743.108 .0291409
743.832 .0291345
744.556 .0291289
745.280 .0291237
746.004 .0291191
746.727 .0291152
747.450 .0291118
748.173 .0291081
748.896 .0291045
749.618 .0291011
750.340 .0290973
751.062 .0290936
751.784 .0290898
752.506 .0290857
753.227 .0290817
753.948 .0290780
754.669 .0290744
755.389 .0290707
756.110 .0290677
756.830 .0290644
757.550 .0290609
758.269 .0290572
758.989 .0290528
759.708 .0290475
760.427 .0290420
761.146 .0290359
761.864 .0290293
762.582 .0290229
763.300 .0290168
764.018 .0290108
764.736 .0290051
765.453 .0289993
766.170 .0289931
766.887 .0289860
767.603 .0289783
768.320 .0289685
769.036 .0289579
769.751 .0289466
770.467 .0289342
771.182 .0289214
771.897 .0289089
772.612 .0288963
773.327 .0288843
774.041 .0288728
774.755 .0288622
775.469 .0288517
776.183 .0288424
776.896 .0288334
777.609 .0288248
778.322 .0288166
779.035 .0288088
779.747 .0288011
780.459 .0287943
781.171 .0287877
781.882 .0287814
782.594 .0287758
783.305 .0287707
784.016 .0287657
784.726 .0287611
785.436 .0287564
786.147 .0287511
786.856 .0287448
787.566 .0287380
788.275 .0287303
788.984 .0287220
789.693 .0287130
790.401 .0287032
791.110 .0286931
791.818 .0286825
792.525 .0286709
793.233 .0286586
793.940 .0286455
794.647 .0286313
795.353 .0286160
796.060 .0285994
796.766 .0285813
797.472 .0285622
798.177 .0285417
798.883 .0285197
799.588 .0284964
800.292 .0284720
800.997 .0284466
801.701 .0284204
802.405 .0283940
803.109 .0283672
803.812 .0283408
804.515 .0283146
805.218 .0282880
805.921 .0282610
806.623 .0282334
807.325 .0282054
808.027 .0281771
808.728 .0281487
809.429 .0281201
810.130 .0280918
810.831 .0280639
811.531 .0280364
812.231 .0280090
812.931 .0279816
813.630 .0279540
814.330 .0279257
815.029 .0278970
815.727 .0278675
816.426 .0278381
817.124 .0278088
817.821 .0277801
818.519 .0277527
819.216 .0277264
819.913 .0277019
820.609 .0276791
821.306 .0276579
822.002 .0276388
822.697 .0276214
823.393 .0276061
824.088 .0275925
824.783 .0275807
825.477 .0275702
826.171 .0275609
826.865 .0275529
827.559 .0275458
828.252 .0275394
828.945 .0275334
829.638 .0275276
830.330 .0275220
831.023 .0275166
831.714 .0275111
832.406 .0275059
833.097 .0275008
833.788 .0274955
834.479 .0274904
835.169 .0274849
835.859 .0274795
836.548 .0274745
837.238 .0274696
837.927 .0274644
838.615 .0274589
839.304 .0274535
839.992 .0274483
840.680 .0274439
841.367 .0274401
842.054 .0274370
842.741 .0274349
843.428 .0274337
844.114 .0274328
844.800 .0274327
845.485 .0274327
846.170 .0274325
846.855 .0274322
847.540 .0274315
848.224 .0274301
848.908 .0274288
849.592 .0274276
850.275 .0274267
850.958 .0274258
851.641 .0274252
852.323 .0274246
853.005 .0274243
853.687 .0274237
854.368 .0274223
855.049 .0274200
855.730 .0274167
856.410 .0274113
857.090 .0274045
857.769 .0273965
858.449 .0273875
859.128 .0273781
859.806 .0273689
860.485 .0273605
861.163 .0273534
861.840 .0273477
862.518 .0273430
863.195 .0273386
863.871 .0273342
864.548 .0273289
865.224 .0273233
865.899 .0273174
866.574 .0273114
867.249 .0273060
867.924 .0273024
868.598 .0273006
869.272 .0273005
869.946 .0273022
870.619 .0273051
871.292 .0273085
871.964 .0273113
872.636 .0273130
873.308 .0273138
873.979 .0273141
874.651 .0273137
875.321 .0273126
875.992 .0273120
876.662 .0273115
877.331 .0273115
878.001 .0273121
878.670 .0273131
879.338 .0273143
880.007 .0273159
880.675 .0273177
881.342 .0273196
882.009 .0273217
882.676 .0273242
883.343 .0273266
884.009 .0273299
884.675 .0273328
885.340 .0273355
886.005 .0273383
886.670 .0273416
887.334 .0273454
887.998 .0273497
888.662 .0273544
889.325 .0273598
889.988 .0273653
890.650 .0273707
891.312 .0273754
891.974 .0273794
892.636 .0273827
893.297 .0273852
893.957 .0273870
894.618 .0273887
895.278 .0273903
895.937 .0273928
896.596 .0273957
897.255 .0273988
897.914 .0274019
898.572 .0274040
899.230 .0274049
899.887 .0274038
900.544 .0274005
901.201 .0273953
901.857 .0273885
902.513 .0273800
903.168 .0273702
903.823 .0273591
904.478 .0273468
905.132 .0273330
905.786 .0273174
906.440 .0272996
907.093 .0272791
907.746 .0272557
908.399 .0272300
909.051 .0272018
909.703 .0271722
910.354 .0271411
911.005 .0271095
911.656 .0270779
912.306 .0270460
912.956 .0270140
913.605 .0269817
914.254 .0269494
914.903 .0269161
915.551 .0268824
916.199 .0268485
916.847 .0268147
917.494 .0267814
918.141 .0267492
918.788 .0267184
919.434 .0266892
920.079 .0266610
920.725 .0266336
921.370 .0266066
922.014 .0265794
922.658 .0265512
923.302 .0265223
923.946 .0264926
924.589 .0264620
925.231 .0264308
925.873 .0263994
926.515 .0263677
927.157 .0263360
927.798 .0263039
928.439 .0262714
929.079 .0262385
929.719 .0262046
930.359 .0261699
930.998 .0261348
931.637 .0260995
932.275 .0260640
932.913 .0260287
933.551 .0259939
934.188 .0259595
934.825 .0259258
935.462 .0258928
936.098 .0258608
936.733 .0258300
937.369 .0258004
938.004 .0257717
938.638 .0257439
939.273 .0257171
939.907 .0256910
940.540 .0256665
941.173 .0256432
941.806 .0256218
942.438 .0256020
943.070 .0255841
943.702 .0255681
944.333 .0255533
944.964 .0255395
945.594 .0255263
946.224 .0255135
946.854 .0255010
947.483 .0254884
948.112 .0254759
948.741 .0254635
949.369 .0254515
949.996 .0254392
950.624 .0254260
951.251 .0254119
951.878 .0253967
952.504 .0253803
953.130 .0253626
953.755 .0253441
954.380 .0253248
955.005 .0253055
955.629 .0252861
956.253 .0252671
956.877 .0252484
957.500 .0252305
958.123 .0252134
958.746 .0251972
959.368 .0251817
959.990 .0251672
960.611 .0251534
961.232 .0251411
961.853 .0251303
962.473 .0251209
963.093 .0251125
963.712 .0251056
964.331 .0250989
964.950 .0250927
965.569 .0250866
966.187 .0250810
966.804 .0250755
967.422 .0250705
968.039 .0250654
968.655 .0250599
969.272 .0250543
969.887 .0250487
970.503 .0250431
971.118 .0250382
971.733 .0250336
972.347 .0250293
972.961 .0250257
973.575 .0250228
974.188 .0250198
974.801 .0250166
975.414 .0250128
976.026 .0250080
976.638 .0250019
977.250 .0249949
977.861 .0249879
978.472 .0249813
979.083 .0249765
979.693 .0249726
980.303 .0249698
980.912 .0249679
981.521 .0249660
982.130 .0249638
982.738 .0249614
983.346 .0249585
983.954 .0249551
984.562 .0249521
985.169 .0249502
985.775 .0249493
986.382 .0249496
986.988 .0249509
987.594 .0249524
988.199 .0249540
988.804 .0249547
989.409 .0249541
990.013 .0249530
990.617 .0249519
991.221 .0249506
991.824 .0249506
992.427 .0249520
993.030 .0249549
993.632 .0249593
994.234 .0249650
994.836 .0249714
995.438 .0249787
996.039 .0249871
996.640 .0249965
997.240 .0250077
997.840 .0250213
998.440 .0250369
999.040 .0250547
999.639 .0250743
1000.238 .0250945
1000.836 .0251143
1001.435 .0251332
1002.033 .0251501
1002.630 .0251657
1003.228 .0251802
1003.825 .0251941
1004.422 .0252083
1005.018 .0252232
1005.614 .0252388
1006.210 .0252552
1006.806 .0252721
1007.401 .0252884
1007.996 .0253040
1008.591 .0253194
1009.186 .0253337
1009.780 .0253478
1010.374 .0253615
1010.967 .0253755
1011.561 .0253898
1012.154 .0254046
1012.746 .0254190
1013.339 .0254335
1013.931 .0254486
1014.523 .0254636
1015.115 .0254787
1015.706 .0254953
1016.298 .0255129
1016.888 .0255323
1017.479 .0255537
1018.069 .0255768
1018.660 .0256009
1019.250 .0256264
1019.839 .0256513
1020.429 .0256766
1021.018 .0257018
1021.607 .0257266
1022.195 .0257510
1022.784 .0257754
1023.372 .0257998
1023.960 .0258224
1024.547 .0258449
1025.135 .0258664
1025.722 .0258867
1026.309 .0259062
1026.896 .0259247
1027.483 .0259430
1028.069 .0259613
1028.655 .0259788
1029.241 .0259957
1029.827 .0260124
1030.412 .0260288
1030.997 .0260438
1031.582 .0260588
1032.167 .0260734
1032.752 .0260881
1033.336 .0261025
1033.921 .0261182
1034.505 .0261338
1035.089 .0261499
1035.672 .0261652
1036.256 .0261789
1036.839 .0261910
1037.422 .0262009
1038.005 .0262085
1038.588 .0262148
1039.171 .0262200
1039.753 .0262250
1040.335 .0262287
1040.918 .0262331
1041.500 .0262374
1042.081 .0262417
1042.663 .0262457
1043.244 .0262493
1043.826 .0262522
1044.407 .0262541
1044.988 .0262549
1045.569 .0262542
1046.150 .0262523
1046.730 .0262491
1047.311 .0262438
1047.891 .0262363
1048.471 .0262279
1049.052 .0262182
1049.632 .0262090
1050.211 .0262014
1050.791 .0261958
1051.371 .0261927
1051.950 .0261922
1052.530 .0261935
1053.109 .0261961
1053.688 .0261977
1054.268 .0261979
1054.847 .0261953
1055.426 .0261900
1056.005 .0261824
1056.583 .0261736
1057.162 .0261651
1057.741 .0261575
1058.319 .0261504
1058.898 .0261443
1059.476 .0261380
1060.055 .0261313
1060.633 .0261230
1061.211 .0261123
1061.790 .0261006
1062.368 .0260875
1062.946 .0260746
1063.524 .0260634
1064.102 .0260544
1064.680 .0260484
1065.258 .0260442
1065.836 .0260413
1066.414 .0260379
1066.992 .0260336
1067.570 .0260285
1068.148 .0260209
1068.726 .0260126
1069.304 .0260029
1069.882 .0259919
1070.460 .0259801
1071.038 .0259673
1071.616 .0259524
1072.194 .0259358
1072.772 .0259161
1073.350 .0258940
1073.928 .0258711
1074.506 .0258489
1075.084 .0258272
1075.662 .0258078
1076.240 .0257915
1076.819 .0257771
1077.397 .0257632
1077.976 .0257499
1078.554 .0257361
1079.133 .0257219
1079.711 .0257066
1080.290 .0256913
1080.869 .0256766
1081.448 .0256638
1082.027 .0256523
1082.606 .0256429
1083.185 .0256362
1083.764 .0256309
1084.343 .0256264
1084.923 .0256227
1085.502 .0256198
1086.082 .0256171
1086.662 .0256143
1087.242 .0256120
1087.822 .0256104
1088.402 .0256097
1088.983 .0256110
1089.563 .0256137
1090.144 .0256185
1090.725 .0256269
1091.306 .0256363
1091.887 .0256475
1092.469 .0256585
1093.050 .0256665
1093.632 .0256719
1094.214 .0256725
1094.796 .0256683
1095.379 .0256581
1095.961 .0256449
1096.544 .0256312
1097.127 .0256185
1097.710 .0256111
1098.294 .0256083
1098.877 .0256113
1099.461 .0256205
1100.046 .0256323
1100.630 .0256444
1101.215 .0256579
1101.800 .0256691
1102.385 .0256785
1102.970 .0256868
1103.556 .0256919
1104.142 .0256980
1104.728 .0257088
1105.315 .0257233
1105.902 .0257411
1106.489 .0257625
1107.077 .0257866
1107.664 .0258088
1108.253 .0258279
1108.841 .0258409
1109.430 .0258483
1110.019 .0258520
1110.609 .0258509
1111.198 .0258450
1111.789 .0258412
1112.379 .0258421
1112.970 .0258463
1113.561 .0258563
1114.153 .0258708
1114.745 .0258884
1115.338 .0259101
1115.931 .0259330
1116.524 .0259573
1117.117 .0259844
1117.712 .0260134
1118.306 .0260431
1118.901 .0260721
1119.496 .0261019
1120.092 .0261315
1120.689 .0261623
1121.285 .0261953
1121.882 .0262293
1122.480 .0262650
1123.078 .0263056
1123.677 .0263478
1124.276 .0263911
1124.875 .0264359
1125.476 .0264786
1126.076 .0265212
1126.677 .0265624
1127.279 .0266025
1127.881 .0266437
1128.484 .0266890
1129.087 .0267436
1129.691 .0268019
1130.295 .0268703
1130.900 .0269474
1131.505 .0270265
1132.111 .0271132
1132.718 .0272013
1133.325 .0272920
1133.933 .0273877
1134.541 .0274873
1135.150 .0275888
1135.760 .0276954
1136.370 .0278102
1136.981 .0279317
1137.592 .0280558
1138.204 .0281892
1138.817 .0283277
1139.431 .0284703
1140.045 .0286218
1140.660 .0287783
1141.275 .0289541
1141.891 .0291777
1142.508 .0292251
1143.126 .0294895
1143.744 .0296405
1144.363 .0301726
1144.983 .0312498
