Measurement Sequence started on: 15-12-46-377
Integration time: 28
Scans to Average: 2 
>>>>>Begin Spectral Data<<<<<
432.689 .0000100
433.621 .0000100
434.552 .0000100
435.482 .0000100
436.410 .0000100
437.337 .0000100
438.262 .0244818
439.187 .0520527
440.110 .0863375
441.031 .1250704
441.952 .1627802
442.871 .1925670
443.789 .2090845
444.705 .2104515
445.621 .1988805
446.535 .1792476
447.447 .1568907
448.359 .1225634
449.269 .1054157
450.178 .0945909
451.086 .0869138
451.993 .0809846
452.898 .0762659
453.803 .0723567
454.706 .0690621
455.608 .0662164
456.508 .0637406
457.408 .0615815
458.306 .0596675
459.204 .0579669
460.100 .0564448
460.995 .0550896
461.888 .0538932
462.781 .0528107
463.673 .0518146
464.563 .0509034
465.452 .0500361
466.340 .0491964
467.228 .0483914
468.114 .0476162
468.999 .0468823
469.882 .0461972
470.765 .0455709
471.647 .0450028
472.528 .0444981
473.407 .0440487
474.286 .0436526
475.163 .0433002
476.040 .0429817
476.915 .0426910
477.790 .0424235
478.663 .0421845
479.535 .0419720
480.407 .0418046
481.277 .0416815
482.147 .0416026
483.015 .0415697
483.883 .0415715
484.749 .0416023
485.615 .0416488
486.479 .0417043
487.343 .0417677
488.206 .0418340
489.067 .0418999
489.928 .0419670
490.788 .0420440
491.647 .0421292
492.505 .0422307
493.362 .0423468
494.218 .0424750
495.073 .0426071
495.928 .0427544
496.781 .0429076
497.634 .0430784
498.486 .0432735
499.337 .0434842
500.187 .0437225
501.036 .0439897
501.884 .0442749
502.731 .0445797
503.578 .0448964
504.424 .0452335
505.268 .0455751
506.113 .0459370
506.956 .0463189
507.798 .0467463
508.640 .0472351
509.480 .0477938
510.320 .0484220
511.160 .0491376
511.998 .0499343
512.836 .0507983
513.672 .0517508
514.508 .0527826
515.344 .0539144
516.178 .0551764
517.012 .0565973
517.845 .0582526
518.677 .0601669
519.508 .0623939
520.339 .0649564
521.169 .0678940
521.998 .0711849
522.826 .0748419
523.654 .0788621
524.481 .0832390
525.307 .0880641
526.133 .0932780
526.958 .0988919
527.782 .1048890
528.605 .1111878
529.428 .1176139
530.250 .1237404
531.072 .1293579
531.892 .1339887
532.712 .1374014
533.532 .1393434
534.350 .1396430
535.168 .1383397
535.986 .1355819
536.802 .1315572
537.618 .1265740
538.434 .1209016
539.249 .1149116
540.063 .1087506
540.876 .1026914
541.689 .0967916
542.501 .0912015
543.313 .0859944
544.124 .0812407
544.934 .0768759
545.744 .0729261
546.553 .0693367
547.361 .0661461
548.169 .0633180
548.976 .0607909
549.783 .0585467
550.589 .0565718
551.395 .0547965
552.200 .0532074
553.004 .0517784
553.808 .0504962
554.611 .0493519
555.414 .0483395
556.216 .0474344
557.018 .0466407
557.819 .0459408
558.619 .0453235
559.419 .0447749
560.218 .0442864
561.017 .0438352
561.815 .0434090
562.613 .0429991
563.410 .0425873
564.207 .0421674
565.003 .0417356
565.799 .0412830
566.594 .0408093
567.388 .0403133
568.182 .0397992
568.976 .0392750
569.769 .0387469
570.562 .0382186
571.354 .0376882
572.145 .0371716
572.936 .0366658
573.727 .0361740
574.517 .0356995
575.307 .0352495
576.096 .0348218
576.885 .0344171
577.673 .0340353
578.461 .0336772
579.248 .0333433
580.035 .0330359
580.821 .0327528
581.607 .0324959
582.392 .0322653
583.177 .0320607
583.962 .0318821
584.746 .0317318
585.529 .0315985
586.313 .0314830
587.095 .0313807
587.878 .0312893
588.660 .0312055
589.441 .0311295
590.222 .0310596
591.003 .0309985
591.783 .0309432
592.563 .0308932
593.342 .0308472
594.121 .0308051
594.899 .0307641
595.678 .0307237
596.455 .0306827
597.233 .0306414
598.009 .0306000
598.786 .0305617
599.562 .0305247
600.338 .0304894
601.113 .0304557
601.888 .0304234
602.663 .0303921
603.437 .0303606
604.211 .0303279
604.984 .0302951
605.757 .0302619
606.530 .0302290
607.302 .0301960
608.074 .0301644
608.845 .0301337
609.616 .0301037
610.387 .0300746
611.158 .0300460
611.928 .0300175
612.697 .0299899
613.467 .0299633
614.236 .0299376
615.004 .0299126
615.773 .0298885
616.541 .0298663
617.308 .0298460
618.076 .0298274
618.843 .0298105
619.609 .0297953
620.375 .0297819
621.141 .0297687
621.907 .0297552
622.672 .0297415
623.437 .0297264
624.202 .0297092
624.966 .0296907
625.730 .0296708
626.493 .0296500
627.257 .0296293
628.020 .0296092
628.782 .0295895
629.545 .0295702
630.307 .0295508
631.068 .0295308
631.830 .0295105
632.591 .0294888
633.352 .0294657
634.112 .0294434
634.872 .0294216
635.632 .0294004
636.392 .0293803
637.151 .0293625
637.910 .0293457
638.668 .0293299
639.427 .0293152
640.185 .0293007
640.943 .0292866
641.700 .0292722
642.457 .0292566
643.214 .0292407
643.971 .0292239
644.727 .0292064
645.483 .0291877
646.239 .0291693
646.994 .0291500
647.750 .0291315
648.505 .0291148
649.259 .0291003
650.014 .0290872
650.768 .0290757
651.521 .0290652
652.275 .0290555
653.028 .0290454
653.781 .0290349
654.534 .0290242
655.286 .0290143
656.039 .0290041
656.791 .0289948
657.542 .0289858
658.294 .0289780
659.045 .0289704
659.796 .0289623
660.546 .0289528
661.297 .0289417
662.047 .0289286
662.796 .0289137
663.546 .0288972
664.295 .0288807
665.044 .0288640
665.793 .0288485
666.542 .0288336
667.290 .0288199
668.038 .0288074
668.786 .0287958
669.533 .0287838
670.281 .0287713
671.028 .0287581
671.774 .0287444
672.521 .0287299
673.267 .0287153
674.013 .0287008
674.759 .0286870
675.505 .0286732
676.250 .0286595
676.995 .0286456
677.740 .0286316
678.484 .0286162
679.229 .0286000
679.973 .0285827
680.717 .0285646
681.460 .0285457
682.204 .0285265
682.947 .0285073
683.690 .0284889
684.433 .0284702
685.175 .0284522
685.917 .0284345
686.659 .0284174
687.401 .0284002
688.142 .0283840
688.884 .0283683
689.625 .0283534
690.365 .0283385
691.106 .0283239
691.846 .0283096
692.586 .0282958
693.326 .0282812
694.066 .0282668
694.805 .0282528
695.545 .0282393
696.284 .0282259
697.022 .0282135
697.761 .0282021
698.499 .0281921
699.237 .0281826
699.975 .0281739
700.713 .0281656
701.450 .0281579
702.187 .0281503
702.924 .0281429
703.661 .0281359
704.397 .0281289
705.133 .0281220
705.869 .0281155
706.605 .0281095
707.341 .0281040
708.076 .0280989
708.811 .0280941
709.546 .0280893
710.281 .0280833
711.015 .0280763
711.749 .0280681
712.483 .0280582
713.217 .0280463
713.950 .0280327
714.684 .0280174
715.417 .0280006
716.150 .0279830
716.882 .0279646
717.615 .0279452
718.347 .0279258
719.079 .0279058
719.811 .0278858
720.542 .0278663
721.273 .0278469
722.005 .0278275
722.735 .0278092
723.466 .0277917
724.196 .0277745
724.927 .0277584
725.656 .0277430
726.386 .0277283
727.116 .0277141
727.845 .0277002
728.574 .0276862
729.303 .0276724
730.031 .0276587
730.760 .0276443
731.488 .0276295
732.216 .0276139
732.944 .0275973
733.671 .0275797
734.398 .0275611
735.125 .0275415
735.852 .0275209
736.579 .0275000
737.305 .0274785
738.031 .0274567
738.757 .0274352
739.483 .0274138
740.208 .0273930
740.933 .0273729
741.658 .0273536
742.383 .0273350
743.108 .0273172
743.832 .0273002
744.556 .0272838
745.280 .0272677
746.004 .0272518
746.727 .0272362
747.450 .0272205
748.173 .0272043
748.896 .0271880
749.618 .0271712
750.340 .0271546
751.062 .0271381
751.784 .0271217
752.506 .0271053
753.227 .0270893
753.948 .0270735
754.669 .0270578
755.389 .0270425
756.110 .0270277
756.830 .0270134
757.550 .0270004
758.269 .0269882
758.989 .0269776
759.708 .0269677
760.427 .0269591
761.146 .0269502
761.864 .0269409
762.582 .0269304
763.300 .0269186
764.018 .0269056
764.736 .0268915
765.453 .0268760
766.170 .0268596
766.887 .0268424
767.603 .0268248
768.320 .0268066
769.036 .0267888
769.751 .0267711
770.467 .0267545
771.182 .0267390
771.897 .0267246
772.612 .0267112
773.327 .0266998
774.041 .0266900
774.755 .0266816
775.469 .0266746
776.183 .0266686
776.896 .0266636
777.609 .0266594
778.322 .0266557
779.035 .0266521
779.747 .0266480
780.459 .0266430
781.171 .0266361
781.882 .0266273
782.594 .0266169
783.305 .0266046
784.016 .0265915
784.726 .0265780
785.436 .0265646
786.147 .0265515
786.856 .0265396
787.566 .0265285
788.275 .0265185
788.984 .0265092
789.693 .0265006
790.401 .0264926
791.110 .0264856
791.818 .0264794
792.525 .0264744
793.233 .0264705
793.940 .0264673
794.647 .0264640
795.353 .0264606
796.060 .0264561
796.766 .0264505
797.472 .0264428
798.177 .0264339
798.883 .0264233
799.588 .0264115
800.292 .0263981
800.997 .0263841
801.701 .0263691
802.405 .0263535
803.109 .0263374
803.812 .0263214
804.515 .0263055
805.218 .0262900
805.921 .0262749
806.623 .0262604
807.325 .0262466
808.027 .0262334
808.728 .0262206
809.429 .0262083
810.130 .0261965
810.831 .0261847
811.531 .0261729
812.231 .0261612
812.931 .0261491
813.630 .0261363
814.330 .0261225
815.029 .0261075
815.727 .0260909
816.426 .0260728
817.124 .0260530
817.821 .0260316
818.519 .0260087
819.216 .0259847
819.913 .0259596
820.609 .0259343
821.306 .0259088
822.002 .0258832
822.697 .0258580
823.393 .0258334
824.088 .0258094
824.783 .0257866
825.477 .0257646
826.171 .0257435
826.865 .0257231
827.559 .0257043
828.252 .0256866
828.945 .0256702
829.638 .0256553
830.330 .0256415
831.023 .0256284
831.714 .0256158
832.406 .0256034
833.097 .0255907
833.788 .0255769
834.479 .0255622
835.169 .0255462
835.859 .0255291
836.548 .0255109
837.238 .0254921
837.927 .0254727
838.615 .0254527
839.304 .0254315
839.992 .0254093
840.680 .0253865
841.367 .0253628
842.054 .0253386
842.741 .0253145
843.428 .0252912
844.114 .0252690
844.800 .0252484
845.485 .0252298
846.170 .0252131
846.855 .0251982
847.540 .0251844
848.224 .0251720
848.908 .0251607
849.592 .0251506
850.275 .0251419
850.958 .0251348
851.641 .0251294
852.323 .0251253
853.005 .0251223
853.687 .0251201
854.368 .0251183
855.049 .0251162
855.730 .0251131
856.410 .0251089
857.090 .0251035
857.769 .0250968
858.449 .0250895
859.128 .0250816
859.806 .0250734
860.485 .0250653
861.163 .0250576
861.840 .0250504
862.518 .0250436
863.195 .0250374
863.871 .0250316
864.548 .0250264
865.224 .0250215
865.899 .0250171
866.574 .0250132
867.249 .0250106
867.924 .0250088
868.598 .0250078
869.272 .0250081
869.946 .0250094
870.619 .0250115
871.292 .0250141
871.964 .0250165
872.636 .0250186
873.308 .0250198
873.979 .0250204
874.651 .0250197
875.321 .0250183
875.992 .0250163
876.662 .0250138
877.331 .0250112
878.001 .0250090
878.670 .0250070
879.338 .0250054
880.007 .0250043
880.675 .0250032
881.342 .0250019
882.009 .0250005
882.676 .0249988
883.343 .0249967
884.009 .0249942
884.675 .0249912
885.340 .0249875
886.005 .0249836
886.670 .0249791
887.334 .0249740
887.998 .0249682
888.662 .0249620
889.325 .0249552
889.988 .0249481
890.650 .0249410
891.312 .0249339
891.974 .0249270
892.636 .0249204
893.297 .0249138
893.957 .0249072
894.618 .0249007
895.278 .0248943
895.937 .0248884
896.596 .0248834
897.255 .0248790
897.914 .0248755
898.572 .0248727
899.230 .0248711
899.887 .0248700
900.544 .0248689
901.201 .0248675
901.857 .0248655
902.513 .0248627
903.168 .0248588
903.823 .0248537
904.478 .0248476
905.132 .0248405
905.786 .0248328
906.440 .0248236
907.093 .0248128
907.746 .0248002
908.399 .0247857
909.051 .0247688
909.703 .0247500
910.354 .0247291
911.005 .0247070
911.656 .0246841
912.306 .0246604
912.956 .0246365
913.605 .0246125
914.254 .0245886
914.903 .0245644
915.551 .0245398
916.199 .0245147
916.847 .0244888
917.494 .0244630
918.141 .0244372
918.788 .0244116
919.434 .0243868
920.079 .0243626
920.725 .0243396
921.370 .0243177
922.014 .0242963
922.658 .0242748
923.302 .0242534
923.946 .0242314
924.589 .0242088
925.231 .0241858
925.873 .0241630
926.515 .0241407
927.157 .0241193
927.798 .0240988
928.439 .0240790
929.079 .0240598
929.719 .0240410
930.359 .0240218
930.998 .0240023
931.637 .0239820
932.275 .0239611
932.913 .0239395
933.551 .0239177
934.188 .0238960
934.825 .0238744
935.462 .0238532
936.098 .0238318
936.733 .0238105
937.369 .0237890
938.004 .0237672
938.638 .0237453
939.273 .0237227
939.907 .0237001
940.540 .0236772
941.173 .0236542
941.806 .0236316
942.438 .0236094
943.070 .0235873
943.702 .0235655
944.333 .0235439
944.964 .0235225
945.594 .0235013
946.224 .0234805
946.854 .0234600
947.483 .0234397
948.112 .0234194
948.741 .0233985
949.369 .0233776
949.996 .0233570
950.624 .0233361
951.251 .0233156
951.878 .0232959
952.504 .0232766
953.130 .0232581
953.755 .0232404
954.380 .0232237
955.005 .0232077
955.629 .0231922
956.253 .0231761
956.877 .0231599
957.500 .0231437
958.123 .0231277
958.746 .0231118
959.368 .0230974
959.990 .0230844
960.611 .0230727
961.232 .0230622
961.853 .0230531
962.473 .0230443
963.093 .0230361
963.712 .0230272
964.331 .0230175
964.950 .0230072
965.569 .0229970
966.187 .0229872
966.804 .0229791
967.422 .0229728
968.039 .0229684
968.655 .0229659
969.272 .0229653
969.887 .0229652
970.503 .0229651
971.118 .0229648
971.733 .0229636
972.347 .0229616
972.961 .0229591
973.575 .0229562
974.188 .0229537
974.801 .0229522
975.414 .0229508
976.026 .0229495
976.638 .0229482
977.250 .0229466
977.861 .0229443
978.472 .0229422
979.083 .0229403
979.693 .0229391
980.303 .0229395
980.912 .0229415
981.521 .0229452
982.130 .0229510
982.738 .0229582
983.346 .0229670
983.954 .0229771
984.562 .0229883
985.169 .0230000
985.775 .0230127
986.382 .0230258
986.988 .0230386
987.594 .0230506
988.199 .0230612
988.804 .0230702
989.409 .0230774
990.013 .0230830
990.617 .0230874
991.221 .0230908
991.824 .0230947
992.427 .0230991
993.030 .0231049
993.632 .0231120
994.234 .0231204
994.836 .0231298
995.438 .0231400
996.039 .0231504
996.640 .0231605
997.240 .0231710
997.840 .0231820
998.440 .0231933
999.040 .0232046
999.639 .0232158
1000.238 .0232267
1000.836 .0232362
1001.435 .0232442
1002.033 .0232504
1002.630 .0232546
1003.228 .0232574
1003.825 .0232591
1004.422 .0232609
1005.018 .0232630
1005.614 .0232659
1006.210 .0232694
1006.806 .0232734
1007.401 .0232780
1007.996 .0232821
1008.591 .0232864
1009.186 .0232910
1009.780 .0232961
1010.374 .0233016
1010.967 .0233078
1011.561 .0233151
1012.154 .0233236
1012.746 .0233333
1013.339 .0233434
1013.931 .0233534
1014.523 .0233634
1015.115 .0233724
1015.706 .0233803
1016.298 .0233868
1016.888 .0233930
1017.479 .0233983
1018.069 .0234035
1018.660 .0234082
1019.250 .0234132
1019.839 .0234184
1020.429 .0234232
1021.018 .0234280
1021.607 .0234319
1022.195 .0234348
1022.784 .0234369
1023.372 .0234386
1023.960 .0234402
1024.547 .0234418
1025.135 .0234446
1025.722 .0234484
1026.309 .0234540
1026.896 .0234605
1027.483 .0234674
1028.069 .0234749
1028.655 .0234825
1029.241 .0234891
1029.827 .0234949
1030.412 .0235003
1030.997 .0235054
1031.582 .0235107
1032.167 .0235160
1032.752 .0235208
1033.336 .0235252
1033.921 .0235284
1034.505 .0235296
1035.089 .0235282
1035.672 .0235241
1036.256 .0235173
1036.839 .0235092
1037.422 .0234999
1038.005 .0234899
1038.588 .0234802
1039.171 .0234709
1039.753 .0234621
1040.335 .0234535
1040.918 .0234458
1041.500 .0234388
1042.081 .0234328
1042.663 .0234273
1043.244 .0234221
1043.826 .0234174
1044.407 .0234136
1044.988 .0234101
1045.569 .0234077
1046.150 .0234059
1046.730 .0234044
1047.311 .0234038
1047.891 .0234043
1048.471 .0234053
1049.052 .0234066
1049.632 .0234069
1050.211 .0234068
1050.791 .0234044
1051.371 .0234005
1051.950 .0233949
1052.530 .0233890
1053.109 .0233834
1053.688 .0233784
1054.268 .0233747
1054.847 .0233734
1055.426 .0233728
1056.005 .0233734
1056.583 .0233736
1057.162 .0233731
1057.741 .0233710
1058.319 .0233678
1058.898 .0233640
1059.476 .0233606
1060.055 .0233579
1060.633 .0233570
1061.211 .0233575
1061.790 .0233595
1062.368 .0233607
1062.946 .0233608
1063.524 .0233594
1064.102 .0233562
1064.680 .0233497
1065.258 .0233428
1065.836 .0233353
1066.414 .0233288
1066.992 .0233232
1067.570 .0233191
1068.148 .0233160
1068.726 .0233140
1069.304 .0233118
1069.882 .0233087
1070.460 .0233037
1071.038 .0232970
1071.616 .0232877
1072.194 .0232786
1072.772 .0232695
1073.350 .0232601
1073.928 .0232498
1074.506 .0232398
1075.084 .0232275
1075.662 .0232144
1076.240 .0232001
1076.819 .0231857
1077.397 .0231721
1077.976 .0231597
1078.554 .0231492
1079.133 .0231414
1079.711 .0231367
1080.290 .0231350
1080.869 .0231337
1081.448 .0231339
1082.027 .0231329
1082.606 .0231316
1083.185 .0231299
1083.764 .0231286
1084.343 .0231272
1084.923 .0231263
1085.502 .0231247
1086.082 .0231220
1086.662 .0231180
1087.242 .0231126
1087.822 .0231054
1088.402 .0230963
1088.983 .0230866
1089.563 .0230758
1090.144 .0230632
1090.725 .0230519
1091.306 .0230399
1091.887 .0230287
1092.469 .0230181
1093.050 .0230087
1093.632 .0230006
1094.214 .0229944
1094.796 .0229913
1095.379 .0229898
1095.961 .0229901
1096.544 .0229901
1097.127 .0229882
1097.710 .0229844
1098.294 .0229803
1098.877 .0229742
1099.461 .0229682
1100.046 .0229652
1100.630 .0229649
1101.215 .0229668
1101.800 .0229720
1102.385 .0229780
1102.970 .0229868
1103.556 .0229952
1104.142 .0230028
1104.728 .0230098
1105.315 .0230170
1105.902 .0230248
1106.489 .0230334
1107.077 .0230459
1107.664 .0230638
1108.253 .0230834
1108.841 .0231071
1109.430 .0231320
1110.019 .0231562
1110.609 .0231785
1111.198 .0231978
1111.789 .0232146
1112.379 .0232287
1112.970 .0232411
1113.561 .0232536
1114.153 .0232694
1114.745 .0232887
1115.338 .0233122
1115.931 .0233383
1116.524 .0233688
1117.117 .0234013
1117.712 .0234340
1118.306 .0234695
1118.901 .0235064
1119.496 .0235440
1120.092 .0235808
1120.689 .0236170
1121.285 .0236540
1121.882 .0236884
1122.480 .0237223
1123.078 .0237588
1123.677 .0237968
1124.276 .0238349
1124.875 .0238756
1125.476 .0239196
1126.076 .0239695
1126.677 .0240256
1127.279 .0240834
1127.881 .0241454
1128.484 .0242094
1129.087 .0242739
1129.691 .0243378
1130.295 .0244059
1130.900 .0244795
1131.505 .0245583
1132.111 .0246478
1132.718 .0247510
1133.325 .0248601
1133.933 .0249777
1134.541 .0251000
1135.150 .0252244
1135.760 .0253479
1136.370 .0254680
1136.981 .0255844
1137.592 .0256987
1138.204 .0258127
1138.817 .0259264
1139.431 .0260402
1140.045 .0261598
1140.660 .0262777
1141.275 .0263951
1141.891 .0264986
1142.508 .0266958
1143.126 .0267878
1143.744 .0268123
1144.363 .0269825
1144.983 .0267070
