Measurement Sequence started on: 15-12-46-377
Integration time: 28
Scans to Average: 2 
>>>>>Begin Spectral Data<<<<<
432.689 .0000100
433.621 .0000100
434.552 .0000100
435.482 .0000100
436.410 .0000100
437.337 .0000100
438.262 .0269619
439.187 .0572187
440.110 .0947914
441.031 .1372156
441.952 .1784335
442.871 .2109325
443.789 .2287806
444.705 .2299458
445.621 .2168885
446.535 .1949942
447.447 .1701731
448.359 .1322029
449.269 .1132717
450.178 .1013322
451.086 .0928918
451.993 .0864879
452.898 .0814704
453.803 .0774487
454.706 .0741706
455.608 .0714262
456.508 .0690893
457.408 .0670735
458.306 .0653162
459.204 .0637505
460.100 .0623431
460.995 .0610673
461.888 .0599050
462.781 .0588432
463.673 .0578722
464.563 .0569814
465.452 .0561488
466.340 .0553563
467.228 .0546002
468.114 .0538776
468.999 .0531930
469.882 .0525356
470.765 .0519163
471.647 .0513480
472.528 .0508276
473.407 .0503596
474.286 .0499417
475.163 .0495648
476.040 .0492372
476.915 .0489436
477.790 .0486795
478.663 .0484421
479.535 .0482362
480.407 .0480610
481.277 .0479160
482.147 .0478015
483.015 .0477172
483.883 .0476610
484.749 .0476317
485.615 .0476180
486.479 .0476146
487.343 .0476215
488.206 .0476341
489.067 .0476529
489.928 .0476822
490.788 .0477209
491.647 .0477844
492.505 .0478707
493.362 .0479802
494.218 .0481147
495.073 .0482698
495.928 .0484527
496.781 .0486563
497.634 .0488821
498.486 .0491318
499.337 .0494071
500.187 .0497134
501.036 .0500499
501.884 .0504142
502.731 .0508095
503.578 .0512324
504.424 .0516807
505.268 .0521399
506.113 .0526125
506.956 .0531000
507.798 .0536309
508.640 .0542056
509.480 .0548449
510.320 .0555648
511.160 .0563838
511.998 .0573087
512.836 .0583284
513.672 .0594498
514.508 .0606802
515.344 .0620150
516.178 .0635051
517.012 .0651580
517.845 .0670496
518.677 .0692192
519.508 .0717077
520.339 .0745469
521.169 .0778023
521.998 .0814412
522.826 .0855088
523.654 .0900295
524.481 .0949847
525.307 .1004270
526.133 .1063196
526.958 .1126626
527.782 .1193997
528.605 .1263365
529.428 .1333564
530.250 .1398948
531.072 .1457295
531.892 .1503951
532.712 .1536811
533.532 .1554462
534.350 .1555334
535.168 .1539514
535.986 .1508410
536.802 .1463807
537.618 .1408568
538.434 .1344515
539.249 .1276089
540.063 .1204998
540.876 .1134459
541.689 .1066285
542.501 .1002930
543.313 .0945777
544.124 .0895713
544.934 .0851516
545.744 .0812695
546.553 .0778211
547.361 .0747339
548.169 .0719704
548.976 .0694637
549.783 .0671810
550.589 .0650905
551.395 .0631594
552.200 .0613935
553.004 .0597484
553.808 .0582217
554.611 .0568021
555.414 .0554925
556.216 .0542811
557.018 .0531748
557.819 .0521530
558.619 .0512114
559.419 .0503455
560.218 .0495427
561.017 .0487997
561.815 .0481047
562.613 .0474413
563.410 .0468021
564.207 .0461941
565.003 .0456144
565.799 .0450521
566.594 .0445124
567.388 .0439982
568.182 .0434999
568.976 .0430116
569.769 .0425285
570.562 .0420538
571.354 .0415791
572.145 .0411172
572.936 .0406565
573.727 .0402015
574.517 .0397529
575.307 .0393165
576.096 .0388920
576.885 .0384833
577.673 .0380943
578.461 .0377232
579.248 .0373728
580.035 .0370466
580.821 .0367370
581.607 .0364478
582.392 .0361774
583.177 .0359249
583.962 .0356868
584.746 .0354668
585.529 .0352612
586.313 .0350718
587.095 .0349029
587.878 .0347513
588.660 .0346155
589.441 .0344973
590.222 .0343925
591.003 .0343009
591.783 .0342184
592.563 .0341436
593.342 .0340742
594.121 .0340069
594.899 .0339417
595.678 .0338768
596.455 .0338155
597.233 .0337563
598.009 .0336995
598.786 .0336459
599.562 .0335943
600.338 .0335428
601.113 .0334907
601.888 .0334383
602.663 .0333861
603.437 .0333335
604.211 .0332804
604.984 .0332280
605.757 .0331774
606.530 .0331282
607.302 .0330812
608.074 .0330366
608.845 .0329959
609.616 .0329577
610.387 .0329228
611.158 .0328909
611.928 .0328615
612.697 .0328347
613.467 .0328096
614.236 .0327853
615.004 .0327609
615.773 .0327363
616.541 .0327107
617.308 .0326844
618.076 .0326580
618.843 .0326307
619.609 .0326031
620.375 .0325756
621.141 .0325477
621.907 .0325188
622.672 .0324892
623.437 .0324589
624.202 .0324276
624.966 .0323965
625.730 .0323652
626.493 .0323346
627.257 .0323059
628.020 .0322784
628.782 .0322510
629.545 .0322240
630.307 .0321970
631.068 .0321688
631.830 .0321401
632.591 .0321107
633.352 .0320807
634.112 .0320513
634.872 .0320211
635.632 .0319905
636.392 .0319598
637.151 .0319288
637.910 .0318966
638.668 .0318638
639.427 .0318298
640.185 .0317951
640.943 .0317605
641.700 .0317268
642.457 .0316945
643.214 .0316644
643.971 .0316361
644.727 .0316094
645.483 .0315839
646.239 .0315593
646.994 .0315348
647.750 .0315117
648.505 .0314889
649.259 .0314671
650.014 .0314468
650.768 .0314282
651.521 .0314109
652.275 .0313944
653.028 .0313778
653.781 .0313601
654.534 .0313405
655.286 .0313186
656.039 .0312939
656.791 .0312680
657.542 .0312414
658.294 .0312145
659.045 .0311886
659.796 .0311638
660.546 .0311399
661.297 .0311171
662.047 .0310948
662.796 .0310724
663.546 .0310495
664.295 .0310256
665.044 .0310007
665.793 .0309755
666.542 .0309503
667.290 .0309258
668.038 .0309020
668.786 .0308796
669.533 .0308581
670.281 .0308371
671.028 .0308165
671.774 .0307955
672.521 .0307742
673.267 .0307520
674.013 .0307285
674.759 .0307042
675.505 .0306791
676.250 .0306530
676.995 .0306274
677.740 .0306023
678.484 .0305781
679.229 .0305550
679.973 .0305331
680.717 .0305122
681.460 .0304917
682.204 .0304712
682.947 .0304506
683.690 .0304301
684.433 .0304095
685.175 .0303883
685.917 .0303679
686.659 .0303482
687.401 .0303296
688.142 .0303119
688.884 .0302952
689.625 .0302791
690.365 .0302634
691.106 .0302474
691.846 .0302313
692.586 .0302150
693.326 .0301980
694.066 .0301807
694.805 .0301627
695.545 .0301436
696.284 .0301234
697.022 .0301024
697.761 .0300806
698.499 .0300577
699.237 .0300344
699.975 .0300102
700.713 .0299859
701.450 .0299620
702.187 .0299380
702.924 .0299146
703.661 .0298920
704.397 .0298703
705.133 .0298489
705.869 .0298287
706.605 .0298092
707.341 .0297907
708.076 .0297737
708.811 .0297576
709.546 .0297419
710.281 .0297270
711.015 .0297120
711.749 .0296968
712.483 .0296812
713.217 .0296654
713.950 .0296488
714.684 .0296318
715.417 .0296140
716.150 .0295956
716.882 .0295767
717.615 .0295580
718.347 .0295383
719.079 .0295185
719.811 .0294984
720.542 .0294779
721.273 .0294575
722.005 .0294370
722.735 .0294168
723.466 .0293971
724.196 .0293777
724.927 .0293583
725.656 .0293393
726.386 .0293207
727.116 .0293022
727.845 .0292838
728.574 .0292648
729.303 .0292452
730.031 .0292253
730.760 .0292051
731.488 .0291848
732.216 .0291648
732.944 .0291459
733.671 .0291279
734.398 .0291113
735.125 .0290956
735.852 .0290810
736.579 .0290669
737.305 .0290531
738.031 .0290388
738.757 .0290241
739.483 .0290092
740.208 .0289939
740.933 .0289790
741.658 .0289646
742.383 .0289508
743.108 .0289375
743.832 .0289249
744.556 .0289129
745.280 .0289007
746.004 .0288879
746.727 .0288746
747.450 .0288610
748.173 .0288468
748.896 .0288321
749.618 .0288178
750.340 .0288041
751.062 .0287913
751.784 .0287793
752.506 .0287686
753.227 .0287587
753.948 .0287494
754.669 .0287397
755.389 .0287294
756.110 .0287188
756.830 .0287069
757.550 .0286944
758.269 .0286814
758.989 .0286680
759.708 .0286544
760.427 .0286409
761.146 .0286278
761.864 .0286144
762.582 .0286009
763.300 .0285867
764.018 .0285717
764.736 .0285563
765.453 .0285402
766.170 .0285246
766.887 .0285097
767.603 .0284963
768.320 .0284840
769.036 .0284728
769.751 .0284623
770.467 .0284521
771.182 .0284419
771.897 .0284308
772.612 .0284187
773.327 .0284063
774.041 .0283935
774.755 .0283808
775.469 .0283685
776.183 .0283572
776.896 .0283467
777.609 .0283368
778.322 .0283271
779.035 .0283175
779.747 .0283080
780.459 .0282982
781.171 .0282884
781.882 .0282793
782.594 .0282712
783.305 .0282643
784.016 .0282591
784.726 .0282555
785.436 .0282533
786.147 .0282523
786.856 .0282520
787.566 .0282519
788.275 .0282518
788.984 .0282511
789.693 .0282499
790.401 .0282482
791.110 .0282462
791.818 .0282433
792.525 .0282402
793.233 .0282364
793.940 .0282312
794.647 .0282247
795.353 .0282171
796.060 .0282085
796.766 .0281987
797.472 .0281879
798.177 .0281763
798.883 .0281639
799.588 .0281513
800.292 .0281385
800.997 .0281257
801.701 .0281129
802.405 .0280999
803.109 .0280867
803.812 .0280737
804.515 .0280608
805.218 .0280482
805.921 .0280359
806.623 .0280240
807.325 .0280124
808.027 .0280010
808.728 .0279899
809.429 .0279788
810.130 .0279674
810.831 .0279557
811.531 .0279433
812.231 .0279301
812.931 .0279158
813.630 .0279007
814.330 .0278848
815.029 .0278681
815.727 .0278513
816.426 .0278343
817.124 .0278174
817.821 .0278008
818.519 .0277845
819.216 .0277686
819.913 .0277533
820.609 .0277386
821.306 .0277248
822.002 .0277120
822.697 .0277008
823.393 .0276909
824.088 .0276824
824.783 .0276749
825.477 .0276677
826.171 .0276607
826.865 .0276540
827.559 .0276464
828.252 .0276388
828.945 .0276314
829.638 .0276240
830.330 .0276171
831.023 .0276100
831.714 .0276029
832.406 .0275958
833.097 .0275876
833.788 .0275780
834.479 .0275673
835.169 .0275562
835.859 .0275445
836.548 .0275326
837.238 .0275213
837.927 .0275107
838.615 .0275008
839.304 .0274915
839.992 .0274821
840.680 .0274728
841.367 .0274635
842.054 .0274532
842.741 .0274428
843.428 .0274322
844.114 .0274214
844.800 .0274112
845.485 .0274012
846.170 .0273908
846.855 .0273797
847.540 .0273681
848.224 .0273559
848.908 .0273422
849.592 .0273275
850.275 .0273116
850.958 .0272954
851.641 .0272796
852.323 .0272634
853.005 .0272482
853.687 .0272340
854.368 .0272202
855.049 .0272062
855.730 .0271919
856.410 .0271767
857.090 .0271609
857.769 .0271444
858.449 .0271270
859.128 .0271091
859.806 .0270914
860.485 .0270740
861.163 .0270574
861.840 .0270416
862.518 .0270262
863.195 .0270100
863.871 .0269936
864.548 .0269758
865.224 .0269571
865.899 .0269380
866.574 .0269189
867.249 .0269002
867.924 .0268824
868.598 .0268660
869.272 .0268504
869.946 .0268364
870.619 .0268235
871.292 .0268109
871.964 .0267986
872.636 .0267860
873.308 .0267731
873.979 .0267602
874.651 .0267480
875.321 .0267358
875.992 .0267241
876.662 .0267135
877.331 .0267030
878.001 .0266931
878.670 .0266834
879.338 .0266737
880.007 .0266638
880.675 .0266544
881.342 .0266448
882.009 .0266356
882.676 .0266273
883.343 .0266200
884.009 .0266138
884.675 .0266087
885.340 .0266042
886.005 .0266001
886.670 .0265970
887.334 .0265942
887.998 .0265915
888.662 .0265897
889.325 .0265881
889.988 .0265872
890.650 .0265864
891.312 .0265855
891.974 .0265851
892.636 .0265852
893.297 .0265860
893.957 .0265874
894.618 .0265896
895.278 .0265922
895.937 .0265949
896.596 .0265977
897.255 .0266000
897.914 .0266014
898.572 .0266020
899.230 .0266015
899.887 .0266000
900.544 .0265977
901.201 .0265945
901.857 .0265909
902.513 .0265869
903.168 .0265820
903.823 .0265757
904.478 .0265681
905.132 .0265593
905.786 .0265489
906.440 .0265376
907.093 .0265257
907.746 .0265135
908.399 .0265016
909.051 .0264898
909.703 .0264782
910.354 .0264663
911.005 .0264545
911.656 .0264429
912.306 .0264310
912.956 .0264191
913.605 .0264076
914.254 .0263966
914.903 .0263865
915.551 .0263772
916.199 .0263687
916.847 .0263610
917.494 .0263542
918.141 .0263475
918.788 .0263410
919.434 .0263345
920.079 .0263281
920.725 .0263217
921.370 .0263154
922.014 .0263086
922.658 .0263012
923.302 .0262934
923.946 .0262850
924.589 .0262756
925.231 .0262648
925.873 .0262528
926.515 .0262396
927.157 .0262248
927.798 .0262088
928.439 .0261918
929.079 .0261746
929.719 .0261574
930.359 .0261403
930.998 .0261234
931.637 .0261070
932.275 .0260910
932.913 .0260755
933.551 .0260605
934.188 .0260458
934.825 .0260314
935.462 .0260175
936.098 .0260043
936.733 .0259922
937.369 .0259814
938.004 .0259720
938.638 .0259642
939.273 .0259576
939.907 .0259517
940.540 .0259465
941.173 .0259420
941.806 .0259380
942.438 .0259342
943.070 .0259312
943.702 .0259289
944.333 .0259278
944.964 .0259280
945.594 .0259294
946.224 .0259319
946.854 .0259352
947.483 .0259385
948.112 .0259413
948.741 .0259430
949.369 .0259433
949.996 .0259421
950.624 .0259396
951.251 .0259359
951.878 .0259311
952.504 .0259257
953.130 .0259203
953.755 .0259141
954.380 .0259074
955.005 .0259000
955.629 .0258919
956.253 .0258827
956.877 .0258729
957.500 .0258626
958.123 .0258523
958.746 .0258419
959.368 .0258318
959.990 .0258216
960.611 .0258111
961.232 .0258007
961.853 .0257898
962.473 .0257786
963.093 .0257671
963.712 .0257549
964.331 .0257424
964.950 .0257297
965.569 .0257172
966.187 .0257046
966.804 .0256924
967.422 .0256811
968.039 .0256701
968.655 .0256595
969.272 .0256501
969.887 .0256414
970.503 .0256333
971.118 .0256256
971.733 .0256185
972.347 .0256117
972.961 .0256055
973.575 .0255991
974.188 .0255927
974.801 .0255854
975.414 .0255770
976.026 .0255663
976.638 .0255541
977.250 .0255401
977.861 .0255243
978.472 .0255067
979.083 .0254883
979.693 .0254686
980.303 .0254483
980.912 .0254268
981.521 .0254048
982.130 .0253815
982.738 .0253576
983.346 .0253328
983.954 .0253080
984.562 .0252833
985.169 .0252593
985.775 .0252361
986.382 .0252144
986.988 .0251942
987.594 .0251757
988.199 .0251591
988.804 .0251447
989.409 .0251312
990.013 .0251189
990.617 .0251073
991.221 .0250969
991.824 .0250871
992.427 .0250786
993.030 .0250709
993.632 .0250642
994.234 .0250587
994.836 .0250544
995.438 .0250507
996.039 .0250481
996.640 .0250455
997.240 .0250426
997.840 .0250390
998.440 .0250344
999.040 .0250283
999.639 .0250209
1000.238 .0250121
1000.836 .0250019
1001.435 .0249902
1002.033 .0249780
1002.630 .0249651
1003.228 .0249523
1003.825 .0249396
1004.422 .0249274
1005.018 .0249158
1005.614 .0249052
1006.210 .0248952
1006.806 .0248864
1007.401 .0248782
1007.996 .0248705
1008.591 .0248630
1009.186 .0248559
1009.780 .0248491
1010.374 .0248424
1010.967 .0248356
1011.561 .0248293
1012.154 .0248225
1012.746 .0248155
1013.339 .0248078
1013.931 .0247998
1014.523 .0247918
1015.115 .0247836
1015.706 .0247756
1016.298 .0247680
1016.888 .0247612
1017.479 .0247549
1018.069 .0247495
1018.660 .0247449
1019.250 .0247408
1019.839 .0247374
1020.429 .0247351
1021.018 .0247344
1021.607 .0247355
1022.195 .0247389
1022.784 .0247442
1023.372 .0247510
1023.960 .0247587
1024.547 .0247659
1025.135 .0247726
1025.722 .0247785
1026.309 .0247832
1026.896 .0247869
1027.483 .0247901
1028.069 .0247934
1028.655 .0247979
1029.241 .0248035
1029.827 .0248106
1030.412 .0248188
1030.997 .0248278
1031.582 .0248362
1032.167 .0248441
1032.752 .0248514
1033.336 .0248581
1033.921 .0248638
1034.505 .0248690
1035.089 .0248727
1035.672 .0248756
1036.256 .0248777
1036.839 .0248786
1037.422 .0248779
1038.005 .0248764
1038.588 .0248731
1039.171 .0248692
1039.753 .0248646
1040.335 .0248598
1040.918 .0248548
1041.500 .0248500
1042.081 .0248452
1042.663 .0248401
1043.244 .0248353
1043.826 .0248308
1044.407 .0248264
1044.988 .0248230
1045.569 .0248202
1046.150 .0248176
1046.730 .0248154
1047.311 .0248141
1047.891 .0248130
1048.471 .0248118
1049.052 .0248107
1049.632 .0248101
1050.211 .0248100
1050.791 .0248102
1051.371 .0248109
1051.950 .0248127
1052.530 .0248150
1053.109 .0248175
1053.688 .0248197
1054.268 .0248222
1054.847 .0248256
1055.426 .0248291
1056.005 .0248337
1056.583 .0248397
1057.162 .0248466
1057.741 .0248533
1058.319 .0248605
1058.898 .0248682
1059.476 .0248752
1060.055 .0248811
1060.633 .0248870
1061.211 .0248910
1061.790 .0248940
1062.368 .0248968
1062.946 .0249001
1063.524 .0249049
1064.102 .0249114
1064.680 .0249180
1065.258 .0249261
1065.836 .0249356
1066.414 .0249454
1066.992 .0249541
1067.570 .0249635
1068.148 .0249723
1068.726 .0249792
1069.304 .0249854
1069.882 .0249924
1070.460 .0249988
1071.038 .0250078
1071.616 .0250165
1072.194 .0250249
1072.772 .0250331
1073.350 .0250400
1073.928 .0250454
1074.506 .0250491
1075.084 .0250520
1075.662 .0250534
1076.240 .0250545
1076.819 .0250574
1077.397 .0250610
1077.976 .0250675
1078.554 .0250759
1079.133 .0250857
1079.711 .0250959
1080.290 .0251064
1080.869 .0251154
1081.448 .0251250
1082.027 .0251351
1082.606 .0251448
1083.185 .0251550
1083.764 .0251665
1084.343 .0251804
1084.923 .0251954
1085.502 .0252121
1086.082 .0252317
1086.662 .0252535
1087.242 .0252773
1087.822 .0253005
1088.402 .0253256
1088.983 .0253513
1089.563 .0253773
1090.144 .0254019
1090.725 .0254264
1091.306 .0254514
1091.887 .0254765
1092.469 .0255022
1093.050 .0255292
1093.632 .0255582
1094.214 .0255872
1094.796 .0256141
1095.379 .0256396
1095.961 .0256602
1096.544 .0256769
1097.127 .0256899
1097.710 .0257008
1098.294 .0257096
1098.877 .0257191
1099.461 .0257302
1100.046 .0257454
1100.630 .0257649
1101.215 .0257875
1101.800 .0258118
1102.385 .0258396
1102.970 .0258676
1103.556 .0258929
1104.142 .0259178
1104.728 .0259444
1105.315 .0259714
1105.902 .0260016
1106.489 .0260358
1107.077 .0260732
1107.664 .0261155
1108.253 .0261598
1108.841 .0262033
1109.430 .0262450
1110.019 .0262844
1110.609 .0263183
1111.198 .0263477
1111.789 .0263769
1112.379 .0264040
1112.970 .0264322
1113.561 .0264660
1114.153 .0265027
1114.745 .0265429
1115.338 .0265866
1115.931 .0266322
1116.524 .0266765
1117.117 .0267191
1117.712 .0267576
1118.306 .0267954
1118.901 .0268355
1119.496 .0268780
1120.092 .0269249
1120.689 .0269801
1121.285 .0270421
1121.882 .0271059
1122.480 .0271704
1123.078 .0272335
1123.677 .0272914
1124.276 .0273432
1124.875 .0273892
1125.476 .0274303
1126.076 .0274708
1126.677 .0275138
1127.279 .0275599
1127.881 .0276106
1128.484 .0276632
1129.087 .0277154
1129.691 .0277712
1130.295 .0278283
1130.900 .0278885
1131.505 .0279524
1132.111 .0280252
1132.718 .0281086
1133.325 .0282028
1133.933 .0283066
1134.541 .0284213
1135.150 .0285467
1135.760 .0286794
1136.370 .0288130
1136.981 .0289489
1137.592 .0290863
1138.204 .0292285
1138.817 .0293683
1139.431 .0295043
1140.045 .0296444
1140.660 .0297818
1141.275 .0299293
1141.891 .0300803
1142.508 .0301018
1143.126 .0304101
1143.744 .0303987
1144.363 .0309071
1144.983 .0309951
