Measurement Sequence started on: 15-12-46-377
Integration time: 28
Scans to Average: 2 
>>>>>Begin Spectral Data<<<<<
432.689 .0000100
433.621 .0000100
434.552 .0000100
435.482 .0000100
436.410 .0000100
437.337 .0000100
438.262 .0274070
439.187 .0580289
440.110 .0960535
441.031 .1388744
441.952 .1804296
442.871 .2130790
443.789 .2308551
444.705 .2318159
445.621 .2185037
446.535 .1964114
447.447 .1715153
448.359 .1333962
449.269 .1147882
450.178 .1032334
451.086 .0952144
451.993 .0891064
452.898 .0843046
453.803 .0804032
454.706 .0771175
455.608 .0742965
456.508 .0718396
457.408 .0696792
458.306 .0677544
459.204 .0660174
460.100 .0644448
460.995 .0630136
461.888 .0617190
462.781 .0605211
463.673 .0594125
464.563 .0583858
465.452 .0574138
466.340 .0564948
467.228 .0556406
468.114 .0548411
468.999 .0541057
469.882 .0534405
470.765 .0528497
471.647 .0523344
472.528 .0518892
473.407 .0515048
474.286 .0511754
475.163 .0508840
476.040 .0506241
476.915 .0503795
477.790 .0501588
478.663 .0499566
479.535 .0497762
480.407 .0496208
481.277 .0494843
482.147 .0493716
483.015 .0492767
483.883 .0491970
484.749 .0491348
485.615 .0490865
486.479 .0490513
487.343 .0490302
488.206 .0490278
489.067 .0490420
489.928 .0490789
490.788 .0491319
491.647 .0492064
492.505 .0492987
493.362 .0494102
494.218 .0495421
495.073 .0496941
495.928 .0498789
496.781 .0500858
497.634 .0503291
498.486 .0506071
499.337 .0509085
500.187 .0512359
501.036 .0515868
501.884 .0519616
502.731 .0523537
503.578 .0527654
504.424 .0531914
505.268 .0536363
506.113 .0541115
506.956 .0546098
507.798 .0551408
508.640 .0557148
509.480 .0563497
510.320 .0570489
511.160 .0578396
511.998 .0587179
512.836 .0596903
513.672 .0607901
514.508 .0620189
515.344 .0633751
516.178 .0648928
517.012 .0665977
517.845 .0685162
518.677 .0707092
519.508 .0732057
520.339 .0760400
521.169 .0793130
521.998 .0830550
522.826 .0873022
523.654 .0920545
524.481 .0973345
525.307 .1031659
526.133 .1095395
526.958 .1163990
527.782 .1236344
528.605 .1310519
529.428 .1385285
530.250 .1454949
531.072 .1517270
531.892 .1568733
532.712 .1606193
533.532 .1627783
534.350 .1631678
535.168 .1617638
535.986 .1586852
536.802 .1541356
537.618 .1484514
538.434 .1418205
539.249 .1347300
540.063 .1273521
540.876 .1200244
541.689 .1130113
542.501 .1064517
543.313 .1004638
544.124 .0950931
544.934 .0902946
545.744 .0859793
546.553 .0820882
547.361 .0786183
548.169 .0755230
548.976 .0727136
549.783 .0701456
550.589 .0677970
551.395 .0656240
552.200 .0636197
553.004 .0617636
553.808 .0600589
554.611 .0585045
555.414 .0570886
556.216 .0558035
557.018 .0546588
557.819 .0536492
558.619 .0527308
559.419 .0519005
560.218 .0511350
561.017 .0504184
561.815 .0497303
562.613 .0490585
563.410 .0484002
564.207 .0477541
565.003 .0471177
565.799 .0464975
566.594 .0458805
567.388 .0452788
568.182 .0446846
568.976 .0441002
569.769 .0435278
570.562 .0429694
571.354 .0424208
572.145 .0418934
572.936 .0413839
573.727 .0408977
574.517 .0404270
575.307 .0399790
576.096 .0395555
576.885 .0391523
577.673 .0387719
578.461 .0384141
579.248 .0380773
580.035 .0377700
580.821 .0374837
581.607 .0372169
582.392 .0369653
583.177 .0367320
583.962 .0365130
584.746 .0363076
585.529 .0361198
586.313 .0359473
587.095 .0357901
587.878 .0356514
588.660 .0355281
589.441 .0354209
590.222 .0353252
591.003 .0352407
591.783 .0351643
592.563 .0350940
593.342 .0350256
594.121 .0349564
594.899 .0348898
595.678 .0348243
596.455 .0347592
597.233 .0346960
598.009 .0346346
598.786 .0345752
599.562 .0345180
600.338 .0344616
601.113 .0344055
601.888 .0343500
602.663 .0342937
603.437 .0342370
604.211 .0341804
604.984 .0341246
605.757 .0340712
606.530 .0340205
607.302 .0339727
608.074 .0339279
608.845 .0338880
609.616 .0338506
610.387 .0338167
611.158 .0337860
611.928 .0337568
612.697 .0337288
613.467 .0337021
614.236 .0336760
615.004 .0336498
615.773 .0336239
616.541 .0335976
617.308 .0335715
618.076 .0335461
618.843 .0335200
619.609 .0334947
620.375 .0334711
621.141 .0334479
621.907 .0334233
622.672 .0333986
623.437 .0333725
624.202 .0333442
624.966 .0333140
625.730 .0332815
626.493 .0332471
627.257 .0332115
628.020 .0331755
628.782 .0331387
629.545 .0331023
630.307 .0330658
631.068 .0330286
631.830 .0329911
632.591 .0329530
633.352 .0329142
634.112 .0328751
634.872 .0328362
635.632 .0327973
636.392 .0327576
637.151 .0327178
637.910 .0326781
638.668 .0326390
639.427 .0326005
640.185 .0325624
640.943 .0325254
641.700 .0324899
642.457 .0324572
643.214 .0324266
643.971 .0323976
644.727 .0323702
645.483 .0323435
646.239 .0323166
646.994 .0322888
647.750 .0322612
648.505 .0322338
649.259 .0322079
650.014 .0321840
650.768 .0321620
651.521 .0321433
652.275 .0321276
653.028 .0321141
653.781 .0321022
654.534 .0320903
655.286 .0320775
656.039 .0320639
656.791 .0320499
657.542 .0320353
658.294 .0320215
659.045 .0320085
659.796 .0319965
660.546 .0319850
661.297 .0319740
662.047 .0319626
662.796 .0319500
663.546 .0319360
664.295 .0319196
665.044 .0319012
665.793 .0318815
666.542 .0318602
667.290 .0318389
668.038 .0318168
668.786 .0317940
669.533 .0317706
670.281 .0317464
671.028 .0317215
671.774 .0316954
672.521 .0316684
673.267 .0316410
674.013 .0316135
674.759 .0315863
675.505 .0315594
676.250 .0315336
676.995 .0315080
677.740 .0314826
678.484 .0314572
679.229 .0314318
679.973 .0314065
680.717 .0313819
681.460 .0313582
682.204 .0313354
682.947 .0313142
683.690 .0312940
684.433 .0312745
685.175 .0312558
685.917 .0312369
686.659 .0312173
687.401 .0311967
688.142 .0311754
688.884 .0311530
689.625 .0311301
690.365 .0311073
691.106 .0310839
691.846 .0310607
692.586 .0310367
693.326 .0310121
694.066 .0309868
694.805 .0309609
695.545 .0309335
696.284 .0309047
697.022 .0308744
697.761 .0308426
698.499 .0308097
699.237 .0307762
699.975 .0307420
700.713 .0307081
701.450 .0306745
702.187 .0306415
702.924 .0306097
703.661 .0305789
704.397 .0305491
705.133 .0305204
705.869 .0304925
706.605 .0304654
707.341 .0304391
708.076 .0304138
708.811 .0303894
709.546 .0303667
710.281 .0303455
711.015 .0303254
711.749 .0303063
712.483 .0302886
713.217 .0302711
713.950 .0302538
714.684 .0302362
715.417 .0302181
716.150 .0302002
716.882 .0301824
717.615 .0301643
718.347 .0301463
719.079 .0301287
719.811 .0301113
720.542 .0300939
721.273 .0300771
722.005 .0300605
722.735 .0300445
723.466 .0300295
724.196 .0300154
724.927 .0300019
725.656 .0299891
726.386 .0299771
727.116 .0299654
727.845 .0299537
728.574 .0299418
729.303 .0299299
730.031 .0299187
730.760 .0299084
731.488 .0298987
732.216 .0298899
732.944 .0298826
733.671 .0298770
734.398 .0298729
735.125 .0298703
735.852 .0298690
736.579 .0298689
737.305 .0298698
738.031 .0298717
738.757 .0298739
739.483 .0298769
740.208 .0298800
740.933 .0298830
741.658 .0298856
742.383 .0298874
743.108 .0298883
743.832 .0298886
744.556 .0298880
745.280 .0298858
746.004 .0298817
746.727 .0298760
747.450 .0298688
748.173 .0298598
748.896 .0298489
749.618 .0298370
750.340 .0298238
751.062 .0298103
751.784 .0297955
752.506 .0297808
753.227 .0297658
753.948 .0297510
754.669 .0297364
755.389 .0297220
756.110 .0297077
756.830 .0296934
757.550 .0296789
758.269 .0296645
758.989 .0296492
759.708 .0296329
760.427 .0296154
761.146 .0295970
761.864 .0295774
762.582 .0295569
763.300 .0295358
764.018 .0295148
764.736 .0294933
765.453 .0294716
766.170 .0294494
766.887 .0294266
767.603 .0294030
768.320 .0293784
769.036 .0293531
769.751 .0293274
770.467 .0293012
771.182 .0292750
771.897 .0292495
772.612 .0292249
773.327 .0292013
774.041 .0291784
774.755 .0291559
775.469 .0291335
776.183 .0291110
776.896 .0290885
777.609 .0290657
778.322 .0290428
779.035 .0290204
779.747 .0289981
780.459 .0289761
781.171 .0289546
781.882 .0289336
782.594 .0289136
783.305 .0288941
784.016 .0288750
784.726 .0288567
785.436 .0288394
786.147 .0288228
786.856 .0288069
787.566 .0287920
788.275 .0287781
788.984 .0287651
789.693 .0287527
790.401 .0287404
791.110 .0287279
791.818 .0287151
792.525 .0287022
793.233 .0286890
793.940 .0286755
794.647 .0286616
795.353 .0286476
796.060 .0286334
796.766 .0286188
797.472 .0286035
798.177 .0285876
798.883 .0285715
799.588 .0285551
800.292 .0285387
800.997 .0285228
801.701 .0285079
802.405 .0284943
803.109 .0284820
803.812 .0284710
804.515 .0284609
805.218 .0284513
805.921 .0284420
806.623 .0284324
807.325 .0284228
808.027 .0284132
808.728 .0284039
809.429 .0283950
810.130 .0283866
810.831 .0283788
811.531 .0283715
812.231 .0283645
812.931 .0283577
813.630 .0283504
814.330 .0283431
815.029 .0283357
815.727 .0283285
816.426 .0283218
817.124 .0283158
817.821 .0283107
818.519 .0283068
819.216 .0283044
819.913 .0283033
820.609 .0283034
821.306 .0283051
822.002 .0283082
822.697 .0283128
823.393 .0283184
824.088 .0283249
824.783 .0283316
825.477 .0283387
826.171 .0283457
826.865 .0283530
827.559 .0283608
828.252 .0283690
828.945 .0283776
829.638 .0283865
830.330 .0283956
831.023 .0284044
831.714 .0284131
832.406 .0284214
833.097 .0284287
833.788 .0284353
834.479 .0284407
835.169 .0284453
835.859 .0284493
836.548 .0284529
837.238 .0284564
837.927 .0284600
838.615 .0284637
839.304 .0284673
839.992 .0284714
840.680 .0284758
841.367 .0284804
842.054 .0284851
842.741 .0284901
843.428 .0284943
844.114 .0284983
844.800 .0285020
845.485 .0285046
846.170 .0285062
846.855 .0285067
847.540 .0285055
848.224 .0285027
848.908 .0284984
849.592 .0284923
850.275 .0284841
850.958 .0284742
851.641 .0284617
852.323 .0284471
853.005 .0284305
853.687 .0284122
854.368 .0283921
855.049 .0283714
855.730 .0283493
856.410 .0283261
857.090 .0283026
857.769 .0282787
858.449 .0282547
859.128 .0282313
859.806 .0282085
860.485 .0281865
861.163 .0281651
861.840 .0281446
862.518 .0281242
863.195 .0281047
863.871 .0280850
864.548 .0280648
865.224 .0280441
865.899 .0280228
866.574 .0280008
867.249 .0279786
867.924 .0279560
868.598 .0279330
869.272 .0279095
869.946 .0278858
870.619 .0278609
871.292 .0278358
871.964 .0278099
872.636 .0277833
873.308 .0277562
873.979 .0277290
874.651 .0277013
875.321 .0276739
875.992 .0276465
876.662 .0276196
877.331 .0275925
878.001 .0275658
878.670 .0275388
879.338 .0275121
880.007 .0274858
880.675 .0274594
881.342 .0274330
882.009 .0274071
882.676 .0273810
883.343 .0273549
884.009 .0273286
884.675 .0273021
885.340 .0272754
886.005 .0272487
886.670 .0272224
887.334 .0271972
887.998 .0271730
888.662 .0271505
889.325 .0271292
889.988 .0271095
890.650 .0270912
891.312 .0270737
891.974 .0270578
892.636 .0270426
893.297 .0270281
893.957 .0270141
894.618 .0270005
895.278 .0269876
895.937 .0269749
896.596 .0269626
897.255 .0269505
897.914 .0269383
898.572 .0269259
899.230 .0269133
899.887 .0269004
900.544 .0268872
901.201 .0268735
901.857 .0268591
902.513 .0268439
903.168 .0268276
903.823 .0268105
904.478 .0267925
905.132 .0267740
905.786 .0267556
906.440 .0267371
907.093 .0267190
907.746 .0267014
908.399 .0266845
909.051 .0266681
909.703 .0266521
910.354 .0266363
911.005 .0266207
911.656 .0266052
912.306 .0265900
912.956 .0265752
913.605 .0265615
914.254 .0265492
914.903 .0265379
915.551 .0265282
916.199 .0265202
916.847 .0265133
917.494 .0265077
918.141 .0265030
918.788 .0264990
919.434 .0264958
920.079 .0264926
920.725 .0264893
921.370 .0264858
922.014 .0264815
922.658 .0264765
923.302 .0264705
923.946 .0264638
924.589 .0264560
925.231 .0264473
925.873 .0264383
926.515 .0264286
927.157 .0264190
927.798 .0264090
928.439 .0263989
929.079 .0263891
929.719 .0263789
930.359 .0263683
930.998 .0263579
931.637 .0263487
932.275 .0263407
932.913 .0263345
933.551 .0263306
934.188 .0263291
934.825 .0263302
935.462 .0263331
936.098 .0263373
936.733 .0263427
937.369 .0263496
938.004 .0263569
938.638 .0263645
939.273 .0263729
939.907 .0263823
940.540 .0263927
941.173 .0264043
941.806 .0264169
942.438 .0264299
943.070 .0264432
943.702 .0264566
944.333 .0264696
944.964 .0264820
945.594 .0264941
946.224 .0265058
946.854 .0265175
947.483 .0265295
948.112 .0265414
948.741 .0265534
949.369 .0265659
949.996 .0265783
950.624 .0265901
951.251 .0266007
951.878 .0266105
952.504 .0266190
953.130 .0266261
953.755 .0266315
954.380 .0266351
955.005 .0266370
955.629 .0266378
956.253 .0266372
956.877 .0266356
957.500 .0266333
958.123 .0266307
958.746 .0266270
959.368 .0266231
959.990 .0266184
960.611 .0266134
961.232 .0266084
961.853 .0266042
962.473 .0266005
963.093 .0265979
963.712 .0265963
964.331 .0265956
964.950 .0265961
965.569 .0265977
966.187 .0265998
966.804 .0266028
967.422 .0266066
968.039 .0266114
968.655 .0266167
969.272 .0266221
969.887 .0266266
970.503 .0266310
971.118 .0266342
971.733 .0266358
972.347 .0266357
972.961 .0266348
973.575 .0266330
974.188 .0266301
974.801 .0266264
975.414 .0266214
976.026 .0266149
976.638 .0266067
977.250 .0265962
977.861 .0265835
978.472 .0265690
979.083 .0265528
979.693 .0265357
980.303 .0265185
980.912 .0265010
981.521 .0264831
982.130 .0264653
982.738 .0264475
983.346 .0264292
983.954 .0264101
984.562 .0263909
985.169 .0263710
985.775 .0263506
986.382 .0263300
986.988 .0263087
987.594 .0262877
988.199 .0262668
988.804 .0262458
989.409 .0262250
990.013 .0262049
990.617 .0261850
991.221 .0261660
991.824 .0261476
992.427 .0261299
993.030 .0261125
993.632 .0260957
994.234 .0260794
994.836 .0260635
995.438 .0260486
996.039 .0260345
996.640 .0260203
997.240 .0260071
997.840 .0259946
998.440 .0259822
999.040 .0259699
999.639 .0259575
1000.238 .0259439
1000.836 .0259293
1001.435 .0259129
1002.033 .0258951
1002.630 .0258761
1003.228 .0258563
1003.825 .0258356
1004.422 .0258147
1005.018 .0257936
1005.614 .0257720
1006.210 .0257502
1006.806 .0257288
1007.401 .0257076
1007.996 .0256862
1008.591 .0256651
1009.186 .0256449
1009.780 .0256251
1010.374 .0256058
1010.967 .0255865
1011.561 .0255677
1012.154 .0255480
1012.746 .0255268
1013.339 .0255044
1013.931 .0254802
1014.523 .0254550
1015.115 .0254289
1015.706 .0254026
1016.298 .0253771
1016.888 .0253524
1017.479 .0253288
1018.069 .0253065
1018.660 .0252858
1019.250 .0252659
1019.839 .0252464
1020.429 .0252281
1021.018 .0252106
1021.607 .0251939
1022.195 .0251790
1022.784 .0251660
1023.372 .0251547
1023.960 .0251457
1024.547 .0251383
1025.135 .0251326
1025.722 .0251283
1026.309 .0251244
1026.896 .0251216
1027.483 .0251191
1028.069 .0251156
1028.655 .0251113
1029.241 .0251056
1029.827 .0250993
1030.412 .0250915
1030.997 .0250842
1031.582 .0250774
1032.167 .0250718
1032.752 .0250680
1033.336 .0250653
1033.921 .0250638
1034.505 .0250630
1035.089 .0250615
1035.672 .0250588
1036.256 .0250546
1036.839 .0250488
1037.422 .0250411
1038.005 .0250333
1038.588 .0250262
1039.171 .0250207
1039.753 .0250173
1040.335 .0250163
1040.918 .0250167
1041.500 .0250176
1042.081 .0250189
1042.663 .0250193
1043.244 .0250192
1043.826 .0250186
1044.407 .0250170
1044.988 .0250153
1045.569 .0250138
1046.150 .0250126
1046.730 .0250109
1047.311 .0250099
1047.891 .0250080
1048.471 .0250045
1049.052 .0249999
1049.632 .0249948
1050.211 .0249896
1050.791 .0249848
1051.371 .0249806
1051.950 .0249774
1052.530 .0249743
1053.109 .0249722
1053.688 .0249690
1054.268 .0249673
1054.847 .0249660
1055.426 .0249662
1056.005 .0249681
1056.583 .0249733
1057.162 .0249801
1057.741 .0249896
1058.319 .0250018
1058.898 .0250159
1059.476 .0250297
1060.055 .0250437
1060.633 .0250564
1061.211 .0250681
1061.790 .0250778
1062.368 .0250867
1062.946 .0250941
1063.524 .0251029
1064.102 .0251100
1064.680 .0251170
1065.258 .0251246
1065.836 .0251325
1066.414 .0251394
1066.992 .0251467
1067.570 .0251541
1068.148 .0251610
1068.726 .0251681
1069.304 .0251761
1069.882 .0251835
1070.460 .0251928
1071.038 .0252027
1071.616 .0252145
1072.194 .0252289
1072.772 .0252454
1073.350 .0252626
1073.928 .0252822
1074.506 .0253027
1075.084 .0253219
1075.662 .0253401
1076.240 .0253575
1076.819 .0253729
1077.397 .0253875
1077.976 .0254009
1078.554 .0254133
1079.133 .0254264
1079.711 .0254413
1080.290 .0254562
1080.869 .0254721
1081.448 .0254898
1082.027 .0255081
1082.606 .0255273
1083.185 .0255472
1083.764 .0255671
1084.343 .0255886
1084.923 .0256116
1085.502 .0256349
1086.082 .0256596
1086.662 .0256881
1087.242 .0257190
1087.822 .0257524
1088.402 .0257877
1088.983 .0258223
1089.563 .0258547
1090.144 .0258831
1090.725 .0259089
1091.306 .0259290
1091.887 .0259453
1092.469 .0259598
1093.050 .0259729
1093.632 .0259871
1094.214 .0260026
1094.796 .0260203
1095.379 .0260418
1095.961 .0260648
1096.544 .0260864
1097.127 .0261052
1097.710 .0261239
1098.294 .0261423
1098.877 .0261609
1099.461 .0261828
1100.046 .0262105
1100.630 .0262423
1101.215 .0262814
1101.800 .0263258
1102.385 .0263745
1102.970 .0264264
1103.556 .0264794
1104.142 .0265311
1104.728 .0265828
1105.315 .0266325
1105.902 .0266808
1106.489 .0267283
1107.077 .0267776
1107.664 .0268250
1108.253 .0268714
1108.841 .0269163
1109.430 .0269579
1110.019 .0269944
1110.609 .0270268
1111.198 .0270521
1111.789 .0270724
1112.379 .0270877
1112.970 .0271018
1113.561 .0271137
1114.153 .0271272
1114.745 .0271424
1115.338 .0271614
1115.931 .0271839
1116.524 .0272115
1117.117 .0272429
1117.712 .0272804
1118.306 .0273236
1118.901 .0273749
1119.496 .0274314
1120.092 .0274962
1120.689 .0275677
1121.285 .0276455
1121.882 .0277268
1122.480 .0278144
1123.078 .0279033
1123.677 .0279973
1124.276 .0280957
1124.875 .0281983
1125.476 .0283048
1126.076 .0284197
1126.677 .0285384
1127.279 .0286596
1127.881 .0287800
1128.484 .0288989
1129.087 .0290098
1129.691 .0291130
1130.295 .0292078
1130.900 .0292941
1131.505 .0293776
1132.111 .0294638
1132.718 .0295518
1133.325 .0296522
1133.933 .0297582
1134.541 .0298717
1135.150 .0299866
1135.760 .0301005
1136.370 .0302107
1136.981 .0303122
1137.592 .0304061
1138.204 .0304930
1138.817 .0305840
1139.431 .0306861
1140.045 .0307936
1140.660 .0309002
1141.275 .0310069
1141.891 .0311245
1142.508 .0314864
1143.126 .0314730
1143.744 .0311530
1144.363 .0313083
1144.983 .0318590
