Measurement Sequence started on: 15-12-46-377
Integration time: 28
Scans to Average: 2 
>>>>>Begin Spectral Data<<<<<
432.689 .0000100
433.621 .0000100
434.552 .0000100
435.482 .0000100
436.410 .0000100
437.337 .0000100
438.262 .0283871
439.187 .0601659
440.110 .0996395
441.031 .1441629
441.952 .1873712
442.871 .2213508
443.789 .2399387
444.705 .2410245
445.621 .2272148
446.535 .2042258
447.447 .1782312
448.359 .1384747
449.269 .1188391
450.178 .1065126
451.086 .0978285
451.993 .0912039
452.898 .0859592
453.803 .0816544
454.706 .0780761
455.608 .0750279
456.508 .0723847
457.408 .0700910
458.306 .0680635
459.204 .0662431
460.100 .0645944
460.995 .0630974
461.888 .0617234
462.781 .0604602
463.673 .0593021
464.563 .0582447
465.452 .0572664
466.340 .0563410
467.228 .0554869
468.114 .0546753
468.999 .0539134
469.882 .0531868
470.765 .0525063
471.647 .0518841
472.528 .0513194
473.407 .0508119
474.286 .0503670
475.163 .0499829
476.040 .0496555
476.915 .0493660
477.790 .0491123
478.663 .0488840
479.535 .0486765
480.407 .0484917
481.277 .0483252
482.147 .0481708
483.015 .0480341
483.883 .0479165
484.749 .0478230
485.615 .0477461
486.479 .0476779
487.343 .0476264
488.206 .0475870
489.067 .0475562
489.928 .0475290
490.788 .0475077
491.647 .0475053
492.505 .0475142
493.362 .0475409
494.218 .0475837
495.073 .0476492
495.928 .0477502
496.781 .0478797
497.634 .0480584
498.486 .0482743
499.337 .0485249
500.187 .0488161
501.036 .0491426
501.884 .0495048
502.731 .0498969
503.578 .0503164
504.424 .0507609
505.268 .0512289
506.113 .0517232
506.956 .0522500
507.798 .0528167
508.640 .0534406
509.480 .0541185
510.320 .0548670
511.160 .0557110
511.998 .0566361
512.836 .0576756
513.672 .0588398
514.508 .0601345
515.344 .0615731
516.178 .0631696
517.012 .0649545
517.845 .0669524
518.677 .0692006
519.508 .0717188
520.339 .0745458
521.169 .0777779
521.998 .0814657
522.826 .0856348
523.654 .0903485
524.481 .0956137
525.307 .1014274
526.133 .1078061
526.958 .1147026
527.782 .1220281
528.605 .1296313
529.428 .1373941
530.250 .1447774
531.072 .1514891
531.892 .1571637
532.712 .1614905
533.532 .1642055
534.350 .1651184
535.168 .1641053
535.986 .1613101
536.802 .1569467
537.618 .1513121
538.434 .1446281
539.249 .1374285
540.063 .1299241
540.876 .1224151
541.689 .1150836
542.501 .1081641
543.313 .1017404
544.124 .0959009
544.934 .0905744
545.744 .0857428
546.553 .0813793
547.361 .0775151
548.169 .0741097
548.976 .0711253
549.783 .0685090
550.589 .0662274
551.395 .0641838
552.200 .0623606
553.004 .0606900
553.808 .0591569
554.611 .0577585
555.414 .0564931
556.216 .0553323
557.018 .0542820
557.819 .0533205
558.619 .0524423
559.419 .0516260
560.218 .0508751
561.017 .0501746
561.815 .0495013
562.613 .0488469
563.410 .0482013
564.207 .0475486
565.003 .0468979
565.799 .0462440
566.594 .0455877
567.388 .0449386
568.182 .0442947
568.976 .0436666
569.769 .0430635
570.562 .0424925
571.354 .0419497
572.145 .0414358
572.936 .0409469
573.727 .0404723
574.517 .0400071
575.307 .0395587
576.096 .0391238
576.885 .0387042
577.673 .0383046
578.461 .0379260
579.248 .0375750
580.035 .0372520
580.821 .0369494
581.607 .0366706
582.392 .0364075
583.177 .0361601
583.962 .0359247
584.746 .0357056
585.529 .0355008
586.313 .0353133
587.095 .0351439
587.878 .0349912
588.660 .0348537
589.441 .0347314
590.222 .0346196
591.003 .0345174
591.783 .0344227
592.563 .0343331
593.342 .0342488
594.121 .0341701
594.899 .0340958
595.678 .0340283
596.455 .0339666
597.233 .0339114
598.009 .0338599
598.786 .0338108
599.562 .0337618
600.338 .0337100
601.113 .0336566
601.888 .0336011
602.663 .0335439
603.437 .0334879
604.211 .0334331
604.984 .0333818
605.757 .0333340
606.530 .0332900
607.302 .0332490
608.074 .0332109
608.845 .0331752
609.616 .0331411
610.387 .0331080
611.158 .0330772
611.928 .0330488
612.697 .0330237
613.467 .0330023
614.236 .0329840
615.004 .0329691
615.773 .0329573
616.541 .0329471
617.308 .0329381
618.076 .0329289
618.843 .0329192
619.609 .0329086
620.375 .0328971
621.141 .0328848
621.907 .0328719
622.672 .0328587
623.437 .0328456
624.202 .0328322
624.966 .0328186
625.730 .0328042
626.493 .0327890
627.257 .0327722
628.020 .0327527
628.782 .0327303
629.545 .0327047
630.307 .0326766
631.068 .0326469
631.830 .0326154
632.591 .0325832
633.352 .0325507
634.112 .0325178
634.872 .0324835
635.632 .0324476
636.392 .0324097
637.151 .0323697
637.910 .0323278
638.668 .0322847
639.427 .0322408
640.185 .0321982
640.943 .0321572
641.700 .0321187
642.457 .0320827
643.214 .0320490
643.971 .0320167
644.727 .0319856
645.483 .0319548
646.239 .0319244
646.994 .0318943
647.750 .0318650
648.505 .0318366
649.259 .0318097
650.014 .0317834
650.768 .0317579
651.521 .0317317
652.275 .0317047
653.028 .0316763
653.781 .0316465
654.534 .0316154
655.286 .0315834
656.039 .0315514
656.791 .0315197
657.542 .0314880
658.294 .0314565
659.045 .0314246
659.796 .0313921
660.546 .0313584
661.297 .0313236
662.047 .0312880
662.796 .0312524
663.546 .0312177
664.295 .0311848
665.044 .0311540
665.793 .0311255
666.542 .0310987
667.290 .0310728
668.038 .0310480
668.786 .0310231
669.533 .0309982
670.281 .0309728
671.028 .0309470
671.774 .0309215
672.521 .0308967
673.267 .0308734
674.013 .0308519
674.759 .0308322
675.505 .0308144
676.250 .0307969
676.995 .0307803
677.740 .0307635
678.484 .0307462
679.229 .0307291
679.973 .0307117
680.717 .0306943
681.460 .0306773
682.204 .0306609
682.947 .0306459
683.690 .0306322
684.433 .0306194
685.175 .0306067
685.917 .0305934
686.659 .0305796
687.401 .0305641
688.142 .0305479
688.884 .0305312
689.625 .0305139
690.365 .0304963
691.106 .0304789
691.846 .0304616
692.586 .0304452
693.326 .0304292
694.066 .0304135
694.805 .0303981
695.545 .0303829
696.284 .0303673
697.022 .0303518
697.761 .0303365
698.499 .0303217
699.237 .0303069
699.975 .0302927
700.713 .0302785
701.450 .0302646
702.187 .0302510
702.924 .0302372
703.661 .0302234
704.397 .0302092
705.133 .0301942
705.869 .0301790
706.605 .0301633
707.341 .0301470
708.076 .0301303
708.811 .0301138
709.546 .0300970
710.281 .0300804
711.015 .0300639
711.749 .0300473
712.483 .0300308
713.217 .0300139
713.950 .0299961
714.684 .0299772
715.417 .0299573
716.150 .0299362
716.882 .0299137
717.615 .0298905
718.347 .0298664
719.079 .0298418
719.811 .0298172
720.542 .0297923
721.273 .0297674
722.005 .0297419
722.735 .0297161
723.466 .0296902
724.196 .0296639
724.927 .0296371
725.656 .0296099
726.386 .0295823
727.116 .0295544
727.845 .0295260
728.574 .0294971
729.303 .0294682
730.031 .0294401
730.760 .0294121
731.488 .0293847
732.216 .0293584
732.944 .0293334
733.671 .0293091
734.398 .0292859
735.125 .0292631
735.852 .0292406
736.579 .0292183
737.305 .0291967
738.031 .0291759
738.757 .0291567
739.483 .0291384
740.208 .0291214
740.933 .0291057
741.658 .0290912
742.383 .0290766
743.108 .0290625
743.832 .0290487
744.556 .0290347
745.280 .0290198
746.004 .0290048
746.727 .0289895
747.450 .0289745
748.173 .0289589
748.896 .0289431
749.618 .0289265
750.340 .0289099
751.062 .0288928
751.784 .0288758
752.506 .0288591
753.227 .0288424
753.948 .0288259
754.669 .0288097
755.389 .0287931
756.110 .0287759
756.830 .0287579
757.550 .0287398
758.269 .0287211
758.989 .0287028
759.708 .0286846
760.427 .0286676
761.146 .0286519
761.864 .0286373
762.582 .0286230
763.300 .0286092
764.018 .0285959
764.736 .0285829
765.453 .0285707
766.170 .0285596
766.887 .0285494
767.603 .0285413
768.320 .0285347
769.036 .0285293
769.751 .0285243
770.467 .0285200
771.182 .0285156
771.897 .0285111
772.612 .0285063
773.327 .0285019
774.041 .0284981
774.755 .0284953
775.469 .0284931
776.183 .0284917
776.896 .0284911
777.609 .0284907
778.322 .0284903
779.035 .0284898
779.747 .0284889
780.459 .0284882
781.171 .0284879
781.882 .0284886
782.594 .0284906
783.305 .0284943
784.016 .0284993
784.726 .0285057
785.436 .0285123
786.147 .0285186
786.856 .0285245
787.566 .0285297
788.275 .0285338
788.984 .0285368
789.693 .0285388
790.401 .0285397
791.110 .0285393
791.818 .0285381
792.525 .0285353
793.233 .0285317
793.940 .0285270
794.647 .0285208
795.353 .0285138
796.060 .0285059
796.766 .0284971
797.472 .0284871
798.177 .0284762
798.883 .0284639
799.588 .0284504
800.292 .0284362
800.997 .0284216
801.701 .0284070
802.405 .0283931
803.109 .0283798
803.812 .0283668
804.515 .0283540
805.218 .0283406
805.921 .0283259
806.623 .0283097
807.325 .0282913
808.027 .0282711
808.728 .0282498
809.429 .0282278
810.130 .0282059
810.831 .0281850
811.531 .0281651
812.231 .0281459
812.931 .0281268
813.630 .0281067
814.330 .0280858
815.029 .0280634
815.727 .0280400
816.426 .0280157
817.124 .0279912
817.821 .0279669
818.519 .0279431
819.216 .0279202
819.913 .0278984
820.609 .0278772
821.306 .0278565
822.002 .0278360
822.697 .0278158
823.393 .0277956
824.088 .0277758
824.783 .0277564
825.477 .0277377
826.171 .0277194
826.865 .0277020
827.559 .0276852
828.252 .0276697
828.945 .0276550
829.638 .0276414
830.330 .0276290
831.023 .0276173
831.714 .0276060
832.406 .0275951
833.097 .0275839
833.788 .0275719
834.479 .0275590
835.169 .0275452
835.859 .0275305
836.548 .0275157
837.238 .0275004
837.927 .0274849
838.615 .0274695
839.304 .0274541
839.992 .0274383
840.680 .0274221
841.367 .0274053
842.054 .0273883
842.741 .0273711
843.428 .0273542
844.114 .0273375
844.800 .0273217
845.485 .0273065
846.170 .0272914
846.855 .0272764
847.540 .0272612
848.224 .0272456
848.908 .0272299
849.592 .0272140
850.275 .0271981
850.958 .0271822
851.641 .0271664
852.323 .0271507
853.005 .0271346
853.687 .0271177
854.368 .0270997
855.049 .0270807
855.730 .0270609
856.410 .0270398
857.090 .0270183
857.769 .0269967
858.449 .0269756
859.128 .0269551
859.806 .0269348
860.485 .0269155
861.163 .0268970
861.840 .0268790
862.518 .0268617
863.195 .0268449
863.871 .0268285
864.548 .0268131
865.224 .0267981
865.899 .0267836
866.574 .0267696
867.249 .0267561
867.924 .0267431
868.598 .0267310
869.272 .0267198
869.946 .0267098
870.619 .0267019
871.292 .0266963
871.964 .0266919
872.636 .0266891
873.308 .0266881
873.979 .0266879
874.651 .0266882
875.321 .0266891
875.992 .0266903
876.662 .0266924
877.331 .0266957
878.001 .0266998
878.670 .0267050
879.338 .0267113
880.007 .0267180
880.675 .0267248
881.342 .0267313
882.009 .0267372
882.676 .0267426
883.343 .0267480
884.009 .0267535
884.675 .0267591
885.340 .0267652
886.005 .0267724
886.670 .0267807
887.334 .0267899
887.998 .0267998
888.662 .0268104
889.325 .0268215
889.988 .0268328
890.650 .0268445
891.312 .0268563
891.974 .0268687
892.636 .0268816
893.297 .0268947
893.957 .0269080
894.618 .0269214
895.278 .0269350
895.937 .0269485
896.596 .0269615
897.255 .0269739
897.914 .0269852
898.572 .0269954
899.230 .0270040
899.887 .0270109
900.544 .0270159
901.201 .0270193
901.857 .0270216
902.513 .0270229
903.168 .0270231
903.823 .0270227
904.478 .0270209
905.132 .0270179
905.786 .0270134
906.440 .0270067
907.093 .0269982
907.746 .0269881
908.399 .0269763
909.051 .0269637
909.703 .0269509
910.354 .0269386
911.005 .0269269
911.656 .0269162
912.306 .0269061
912.956 .0268962
913.605 .0268864
914.254 .0268766
914.903 .0268662
915.551 .0268556
916.199 .0268449
916.847 .0268339
917.494 .0268229
918.141 .0268120
918.788 .0268014
919.434 .0267911
920.079 .0267806
920.725 .0267694
921.370 .0267573
922.014 .0267441
922.658 .0267299
923.302 .0267140
923.946 .0266971
924.589 .0266790
925.231 .0266594
925.873 .0266382
926.515 .0266157
927.157 .0265921
927.798 .0265677
928.439 .0265427
929.079 .0265173
929.719 .0264912
930.359 .0264645
930.998 .0264373
931.637 .0264092
932.275 .0263803
932.913 .0263509
933.551 .0263206
934.188 .0262906
934.825 .0262612
935.462 .0262322
936.098 .0262045
936.733 .0261785
937.369 .0261541
938.004 .0261302
938.638 .0261068
939.273 .0260835
939.907 .0260602
940.540 .0260371
941.173 .0260146
941.806 .0259933
942.438 .0259739
943.070 .0259565
943.702 .0259407
944.333 .0259261
944.964 .0259121
945.594 .0258977
946.224 .0258825
946.854 .0258661
947.483 .0258486
948.112 .0258298
948.741 .0258110
949.369 .0257925
949.996 .0257741
950.624 .0257556
951.251 .0257370
951.878 .0257179
952.504 .0256977
953.130 .0256765
953.755 .0256542
954.380 .0256314
955.005 .0256088
955.629 .0255862
956.253 .0255642
956.877 .0255433
957.500 .0255237
958.123 .0255047
958.746 .0254867
959.368 .0254690
959.990 .0254515
960.611 .0254343
961.232 .0254165
961.853 .0253986
962.473 .0253803
963.093 .0253613
963.712 .0253412
964.331 .0253200
964.950 .0252978
965.569 .0252742
966.187 .0252504
966.804 .0252269
967.422 .0252035
968.039 .0251812
968.655 .0251595
969.272 .0251378
969.887 .0251165
970.503 .0250949
971.118 .0250727
971.733 .0250508
972.347 .0250290
972.961 .0250071
973.575 .0249859
974.188 .0249660
974.801 .0249460
975.414 .0249261
976.026 .0249062
976.638 .0248850
977.250 .0248629
977.861 .0248397
978.472 .0248160
979.083 .0247924
979.693 .0247697
980.303 .0247473
980.912 .0247260
981.521 .0247061
982.130 .0246870
982.738 .0246693
983.346 .0246525
983.954 .0246368
984.562 .0246222
985.169 .0246084
985.775 .0245958
986.382 .0245838
986.988 .0245727
987.594 .0245618
988.199 .0245512
988.804 .0245404
989.409 .0245285
990.013 .0245168
990.617 .0245049
991.221 .0244923
991.824 .0244800
992.427 .0244684
993.030 .0244572
993.632 .0244469
994.234 .0244377
994.836 .0244296
995.438 .0244231
996.039 .0244183
996.640 .0244148
997.240 .0244131
997.840 .0244135
998.440 .0244155
999.040 .0244188
999.639 .0244247
1000.238 .0244315
1000.836 .0244387
1001.435 .0244463
1002.033 .0244533
1002.630 .0244594
1003.228 .0244646
1003.825 .0244693
1004.422 .0244735
1005.018 .0244776
1005.614 .0244821
1006.210 .0244867
1006.806 .0244927
1007.401 .0244992
1007.996 .0245059
1008.591 .0245129
1009.186 .0245201
1009.780 .0245271
1010.374 .0245339
1010.967 .0245414
1011.561 .0245498
1012.154 .0245589
1012.746 .0245687
1013.339 .0245792
1013.931 .0245903
1014.523 .0246015
1015.115 .0246127
1015.706 .0246242
1016.298 .0246355
1016.888 .0246464
1017.479 .0246575
1018.069 .0246691
1018.660 .0246812
1019.250 .0246943
1019.839 .0247077
1020.429 .0247215
1021.018 .0247357
1021.607 .0247510
1022.195 .0247666
1022.784 .0247835
1023.372 .0248017
1023.960 .0248210
1024.547 .0248416
1025.135 .0248629
1025.722 .0248849
1026.309 .0249080
1026.896 .0249317
1027.483 .0249559
1028.069 .0249799
1028.655 .0250047
1029.241 .0250293
1029.827 .0250541
1030.412 .0250790
1030.997 .0251037
1031.582 .0251279
1032.167 .0251520
1032.752 .0251758
1033.336 .0251986
1033.921 .0252207
1034.505 .0252420
1035.089 .0252622
1035.672 .0252819
1036.256 .0253003
1036.839 .0253180
1037.422 .0253348
1038.005 .0253526
1038.588 .0253699
1039.171 .0253876
1039.753 .0254056
1040.335 .0254232
1040.918 .0254415
1041.500 .0254594
1042.081 .0254771
1042.663 .0254950
1043.244 .0255139
1043.826 .0255336
1044.407 .0255531
1044.988 .0255737
1045.569 .0255934
1046.150 .0256118
1046.730 .0256288
1047.311 .0256432
1047.891 .0256553
1048.471 .0256652
1049.052 .0256742
1049.632 .0256825
1050.211 .0256918
1050.791 .0257015
1051.371 .0257118
1051.950 .0257229
1052.530 .0257338
1053.109 .0257428
1053.688 .0257503
1054.268 .0257560
1054.847 .0257598
1055.426 .0257632
1056.005 .0257673
1056.583 .0257717
1057.162 .0257778
1057.741 .0257855
1058.319 .0257949
1058.898 .0258040
1059.476 .0258127
1060.055 .0258201
1060.633 .0258256
1061.211 .0258284
1061.790 .0258287
1062.368 .0258280
1062.946 .0258273
1063.524 .0258269
1064.102 .0258291
1064.680 .0258338
1065.258 .0258411
1065.836 .0258500
1066.414 .0258596
1066.992 .0258707
1067.570 .0258809
1068.148 .0258889
1068.726 .0258961
1069.304 .0259035
1069.882 .0259116
1070.460 .0259204
1071.038 .0259328
1071.616 .0259489
1072.194 .0259666
1072.772 .0259867
1073.350 .0260067
1073.928 .0260257
1074.506 .0260429
1075.084 .0260569
1075.662 .0260677
1076.240 .0260761
1076.819 .0260807
1077.397 .0260832
1077.976 .0260839
1078.554 .0260839
1079.133 .0260810
1079.711 .0260751
1080.290 .0260678
1080.869 .0260569
1081.448 .0260424
1082.027 .0260262
1082.606 .0260068
1083.185 .0259871
1083.764 .0259679
1084.343 .0259505
1084.923 .0259358
1085.502 .0259243
1086.082 .0259174
1086.662 .0259135
1087.242 .0259124
1087.822 .0259141
1088.402 .0259165
1088.983 .0259222
1089.563 .0259305
1090.144 .0259396
1090.725 .0259535
1091.306 .0259710
1091.887 .0259907
1092.469 .0260129
1093.050 .0260380
1093.632 .0260622
1094.214 .0260840
1094.796 .0261033
1095.379 .0261201
1095.961 .0261345
1096.544 .0261485
1097.127 .0261598
1097.710 .0261728
1098.294 .0261889
1098.877 .0262048
1099.461 .0262192
1100.046 .0262363
1100.630 .0262518
1101.215 .0262663
1101.800 .0262794
1102.385 .0262908
1102.970 .0262999
1103.556 .0263094
1104.142 .0263168
1104.728 .0263217
1105.315 .0263256
1105.902 .0263276
1106.489 .0263273
1107.077 .0263299
1107.664 .0263334
1108.253 .0263386
1108.841 .0263483
1109.430 .0263623
1110.019 .0263750
1110.609 .0263867
1111.198 .0263960
1111.789 .0264020
1112.379 .0264056
1112.970 .0264074
1113.561 .0264074
1114.153 .0264125
1114.745 .0264256
1115.338 .0264477
1115.931 .0264778
1116.524 .0265144
1117.117 .0265559
1117.712 .0265967
1118.306 .0266336
1118.901 .0266666
1119.496 .0266975
1120.092 .0267299
1120.689 .0267616
1121.285 .0267964
1121.882 .0268340
1122.480 .0268779
1123.078 .0269246
1123.677 .0269683
1124.276 .0270113
1124.875 .0270524
1125.476 .0270877
1126.076 .0271210
1126.677 .0271570
1127.279 .0271954
1127.881 .0272360
1128.484 .0272813
1129.087 .0273279
1129.691 .0273759
1130.295 .0274237
1130.900 .0274705
1131.505 .0275155
1132.111 .0275660
1132.718 .0276191
1133.325 .0276797
1133.933 .0277550
1134.541 .0278398
1135.150 .0279320
1135.760 .0280327
1136.370 .0281390
1136.981 .0282469
1137.592 .0283524
1138.204 .0284598
1138.817 .0285640
1139.431 .0286775
1140.045 .0287956
1140.660 .0289142
1141.275 .0290520
1141.891 .0292000
1142.508 .0294280
1143.126 .0295210
1143.744 .0294699
1144.363 .0299766
1144.983 .0301059
