Measurement Sequence started on: 15-12-46-377
Integration time: 28
Scans to Average: 2 
>>>>>Begin Spectral Data<<<<<
432.689 .0000100
433.621 .0000100
434.552 .0000100
435.482 .0000100
436.410 .0000100
437.337 .0000100
438.262 .0269220
439.187 .0569769
440.110 .0945245
441.031 .1368474
441.952 .1780321
442.871 .2105976
443.789 .2286570
444.705 .2302096
445.621 .2176881
446.535 .1964253
447.447 .1722579
448.359 .1349638
449.269 .1167178
450.178 .1051525
451.086 .0970917
451.993 .0909024
452.898 .0859582
453.803 .0818734
454.706 .0784178
455.608 .0754076
456.508 .0727723
457.408 .0704454
458.306 .0683508
459.204 .0664797
460.100 .0648086
460.995 .0633112
461.888 .0619644
462.781 .0607482
463.673 .0596364
464.563 .0586087
465.452 .0576625
466.340 .0567607
467.228 .0559275
468.114 .0551599
468.999 .0544464
469.882 .0537946
470.765 .0531986
471.647 .0526615
472.528 .0521737
473.407 .0517395
474.286 .0513438
475.163 .0509812
476.040 .0506597
476.915 .0503717
477.790 .0501221
478.663 .0499118
479.535 .0497408
480.407 .0496046
481.277 .0494992
482.147 .0494216
483.015 .0493638
483.883 .0493289
484.749 .0493025
485.615 .0492820
486.479 .0492574
487.343 .0492402
488.206 .0492259
489.067 .0492106
489.928 .0492026
490.788 .0492060
491.647 .0492223
492.505 .0492542
493.362 .0493008
494.218 .0493715
495.073 .0494586
495.928 .0495730
496.781 .0496924
497.634 .0498310
498.486 .0499966
499.337 .0501948
500.187 .0504331
501.036 .0507301
501.884 .0510745
502.731 .0514753
503.578 .0519305
504.424 .0524270
505.268 .0529420
506.113 .0534851
506.956 .0540450
507.798 .0546367
508.640 .0552598
509.480 .0559355
510.320 .0566821
511.160 .0575381
511.998 .0584903
512.836 .0595397
513.672 .0606961
514.508 .0619653
515.344 .0633239
516.178 .0647978
517.012 .0664011
517.845 .0681978
518.677 .0702427
519.508 .0725669
520.339 .0752144
521.169 .0783014
521.998 .0818095
522.826 .0858116
523.654 .0903122
524.481 .0953106
525.307 .1008237
526.133 .1068613
526.958 .1133532
527.782 .1202435
528.605 .1274303
529.428 .1348333
530.250 .1419306
531.072 .1485378
531.892 .1542299
532.712 .1587384
533.532 .1618258
534.350 .1632067
535.168 .1627048
535.986 .1604420
536.802 .1564893
537.618 .1511213
538.434 .1445685
539.249 .1373826
540.063 .1298049
540.876 .1222198
541.689 .1148692
542.501 .1079490
543.313 .1016140
544.124 .0959360
544.934 .0907747
545.744 .0860999
546.553 .0818208
547.361 .0779440
548.169 .0744511
548.976 .0713088
549.783 .0684811
550.589 .0659585
551.395 .0637122
552.200 .0617138
553.004 .0599185
553.808 .0583198
554.611 .0569095
555.414 .0556687
556.216 .0545667
557.018 .0535937
557.819 .0527258
558.619 .0519442
559.419 .0512279
560.218 .0505657
561.017 .0499382
561.815 .0493338
562.613 .0487524
563.410 .0481846
564.207 .0476275
565.003 .0470730
565.799 .0465182
566.594 .0459563
567.388 .0453900
568.182 .0448208
568.976 .0442462
569.769 .0436790
570.562 .0431245
571.354 .0425866
572.145 .0420708
572.936 .0415755
573.727 .0411030
574.517 .0406451
575.307 .0402100
576.096 .0397854
576.885 .0393754
577.673 .0389862
578.461 .0386179
579.248 .0382699
580.035 .0379447
580.821 .0376427
581.607 .0373586
582.392 .0370945
583.177 .0368489
583.962 .0366170
584.746 .0364055
585.529 .0362073
586.313 .0360249
587.095 .0358551
587.878 .0357014
588.660 .0355597
589.441 .0354316
590.222 .0353142
591.003 .0352064
591.783 .0351077
592.563 .0350171
593.342 .0349325
594.121 .0348518
594.899 .0347766
595.678 .0347054
596.455 .0346365
597.233 .0345705
598.009 .0345053
598.786 .0344419
599.562 .0343795
600.338 .0343184
601.113 .0342581
601.888 .0341993
602.663 .0341428
603.437 .0340882
604.211 .0340356
604.984 .0339853
605.757 .0339375
606.530 .0338916
607.302 .0338486
608.074 .0338071
608.845 .0337678
609.616 .0337309
610.387 .0336959
611.158 .0336623
611.928 .0336302
612.697 .0335989
613.467 .0335681
614.236 .0335374
615.004 .0335072
615.773 .0334772
616.541 .0334486
617.308 .0334219
618.076 .0333977
618.843 .0333758
619.609 .0333567
620.375 .0333395
621.141 .0333234
621.907 .0333070
622.672 .0332892
623.437 .0332694
624.202 .0332479
624.966 .0332248
625.730 .0332011
626.493 .0331774
627.257 .0331550
628.020 .0331337
628.782 .0331127
629.545 .0330916
630.307 .0330695
631.068 .0330453
631.830 .0330188
632.591 .0329899
633.352 .0329592
634.112 .0329277
634.872 .0328966
635.632 .0328672
636.392 .0328399
637.151 .0328150
637.910 .0327915
638.668 .0327692
639.427 .0327470
640.185 .0327236
640.943 .0326985
641.700 .0326722
642.457 .0326435
643.214 .0326132
643.971 .0325807
644.727 .0325472
645.483 .0325128
646.239 .0324771
646.994 .0324399
647.750 .0324026
648.505 .0323647
649.259 .0323272
650.014 .0322903
650.768 .0322549
651.521 .0322200
652.275 .0321864
653.028 .0321539
653.781 .0321224
654.534 .0320917
655.286 .0320625
656.039 .0320346
656.791 .0320091
657.542 .0319839
658.294 .0319594
659.045 .0319355
659.796 .0319117
660.546 .0318867
661.297 .0318601
662.047 .0318319
662.796 .0318026
663.546 .0317718
664.295 .0317407
665.044 .0317094
665.793 .0316790
666.542 .0316497
667.290 .0316214
668.038 .0315946
668.786 .0315688
669.533 .0315446
670.281 .0315220
671.028 .0315006
671.774 .0314805
672.521 .0314621
673.267 .0314456
674.013 .0314310
674.759 .0314171
675.505 .0314037
676.250 .0313904
676.995 .0313765
677.740 .0313611
678.484 .0313441
679.229 .0313254
679.973 .0313051
680.717 .0312835
681.460 .0312610
682.204 .0312373
682.947 .0312140
683.690 .0311910
684.433 .0311681
685.175 .0311460
685.917 .0311243
686.659 .0311029
687.401 .0310823
688.142 .0310621
688.884 .0310425
689.625 .0310235
690.365 .0310058
691.106 .0309886
691.846 .0309724
692.586 .0309573
693.326 .0309425
694.066 .0309277
694.805 .0309128
695.545 .0308965
696.284 .0308789
697.022 .0308600
697.761 .0308398
698.499 .0308187
699.237 .0307973
699.975 .0307758
700.713 .0307550
701.450 .0307347
702.187 .0307153
702.924 .0306963
703.661 .0306777
704.397 .0306587
705.133 .0306392
705.869 .0306195
706.605 .0305995
707.341 .0305794
708.076 .0305596
708.811 .0305402
709.546 .0305221
710.281 .0305038
711.015 .0304853
711.749 .0304663
712.483 .0304463
713.217 .0304251
713.950 .0304028
714.684 .0303793
715.417 .0303555
716.150 .0303319
716.882 .0303088
717.615 .0302864
718.347 .0302652
719.079 .0302447
719.811 .0302246
720.542 .0302053
721.273 .0301859
722.005 .0301662
722.735 .0301473
723.466 .0301287
724.196 .0301106
724.927 .0300931
725.656 .0300759
726.386 .0300591
727.116 .0300429
727.845 .0300266
728.574 .0300096
729.303 .0299923
730.031 .0299749
730.760 .0299571
731.488 .0299394
732.216 .0299224
732.944 .0299066
733.671 .0298925
734.398 .0298798
735.125 .0298683
735.852 .0298581
736.579 .0298488
737.305 .0298403
738.031 .0298320
738.757 .0298237
739.483 .0298149
740.208 .0298056
740.933 .0297960
741.658 .0297858
742.383 .0297748
743.108 .0297629
743.832 .0297503
744.556 .0297369
745.280 .0297219
746.004 .0297058
746.727 .0296890
747.450 .0296717
748.173 .0296542
748.896 .0296365
749.618 .0296190
750.340 .0296024
751.062 .0295869
751.784 .0295725
752.506 .0295591
753.227 .0295470
753.948 .0295358
754.669 .0295252
755.389 .0295157
756.110 .0295059
756.830 .0294961
757.550 .0294862
758.269 .0294754
758.989 .0294632
759.708 .0294499
760.427 .0294356
761.146 .0294203
761.864 .0294044
762.582 .0293878
763.300 .0293708
764.018 .0293534
764.736 .0293360
765.453 .0293183
766.170 .0293007
766.887 .0292833
767.603 .0292659
768.320 .0292496
769.036 .0292342
769.751 .0292200
770.467 .0292072
771.182 .0291959
771.897 .0291854
772.612 .0291749
773.327 .0291646
774.041 .0291540
774.755 .0291429
775.469 .0291317
776.183 .0291212
776.896 .0291115
777.609 .0291029
778.322 .0290958
779.035 .0290896
779.747 .0290844
780.459 .0290792
781.171 .0290735
781.882 .0290671
782.594 .0290601
783.305 .0290526
784.016 .0290448
784.726 .0290379
785.436 .0290314
786.147 .0290257
786.856 .0290210
787.566 .0290162
788.275 .0290109
788.984 .0290045
789.693 .0289969
790.401 .0289877
791.110 .0289767
791.818 .0289640
792.525 .0289502
793.233 .0289359
793.940 .0289214
794.647 .0289065
795.353 .0288920
796.060 .0288777
796.766 .0288635
797.472 .0288493
798.177 .0288354
798.883 .0288215
799.588 .0288079
800.292 .0287949
800.997 .0287828
801.701 .0287713
802.405 .0287610
803.109 .0287519
803.812 .0287438
804.515 .0287363
805.218 .0287291
805.921 .0287212
806.623 .0287126
807.325 .0287028
808.027 .0286916
808.728 .0286789
809.429 .0286653
810.130 .0286504
810.831 .0286344
811.531 .0286175
812.231 .0285994
812.931 .0285799
813.630 .0285595
814.330 .0285381
815.029 .0285161
815.727 .0284939
816.426 .0284724
817.124 .0284519
817.821 .0284329
818.519 .0284161
819.216 .0284015
819.913 .0283887
820.609 .0283776
821.306 .0283674
822.002 .0283579
822.697 .0283493
823.393 .0283415
824.088 .0283345
824.783 .0283286
825.477 .0283236
826.171 .0283191
826.865 .0283152
827.559 .0283116
828.252 .0283078
828.945 .0283032
829.638 .0282980
830.330 .0282918
831.023 .0282844
831.714 .0282762
832.406 .0282671
833.097 .0282575
833.788 .0282468
834.479 .0282349
835.169 .0282223
835.859 .0282091
836.548 .0281958
837.238 .0281825
837.927 .0281700
838.615 .0281587
839.304 .0281487
839.992 .0281402
840.680 .0281331
841.367 .0281273
842.054 .0281222
842.741 .0281176
843.428 .0281136
844.114 .0281100
844.800 .0281063
845.485 .0281027
846.170 .0280993
846.855 .0280958
847.540 .0280919
848.224 .0280874
848.908 .0280823
849.592 .0280760
850.275 .0280684
850.958 .0280590
851.641 .0280476
852.323 .0280347
853.005 .0280200
853.687 .0280033
854.368 .0279856
855.049 .0279672
855.730 .0279490
856.410 .0279315
857.090 .0279156
857.769 .0279012
858.449 .0278882
859.128 .0278768
859.806 .0278662
860.485 .0278564
861.163 .0278470
861.840 .0278373
862.518 .0278277
863.195 .0278184
863.871 .0278093
864.548 .0278007
865.224 .0277931
865.899 .0277863
866.574 .0277801
867.249 .0277741
867.924 .0277681
868.598 .0277616
869.272 .0277550
869.946 .0277478
870.619 .0277403
871.292 .0277326
871.964 .0277248
872.636 .0277172
873.308 .0277102
873.979 .0277038
874.651 .0276976
875.321 .0276911
875.992 .0276849
876.662 .0276782
877.331 .0276715
878.001 .0276642
878.670 .0276566
879.338 .0276488
880.007 .0276410
880.675 .0276330
881.342 .0276251
882.009 .0276180
882.676 .0276115
883.343 .0276051
884.009 .0275992
884.675 .0275933
885.340 .0275873
886.005 .0275818
886.670 .0275764
887.334 .0275711
887.998 .0275665
888.662 .0275624
889.325 .0275591
889.988 .0275568
890.650 .0275553
891.312 .0275543
891.974 .0275538
892.636 .0275533
893.297 .0275522
893.957 .0275507
894.618 .0275489
895.278 .0275463
895.937 .0275437
896.596 .0275406
897.255 .0275371
897.914 .0275335
898.572 .0275296
899.230 .0275251
899.887 .0275196
900.544 .0275133
901.201 .0275059
901.857 .0274973
902.513 .0274878
903.168 .0274771
903.823 .0274656
904.478 .0274530
905.132 .0274390
905.786 .0274238
906.440 .0274071
907.093 .0273887
907.746 .0273691
908.399 .0273484
909.051 .0273266
909.703 .0273043
910.354 .0272818
911.005 .0272596
911.656 .0272378
912.306 .0272163
912.956 .0271954
913.605 .0271750
914.254 .0271550
914.903 .0271347
915.551 .0271145
916.199 .0270951
916.847 .0270763
917.494 .0270585
918.141 .0270419
918.788 .0270267
919.434 .0270132
920.079 .0270005
920.725 .0269885
921.370 .0269765
922.014 .0269636
922.658 .0269492
923.302 .0269335
923.946 .0269160
924.589 .0268970
925.231 .0268766
925.873 .0268556
926.515 .0268337
927.157 .0268107
927.798 .0267863
928.439 .0267606
929.079 .0267332
929.719 .0267040
930.359 .0266727
930.998 .0266408
931.637 .0266079
932.275 .0265753
932.913 .0265425
933.551 .0265107
934.188 .0264798
934.825 .0264497
935.462 .0264203
936.098 .0263920
936.733 .0263649
937.369 .0263399
938.004 .0263169
938.638 .0262970
939.273 .0262799
939.907 .0262659
940.540 .0262544
941.173 .0262452
941.806 .0262380
942.438 .0262321
943.070 .0262271
943.702 .0262231
944.333 .0262194
944.964 .0262161
945.594 .0262132
946.224 .0262107
946.854 .0262086
947.483 .0262061
948.112 .0262028
948.741 .0261988
949.369 .0261932
949.996 .0261863
950.624 .0261775
951.251 .0261678
951.878 .0261569
952.504 .0261446
953.130 .0261320
953.755 .0261186
954.380 .0261051
955.005 .0260917
955.629 .0260775
956.253 .0260629
956.877 .0260482
957.500 .0260333
958.123 .0260183
958.746 .0260033
959.368 .0259886
959.990 .0259733
960.611 .0259583
961.232 .0259438
961.853 .0259296
962.473 .0259165
963.093 .0259044
963.712 .0258927
964.331 .0258817
964.950 .0258712
965.569 .0258611
966.187 .0258520
966.804 .0258443
967.422 .0258374
968.039 .0258318
968.655 .0258280
969.272 .0258256
969.887 .0258243
970.503 .0258240
971.118 .0258239
971.733 .0258237
972.347 .0258229
972.961 .0258210
973.575 .0258180
974.188 .0258141
974.801 .0258091
975.414 .0258030
976.026 .0257960
976.638 .0257885
977.250 .0257804
977.861 .0257722
978.472 .0257638
979.083 .0257547
979.693 .0257446
980.303 .0257337
980.912 .0257218
981.521 .0257087
982.130 .0256949
982.738 .0256813
983.346 .0256681
983.954 .0256556
984.562 .0256441
985.169 .0256339
985.775 .0256250
986.382 .0256171
986.988 .0256091
987.594 .0256010
988.199 .0255932
988.804 .0255852
989.409 .0255774
990.013 .0255704
990.617 .0255644
991.221 .0255597
991.824 .0255567
992.427 .0255557
993.030 .0255562
993.632 .0255582
994.234 .0255619
994.836 .0255670
995.438 .0255736
996.039 .0255811
996.640 .0255893
997.240 .0255993
997.840 .0256101
998.440 .0256214
999.040 .0256331
999.639 .0256457
1000.238 .0256591
1000.836 .0256726
1001.435 .0256859
1002.033 .0256988
1002.630 .0257109
1003.228 .0257216
1003.825 .0257304
1004.422 .0257380
1005.018 .0257449
1005.614 .0257517
1006.210 .0257589
1006.806 .0257668
1007.401 .0257750
1007.996 .0257836
1008.591 .0257920
1009.186 .0257996
1009.780 .0258053
1010.374 .0258094
1010.967 .0258123
1011.561 .0258149
1012.154 .0258178
1012.746 .0258213
1013.339 .0258263
1013.931 .0258331
1014.523 .0258407
1015.115 .0258477
1015.706 .0258539
1016.298 .0258589
1016.888 .0258622
1017.479 .0258642
1018.069 .0258654
1018.660 .0258671
1019.250 .0258703
1019.839 .0258753
1020.429 .0258822
1021.018 .0258911
1021.607 .0259023
1022.195 .0259142
1022.784 .0259270
1023.372 .0259399
1023.960 .0259536
1024.547 .0259677
1025.135 .0259829
1025.722 .0259984
1026.309 .0260145
1026.896 .0260312
1027.483 .0260481
1028.069 .0260642
1028.655 .0260801
1029.241 .0260950
1029.827 .0261101
1030.412 .0261247
1030.997 .0261396
1031.582 .0261538
1032.167 .0261683
1032.752 .0261820
1033.336 .0261948
1033.921 .0262063
1034.505 .0262169
1035.089 .0262252
1035.672 .0262319
1036.256 .0262368
1036.839 .0262402
1037.422 .0262422
1038.005 .0262438
1038.588 .0262446
1039.171 .0262449
1039.753 .0262451
1040.335 .0262449
1040.918 .0262443
1041.500 .0262437
1042.081 .0262422
1042.663 .0262398
1043.244 .0262367
1043.826 .0262322
1044.407 .0262261
1044.988 .0262199
1045.569 .0262127
1046.150 .0262053
1046.730 .0261981
1047.311 .0261913
1047.891 .0261852
1048.471 .0261793
1049.052 .0261740
1049.632 .0261684
1050.211 .0261634
1050.791 .0261583
1051.371 .0261528
1051.950 .0261485
1052.530 .0261446
1053.109 .0261418
1053.688 .0261404
1054.268 .0261400
1054.847 .0261404
1055.426 .0261417
1056.005 .0261449
1056.583 .0261492
1057.162 .0261547
1057.741 .0261606
1058.319 .0261673
1058.898 .0261744
1059.476 .0261799
1060.055 .0261838
1060.633 .0261858
1061.211 .0261860
1061.790 .0261845
1062.368 .0261828
1062.946 .0261810
1063.524 .0261799
1064.102 .0261801
1064.680 .0261815
1065.258 .0261835
1065.836 .0261855
1066.414 .0261864
1066.992 .0261864
1067.570 .0261865
1068.148 .0261844
1068.726 .0261804
1069.304 .0261769
1069.882 .0261725
1070.460 .0261679
1071.038 .0261624
1071.616 .0261563
1072.194 .0261500
1072.772 .0261421
1073.350 .0261327
1073.928 .0261218
1074.506 .0261112
1075.084 .0261006
1075.662 .0260887
1076.240 .0260778
1076.819 .0260670
1077.397 .0260561
1077.976 .0260458
1078.554 .0260353
1079.133 .0260251
1079.711 .0260156
1080.290 .0260072
1080.869 .0260009
1081.448 .0259970
1082.027 .0259953
1082.606 .0259959
1083.185 .0259981
1083.764 .0260018
1084.343 .0260058
1084.923 .0260098
1085.502 .0260137
1086.082 .0260168
1086.662 .0260195
1087.242 .0260215
1087.822 .0260235
1088.402 .0260261
1088.983 .0260280
1089.563 .0260290
1090.144 .0260284
1090.725 .0260257
1091.306 .0260204
1091.887 .0260137
1092.469 .0260063
1093.050 .0259983
1093.632 .0259903
1094.214 .0259819
1094.796 .0259741
1095.379 .0259681
1095.961 .0259648
1096.544 .0259639
1097.127 .0259656
1097.710 .0259708
1098.294 .0259786
1098.877 .0259894
1099.461 .0260030
1100.046 .0260175
1100.630 .0260316
1101.215 .0260434
1101.800 .0260531
1102.385 .0260600
1102.970 .0260677
1103.556 .0260766
1104.142 .0260867
1104.728 .0260999
1105.315 .0261151
1105.902 .0261301
1106.489 .0261451
1107.077 .0261591
1107.664 .0261717
1108.253 .0261802
1108.841 .0261897
1109.430 .0262008
1110.019 .0262174
1110.609 .0262416
1111.198 .0262759
1111.789 .0263184
1112.379 .0263701
1112.970 .0264252
1113.561 .0264812
1114.153 .0265394
1114.745 .0265974
1115.338 .0266516
1115.931 .0267009
1116.524 .0267485
1117.117 .0267941
1117.712 .0268362
1118.306 .0268808
1118.901 .0269234
1119.496 .0269639
1120.092 .0270011
1120.689 .0270315
1121.285 .0270552
1121.882 .0270720
1122.480 .0270833
1123.078 .0270883
1123.677 .0270915
1124.276 .0270938
1124.875 .0270946
1125.476 .0270982
1126.076 .0271111
1126.677 .0271299
1127.279 .0271564
1127.881 .0271942
1128.484 .0272424
1129.087 .0272997
1129.691 .0273680
1130.295 .0274437
1130.900 .0275290
1131.505 .0276213
1132.111 .0277189
1132.718 .0278188
1133.325 .0279279
1133.933 .0280401
1134.541 .0281554
1135.150 .0282764
1135.760 .0284029
1136.370 .0285280
1136.981 .0286561
1137.592 .0287814
1138.204 .0289043
1138.817 .0290230
1139.431 .0291338
1140.045 .0292438
1140.660 .0293468
1141.275 .0294648
1141.891 .0295969
1142.508 .0295823
1143.126 .0299039
1143.744 .0297767
1144.363 .0304239
1144.983 .0307063
