Measurement Sequence started on: 15-12-46-377
Integration time: 28
Scans to Average: 2 
>>>>>Begin Spectral Data<<<<<
432.689 .0000100
433.621 .0000100
434.552 .0000100
435.482 .0000100
436.410 .0000100
437.337 .0000100
438.262 .0274120
439.187 .0581617
440.110 .0963406
441.031 .1394008
441.952 .1812480
442.871 .2141938
443.789 .2322334
444.705 .2333359
445.621 .2199959
446.535 .1976976
447.447 .1724018
448.359 .1337210
449.269 .1143872
450.178 .1021506
451.086 .0934779
451.993 .0868419
452.898 .0816488
453.803 .0774865
454.706 .0740873
455.608 .0712374
456.508 .0687961
457.408 .0666780
458.306 .0647883
459.204 .0630711
460.100 .0614986
460.995 .0600814
461.888 .0587966
462.781 .0576472
463.673 .0566072
464.563 .0556586
465.452 .0547700
466.340 .0539172
467.228 .0531036
468.114 .0523264
468.999 .0515921
469.882 .0509150
470.765 .0503094
471.647 .0497898
472.528 .0493494
473.407 .0489852
474.286 .0486769
475.163 .0484096
476.040 .0481667
476.915 .0479409
477.790 .0477230
478.663 .0475232
479.535 .0473519
480.407 .0472216
481.277 .0471374
482.147 .0470970
483.015 .0470915
483.883 .0471080
484.749 .0471341
485.615 .0471534
486.479 .0471572
487.343 .0471507
488.206 .0471414
489.067 .0471362
489.928 .0471453
490.788 .0471723
491.647 .0472194
492.505 .0472927
493.362 .0473912
494.218 .0475018
495.073 .0476220
495.928 .0477560
496.781 .0478904
497.634 .0480326
498.486 .0481942
499.337 .0483723
500.187 .0485786
501.036 .0488215
501.884 .0491063
502.731 .0494361
503.578 .0498230
504.424 .0502584
505.268 .0507370
506.113 .0512563
506.956 .0517994
507.798 .0523649
508.640 .0529652
509.480 .0536017
510.320 .0542889
511.160 .0550623
511.998 .0559340
512.836 .0569248
513.672 .0580418
514.508 .0592958
515.344 .0606777
516.178 .0621782
517.012 .0637931
517.845 .0655670
518.677 .0675448
519.508 .0697735
520.339 .0723196
521.169 .0752956
521.998 .0787237
522.826 .0826815
523.654 .0871862
524.481 .0922295
525.307 .0978409
526.133 .1039216
526.958 .1103606
527.782 .1171090
528.605 .1240260
529.428 .1310476
530.250 .1377250
531.072 .1439338
531.892 .1492634
532.712 .1534560
533.532 .1563185
534.350 .1575744
535.168 .1570950
535.986 .1548904
536.802 .1510404
537.618 .1458058
538.434 .1394064
539.249 .1323418
540.063 .1248694
540.876 .1174129
541.689 .1101876
542.501 .1033881
543.313 .0971641
544.124 .0916106
544.934 .0866484
545.744 .0821953
546.553 .0781777
547.361 .0745848
548.169 .0714154
548.976 .0685927
549.783 .0661032
550.589 .0639206
551.395 .0619919
552.200 .0603018
553.004 .0587880
553.808 .0574101
554.611 .0561585
555.414 .0550263
556.216 .0539864
557.018 .0530407
557.819 .0521818
558.619 .0513883
559.419 .0506494
560.218 .0499545
561.017 .0492716
561.815 .0485855
562.613 .0478894
563.410 .0471828
564.207 .0464658
565.003 .0457582
565.799 .0450574
566.594 .0443813
567.388 .0437527
568.182 .0431667
568.976 .0426103
569.769 .0420857
570.562 .0415789
571.354 .0410810
572.145 .0405832
572.936 .0400856
573.727 .0395824
574.517 .0390887
575.307 .0386086
576.096 .0381510
576.885 .0377215
577.673 .0373237
578.461 .0369569
579.248 .0366196
580.035 .0363091
580.821 .0360168
581.607 .0357392
582.392 .0354810
583.177 .0352387
583.962 .0350119
584.746 .0348033
585.529 .0346129
586.313 .0344413
587.095 .0342875
587.878 .0341478
588.660 .0340226
589.441 .0339080
590.222 .0338035
591.003 .0337088
591.783 .0336230
592.563 .0335461
593.342 .0334755
594.121 .0334098
594.899 .0333478
595.678 .0332874
596.455 .0332282
597.233 .0331694
598.009 .0331124
598.786 .0330571
599.562 .0330030
600.338 .0329517
601.113 .0329037
601.888 .0328572
602.663 .0328115
603.437 .0327666
604.211 .0327206
604.984 .0326745
605.757 .0326294
606.530 .0325858
607.302 .0325445
608.074 .0325074
608.845 .0324741
609.616 .0324445
610.387 .0324183
611.158 .0323943
611.928 .0323713
612.697 .0323489
613.467 .0323260
614.236 .0323027
615.004 .0322802
615.773 .0322591
616.541 .0322384
617.308 .0322200
618.076 .0322032
618.843 .0321867
619.609 .0321707
620.375 .0321541
621.141 .0321359
621.907 .0321162
622.672 .0320943
623.437 .0320708
624.202 .0320461
624.966 .0320214
625.730 .0319968
626.493 .0319732
627.257 .0319507
628.020 .0319285
628.782 .0319067
629.545 .0318854
630.307 .0318625
631.068 .0318386
631.830 .0318136
632.591 .0317876
633.352 .0317614
634.112 .0317351
634.872 .0317089
635.632 .0316842
636.392 .0316599
637.151 .0316359
637.910 .0316110
638.668 .0315859
639.427 .0315591
640.185 .0315307
640.943 .0315007
641.700 .0314697
642.457 .0314388
643.214 .0314091
643.971 .0313792
644.727 .0313499
645.483 .0313209
646.239 .0312917
646.994 .0312616
647.750 .0312309
648.505 .0311993
649.259 .0311679
650.014 .0311371
650.768 .0311075
651.521 .0310784
652.275 .0310509
653.028 .0310239
653.781 .0309965
654.534 .0309690
655.286 .0309405
656.039 .0309111
656.791 .0308817
657.542 .0308520
658.294 .0308223
659.045 .0307933
659.796 .0307654
660.546 .0307385
661.297 .0307123
662.047 .0306867
662.796 .0306607
663.546 .0306357
664.295 .0306117
665.044 .0305882
665.793 .0305656
666.542 .0305446
667.290 .0305239
668.038 .0305036
668.786 .0304833
669.533 .0304623
670.281 .0304408
671.028 .0304189
671.774 .0303961
672.521 .0303731
673.267 .0303500
674.013 .0303273
674.759 .0303045
675.505 .0302823
676.250 .0302596
676.995 .0302367
677.740 .0302144
678.484 .0301919
679.229 .0301698
679.973 .0301484
680.717 .0301279
681.460 .0301082
682.204 .0300893
682.947 .0300714
683.690 .0300545
684.433 .0300386
685.175 .0300230
685.917 .0300087
686.659 .0299953
687.401 .0299831
688.142 .0299714
688.884 .0299602
689.625 .0299490
690.365 .0299374
691.106 .0299252
691.846 .0299124
692.586 .0298990
693.326 .0298854
694.066 .0298712
694.805 .0298574
695.545 .0298427
696.284 .0298273
697.022 .0298108
697.761 .0297930
698.499 .0297732
699.237 .0297517
699.975 .0297290
700.713 .0297055
701.450 .0296821
702.187 .0296594
702.924 .0296368
703.661 .0296155
704.397 .0295951
705.133 .0295757
705.869 .0295568
706.605 .0295395
707.341 .0295228
708.076 .0295078
708.811 .0294942
709.546 .0294820
710.281 .0294710
711.015 .0294609
711.749 .0294507
712.483 .0294397
713.217 .0294280
713.950 .0294150
714.684 .0294002
715.417 .0293851
716.150 .0293692
716.882 .0293529
717.615 .0293365
718.347 .0293200
719.079 .0293024
719.811 .0292839
720.542 .0292639
721.273 .0292421
722.005 .0292192
722.735 .0291957
723.466 .0291721
724.196 .0291491
724.927 .0291275
725.656 .0291070
726.386 .0290880
727.116 .0290702
727.845 .0290523
728.574 .0290344
729.303 .0290163
730.031 .0289976
730.760 .0289785
731.488 .0289592
732.216 .0289405
732.944 .0289227
733.671 .0289061
734.398 .0288909
735.125 .0288770
735.852 .0288643
736.579 .0288525
737.305 .0288412
738.031 .0288307
738.757 .0288204
739.483 .0288101
740.208 .0288000
740.933 .0287896
741.658 .0287791
742.383 .0287686
743.108 .0287582
743.832 .0287481
744.556 .0287383
745.280 .0287283
746.004 .0287181
746.727 .0287075
747.450 .0286961
748.173 .0286833
748.896 .0286691
749.618 .0286534
750.340 .0286366
751.062 .0286191
751.784 .0286014
752.506 .0285839
753.227 .0285670
753.948 .0285503
754.669 .0285342
755.389 .0285180
756.110 .0285019
756.830 .0284853
757.550 .0284687
758.269 .0284521
758.989 .0284356
759.708 .0284188
760.427 .0284026
761.146 .0283869
761.864 .0283715
762.582 .0283560
763.300 .0283405
764.018 .0283250
764.736 .0283095
765.453 .0282934
766.170 .0282772
766.887 .0282606
767.603 .0282438
768.320 .0282267
769.036 .0282098
769.751 .0281931
770.467 .0281766
771.182 .0281606
771.897 .0281448
772.612 .0281294
773.327 .0281142
774.041 .0280992
774.755 .0280844
775.469 .0280699
776.183 .0280557
776.896 .0280420
777.609 .0280293
778.322 .0280176
779.035 .0280071
779.747 .0279979
780.459 .0279896
781.171 .0279819
781.882 .0279743
782.594 .0279673
783.305 .0279607
784.016 .0279547
784.726 .0279489
785.436 .0279438
786.147 .0279392
786.856 .0279350
787.566 .0279311
788.275 .0279273
788.984 .0279232
789.693 .0279185
790.401 .0279127
791.110 .0279056
791.818 .0278973
792.525 .0278884
793.233 .0278788
793.940 .0278693
794.647 .0278596
795.353 .0278500
796.060 .0278410
796.766 .0278325
797.472 .0278241
798.177 .0278157
798.883 .0278072
799.588 .0277982
800.292 .0277891
800.997 .0277800
801.701 .0277711
802.405 .0277629
803.109 .0277558
803.812 .0277497
804.515 .0277440
805.218 .0277391
805.921 .0277339
806.623 .0277282
807.325 .0277217
808.027 .0277140
808.728 .0277050
809.429 .0276951
810.130 .0276847
810.831 .0276743
811.531 .0276640
812.231 .0276535
812.931 .0276426
813.630 .0276314
814.330 .0276193
815.029 .0276065
815.727 .0275924
816.426 .0275779
817.124 .0275627
817.821 .0275474
818.519 .0275324
819.216 .0275183
819.913 .0275048
820.609 .0274922
821.306 .0274804
822.002 .0274692
822.697 .0274587
823.393 .0274496
824.088 .0274417
824.783 .0274348
825.477 .0274296
826.171 .0274258
826.865 .0274234
827.559 .0274227
828.252 .0274229
828.945 .0274239
829.638 .0274257
830.330 .0274276
831.023 .0274295
831.714 .0274311
832.406 .0274330
833.097 .0274345
833.788 .0274357
834.479 .0274364
835.169 .0274363
835.859 .0274358
836.548 .0274347
837.238 .0274325
837.927 .0274296
838.615 .0274255
839.304 .0274207
839.992 .0274149
840.680 .0274086
841.367 .0274020
842.054 .0273954
842.741 .0273889
843.428 .0273825
844.114 .0273761
844.800 .0273697
845.485 .0273630
846.170 .0273557
846.855 .0273471
847.540 .0273376
848.224 .0273272
848.908 .0273161
849.592 .0273046
850.275 .0272926
850.958 .0272802
851.641 .0272678
852.323 .0272549
853.005 .0272413
853.687 .0272269
854.368 .0272116
855.049 .0271953
855.730 .0271783
856.410 .0271609
857.090 .0271432
857.769 .0271251
858.449 .0271073
859.128 .0270889
859.806 .0270702
860.485 .0270509
861.163 .0270310
861.840 .0270108
862.518 .0269899
863.195 .0269685
863.871 .0269471
864.548 .0269259
865.224 .0269054
865.899 .0268855
866.574 .0268664
867.249 .0268479
867.924 .0268300
868.598 .0268129
869.272 .0267967
869.946 .0267814
870.619 .0267669
871.292 .0267537
871.964 .0267416
872.636 .0267305
873.308 .0267201
873.979 .0267104
874.651 .0267010
875.321 .0266914
875.992 .0266819
876.662 .0266721
877.331 .0266624
878.001 .0266531
878.670 .0266443
879.338 .0266356
880.007 .0266274
880.675 .0266192
881.342 .0266105
882.009 .0266010
882.676 .0265905
883.343 .0265787
884.009 .0265664
884.675 .0265540
885.340 .0265417
886.005 .0265300
886.670 .0265198
887.334 .0265104
887.998 .0265022
888.662 .0264944
889.325 .0264868
889.988 .0264790
890.650 .0264708
891.312 .0264622
891.974 .0264536
892.636 .0264455
893.297 .0264384
893.957 .0264324
894.618 .0264281
895.278 .0264246
895.937 .0264220
896.596 .0264196
897.255 .0264168
897.914 .0264131
898.572 .0264078
899.230 .0264009
899.887 .0263928
900.544 .0263835
901.201 .0263732
901.857 .0263621
902.513 .0263506
903.168 .0263384
903.823 .0263252
904.478 .0263109
905.132 .0262950
905.786 .0262775
906.440 .0262584
907.093 .0262378
907.746 .0262163
908.399 .0261938
909.051 .0261712
909.703 .0261486
910.354 .0261259
911.005 .0261034
911.656 .0260807
912.306 .0260579
912.956 .0260350
913.605 .0260117
914.254 .0259883
914.903 .0259654
915.551 .0259437
916.199 .0259231
916.847 .0259041
917.494 .0258870
918.141 .0258716
918.788 .0258577
919.434 .0258450
920.079 .0258327
920.725 .0258209
921.370 .0258091
922.014 .0257972
922.658 .0257852
923.302 .0257731
923.946 .0257608
924.589 .0257484
925.231 .0257354
925.873 .0257216
926.515 .0257070
927.157 .0256921
927.798 .0256763
928.439 .0256594
929.079 .0256420
929.719 .0256236
930.359 .0256047
930.998 .0255852
931.637 .0255652
932.275 .0255451
932.913 .0255247
933.551 .0255043
934.188 .0254846
934.825 .0254661
935.462 .0254493
936.098 .0254341
936.733 .0254211
937.369 .0254093
938.004 .0253990
938.638 .0253896
939.273 .0253811
939.907 .0253732
940.540 .0253658
941.173 .0253598
941.806 .0253551
942.438 .0253520
943.070 .0253505
943.702 .0253508
944.333 .0253521
944.964 .0253537
945.594 .0253552
946.224 .0253560
946.854 .0253562
947.483 .0253553
948.112 .0253537
948.741 .0253512
949.369 .0253485
949.996 .0253452
950.624 .0253409
951.251 .0253369
951.878 .0253323
952.504 .0253275
953.130 .0253224
953.755 .0253175
954.380 .0253121
955.005 .0253063
955.629 .0253005
956.253 .0252941
956.877 .0252871
957.500 .0252794
958.123 .0252706
958.746 .0252613
959.368 .0252512
959.990 .0252406
960.611 .0252295
961.232 .0252187
961.853 .0252082
962.473 .0251984
963.093 .0251895
963.712 .0251815
964.331 .0251740
964.950 .0251670
965.569 .0251605
966.187 .0251546
966.804 .0251493
967.422 .0251451
968.039 .0251426
968.655 .0251417
969.272 .0251427
969.887 .0251455
970.503 .0251494
971.118 .0251546
971.733 .0251600
972.347 .0251647
972.961 .0251684
973.575 .0251706
974.188 .0251710
974.801 .0251696
975.414 .0251668
976.026 .0251629
976.638 .0251583
977.250 .0251535
977.861 .0251487
978.472 .0251442
979.083 .0251404
979.693 .0251363
980.303 .0251321
980.912 .0251277
981.521 .0251223
982.130 .0251163
982.738 .0251096
983.346 .0251028
983.954 .0250958
984.562 .0250891
985.169 .0250829
985.775 .0250772
986.382 .0250721
986.988 .0250671
987.594 .0250622
988.199 .0250572
988.804 .0250519
989.409 .0250465
990.013 .0250414
990.617 .0250371
991.221 .0250334
991.824 .0250311
992.427 .0250303
993.030 .0250310
993.632 .0250328
994.234 .0250357
994.836 .0250395
995.438 .0250439
996.039 .0250487
996.640 .0250531
997.240 .0250575
997.840 .0250617
998.440 .0250658
999.040 .0250693
999.639 .0250721
1000.238 .0250743
1000.836 .0250754
1001.435 .0250756
1002.033 .0250749
1002.630 .0250733
1003.228 .0250713
1003.825 .0250689
1004.422 .0250666
1005.018 .0250642
1005.614 .0250624
1006.210 .0250610
1006.806 .0250601
1007.401 .0250594
1007.996 .0250586
1008.591 .0250577
1009.186 .0250572
1009.780 .0250571
1010.374 .0250576
1010.967 .0250587
1011.561 .0250611
1012.154 .0250637
1012.746 .0250666
1013.339 .0250692
1013.931 .0250714
1014.523 .0250735
1015.115 .0250748
1015.706 .0250751
1016.298 .0250747
1016.888 .0250747
1017.479 .0250754
1018.069 .0250769
1018.660 .0250793
1019.250 .0250829
1019.839 .0250873
1020.429 .0250925
1021.018 .0250978
1021.607 .0251031
1022.195 .0251088
1022.784 .0251147
1023.372 .0251206
1023.960 .0251265
1024.547 .0251330
1025.135 .0251406
1025.722 .0251493
1026.309 .0251590
1026.896 .0251695
1027.483 .0251803
1028.069 .0251915
1028.655 .0252026
1029.241 .0252127
1029.827 .0252223
1030.412 .0252313
1030.997 .0252403
1031.582 .0252492
1032.167 .0252574
1032.752 .0252654
1033.336 .0252730
1033.921 .0252803
1034.505 .0252858
1035.089 .0252900
1035.672 .0252934
1036.256 .0252958
1036.839 .0252974
1037.422 .0252986
1038.005 .0252995
1038.588 .0253000
1039.171 .0253001
1039.753 .0252991
1040.335 .0252972
1040.918 .0252945
1041.500 .0252903
1042.081 .0252862
1042.663 .0252821
1043.244 .0252792
1043.826 .0252772
1044.407 .0252764
1044.988 .0252762
1045.569 .0252751
1046.150 .0252732
1046.730 .0252693
1047.311 .0252630
1047.891 .0252553
1048.471 .0252463
1049.052 .0252373
1049.632 .0252282
1050.211 .0252203
1050.791 .0252138
1051.371 .0252093
1051.950 .0252069
1052.530 .0252058
1053.109 .0252054
1053.688 .0252061
1054.268 .0252072
1054.847 .0252084
1055.426 .0252108
1056.005 .0252141
1056.583 .0252180
1057.162 .0252230
1057.741 .0252290
1058.319 .0252357
1058.898 .0252434
1059.476 .0252515
1060.055 .0252580
1060.633 .0252620
1061.211 .0252632
1061.790 .0252609
1062.368 .0252560
1062.946 .0252496
1063.524 .0252417
1064.102 .0252340
1064.680 .0252281
1065.258 .0252229
1065.836 .0252186
1066.414 .0252162
1066.992 .0252142
1067.570 .0252116
1068.148 .0252077
1068.726 .0252022
1069.304 .0251962
1069.882 .0251893
1070.460 .0251826
1071.038 .0251755
1071.616 .0251699
1072.194 .0251653
1072.772 .0251610
1073.350 .0251573
1073.928 .0251545
1074.506 .0251514
1075.084 .0251483
1075.662 .0251447
1076.240 .0251420
1076.819 .0251398
1077.397 .0251398
1077.976 .0251415
1078.554 .0251462
1079.133 .0251540
1079.711 .0251657
1080.290 .0251803
1080.869 .0251985
1081.448 .0252162
1082.027 .0252335
1082.606 .0252491
1083.185 .0252626
1083.764 .0252734
1084.343 .0252827
1084.923 .0252903
1085.502 .0252987
1086.082 .0253079
1086.662 .0253189
1087.242 .0253311
1087.822 .0253452
1088.402 .0253582
1088.983 .0253696
1089.563 .0253775
1090.144 .0253820
1090.725 .0253828
1091.306 .0253805
1091.887 .0253752
1092.469 .0253706
1093.050 .0253661
1093.632 .0253636
1094.214 .0253637
1094.796 .0253682
1095.379 .0253747
1095.961 .0253838
1096.544 .0253928
1097.127 .0254017
1097.710 .0254105
1098.294 .0254176
1098.877 .0254217
1099.461 .0254261
1100.046 .0254295
1100.630 .0254332
1101.215 .0254392
1101.800 .0254488
1102.385 .0254582
1102.970 .0254683
1103.556 .0254755
1104.142 .0254789
1104.728 .0254789
1105.315 .0254746
1105.902 .0254643
1106.489 .0254538
1107.077 .0254426
1107.664 .0254316
1108.253 .0254228
1108.841 .0254183
1109.430 .0254166
1110.019 .0254167
1110.609 .0254178
1111.198 .0254196
1111.789 .0254244
1112.379 .0254328
1112.970 .0254451
1113.561 .0254644
1114.153 .0254900
1114.745 .0255206
1115.338 .0255567
1115.931 .0255977
1116.524 .0256407
1117.117 .0256853
1117.712 .0257317
1118.306 .0257803
1118.901 .0258327
1119.496 .0258851
1120.092 .0259410
1120.689 .0259998
1121.285 .0260595
1121.882 .0261166
1122.480 .0261725
1123.078 .0262288
1123.677 .0262843
1124.276 .0263404
1124.875 .0263982
1125.476 .0264574
1126.076 .0265193
1126.677 .0265823
1127.279 .0266463
1127.881 .0267100
1128.484 .0267746
1129.087 .0268343
1129.691 .0268962
1130.295 .0269618
1130.900 .0270318
1131.505 .0271109
1132.111 .0272024
1132.718 .0273044
1133.325 .0274160
1133.933 .0275341
1134.541 .0276546
1135.150 .0277733
1135.760 .0278936
1136.370 .0280093
1136.981 .0281236
1137.592 .0282374
1138.204 .0283522
1138.817 .0284792
1139.431 .0286158
1140.045 .0287518
1140.660 .0288890
1141.275 .0290411
1141.891 .0291945
1142.508 .0294494
1143.126 .0293645
1143.744 .0294292
1144.363 .0300197
1144.983 .0300671
