Measurement Sequence started on: 15-12-46-377
Integration time: 28
Scans to Average: 2 
>>>>>Begin Spectral Data<<<<<
432.689 .0000100
433.621 .0000100
434.552 .0000100
435.482 .0000100
436.410 .0000100
437.337 .0000100
438.262 .0292362
439.187 .0621026
440.110 .1030192
441.031 .1491785
441.952 .1940070
442.871 .2293181
443.789 .2487173
444.705 .2499652
445.621 .2357425
446.535 .2118929
447.447 .1848418
448.359 .1435473
449.269 .1228695
450.178 .1097276
451.086 .1004199
451.993 .0932483
452.898 .0875005
453.803 .0827120
454.706 .0786835
455.608 .0752158
456.508 .0722308
457.408 .0696610
458.306 .0674202
459.204 .0654605
460.100 .0637415
460.995 .0622245
461.888 .0608886
462.781 .0596835
463.673 .0585921
464.563 .0576106
465.452 .0567078
466.340 .0558649
467.228 .0550967
468.114 .0543992
468.999 .0537749
469.882 .0532030
470.765 .0526871
471.647 .0522092
472.528 .0517650
473.407 .0513570
474.286 .0509798
475.163 .0506380
476.040 .0503394
476.915 .0500730
477.790 .0498490
478.663 .0496601
479.535 .0495027
480.407 .0493732
481.277 .0492749
482.147 .0491901
483.015 .0491210
483.883 .0490684
484.749 .0490403
485.615 .0490283
486.479 .0490389
487.343 .0490779
488.206 .0491375
489.067 .0492155
489.928 .0493014
490.788 .0493881
491.647 .0494869
492.505 .0495933
493.362 .0497098
494.218 .0498360
495.073 .0499826
495.928 .0501449
496.781 .0503256
497.634 .0505292
498.486 .0507547
499.337 .0510026
500.187 .0512788
501.036 .0515731
501.884 .0518846
502.731 .0522226
503.578 .0525880
504.424 .0529867
505.268 .0534134
506.113 .0538620
506.956 .0543367
507.798 .0548488
508.640 .0554142
509.480 .0560266
510.320 .0567200
511.160 .0575094
511.998 .0583940
512.836 .0593912
513.672 .0605010
514.508 .0617368
515.344 .0631203
516.178 .0646538
517.012 .0663598
517.845 .0682676
518.677 .0704411
519.508 .0729193
520.339 .0757635
521.169 .0790465
521.998 .0827836
522.826 .0870414
523.654 .0918779
524.481 .0972454
525.307 .1031959
526.133 .1096955
526.958 .1166312
527.782 .1239810
528.605 .1315853
529.428 .1393086
530.250 .1466957
531.072 .1535378
531.892 .1594332
532.712 .1639984
533.532 .1670780
534.350 .1683702
535.168 .1677510
535.986 .1653093
536.802 .1610739
537.618 .1553515
538.434 .1484632
539.249 .1408840
540.063 .1329061
540.876 .1249374
541.689 .1172719
542.501 .1100825
543.313 .1035552
544.124 .0977427
544.934 .0925395
545.744 .0878889
546.553 .0837021
547.361 .0798903
548.169 .0764617
548.976 .0733477
549.783 .0705412
550.589 .0680459
551.395 .0658128
552.200 .0638179
553.004 .0620379
553.808 .0604574
554.611 .0590459
555.414 .0577614
556.216 .0565924
557.018 .0555163
557.819 .0545031
558.619 .0535389
559.419 .0526171
560.218 .0517367
561.017 .0509052
561.815 .0501079
562.613 .0493381
563.410 .0485859
564.207 .0478569
565.003 .0471426
565.799 .0464371
566.594 .0457422
567.388 .0450662
568.182 .0444154
568.976 .0437917
569.769 .0431977
570.562 .0426397
571.354 .0421152
572.145 .0416244
572.936 .0411549
573.727 .0407076
574.517 .0402731
575.307 .0398507
576.096 .0394409
576.885 .0390478
577.673 .0386720
578.461 .0383243
579.248 .0380025
580.035 .0377134
580.821 .0374481
581.607 .0372048
582.392 .0369805
583.177 .0367744
583.962 .0365796
584.746 .0363959
585.529 .0362202
586.313 .0360579
587.095 .0359058
587.878 .0357664
588.660 .0356383
589.441 .0355220
590.222 .0354164
591.003 .0353194
591.783 .0352271
592.563 .0351417
593.342 .0350592
594.121 .0349799
594.899 .0349048
595.678 .0348325
596.455 .0347640
597.233 .0346998
598.009 .0346399
598.786 .0345846
599.562 .0345327
600.338 .0344842
601.113 .0344374
601.888 .0343922
602.663 .0343473
603.437 .0343009
604.211 .0342536
604.984 .0342057
605.757 .0341572
606.530 .0341079
607.302 .0340588
608.074 .0340097
608.845 .0339617
609.616 .0339142
610.387 .0338675
611.158 .0338217
611.928 .0337767
612.697 .0337326
613.467 .0336890
614.236 .0336470
615.004 .0336068
615.773 .0335683
616.541 .0335325
617.308 .0334991
618.076 .0334688
618.843 .0334403
619.609 .0334145
620.375 .0333904
621.141 .0333676
621.907 .0333450
622.672 .0333227
623.437 .0333004
624.202 .0332785
624.966 .0332561
625.730 .0332339
626.493 .0332119
627.257 .0331898
628.020 .0331668
628.782 .0331433
629.545 .0331183
630.307 .0330918
631.068 .0330623
631.830 .0330313
632.591 .0329985
633.352 .0329652
634.112 .0329319
634.872 .0328994
635.632 .0328681
636.392 .0328374
637.151 .0328061
637.910 .0327748
638.668 .0327429
639.427 .0327106
640.185 .0326781
640.943 .0326457
641.700 .0326144
642.457 .0325846
643.214 .0325565
643.971 .0325301
644.727 .0325049
645.483 .0324805
646.239 .0324559
646.994 .0324310
647.750 .0324060
648.505 .0323805
649.259 .0323556
650.014 .0323309
650.768 .0323058
651.521 .0322803
652.275 .0322538
653.028 .0322256
653.781 .0321956
654.534 .0321638
655.286 .0321309
656.039 .0320971
656.791 .0320636
657.542 .0320299
658.294 .0319970
659.045 .0319654
659.796 .0319348
660.546 .0319045
661.297 .0318742
662.047 .0318434
662.796 .0318120
663.546 .0317804
664.295 .0317492
665.044 .0317185
665.793 .0316894
666.542 .0316618
667.290 .0316352
668.038 .0316091
668.786 .0315831
669.533 .0315570
670.281 .0315307
671.028 .0315037
671.774 .0314758
672.521 .0314481
673.267 .0314207
674.013 .0313942
674.759 .0313686
675.505 .0313438
676.250 .0313200
676.995 .0312966
677.740 .0312737
678.484 .0312509
679.229 .0312291
679.973 .0312086
680.717 .0311896
681.460 .0311724
682.204 .0311564
682.947 .0311418
683.690 .0311277
684.433 .0311140
685.175 .0310992
685.917 .0310827
686.659 .0310649
687.401 .0310456
688.142 .0310255
688.884 .0310047
689.625 .0309843
690.365 .0309646
691.106 .0309456
691.846 .0309272
692.586 .0309086
693.326 .0308905
694.066 .0308722
694.805 .0308536
695.545 .0308344
696.284 .0308149
697.022 .0307949
697.761 .0307750
698.499 .0307555
699.237 .0307363
699.975 .0307174
700.713 .0306992
701.450 .0306815
702.187 .0306639
702.924 .0306463
703.661 .0306282
704.397 .0306090
705.133 .0305891
705.869 .0305680
706.605 .0305457
707.341 .0305228
708.076 .0305003
708.811 .0304778
709.546 .0304559
710.281 .0304344
711.015 .0304135
711.749 .0303930
712.483 .0303730
713.217 .0303527
713.950 .0303323
714.684 .0303116
715.417 .0302906
716.150 .0302693
716.882 .0302482
717.615 .0302274
718.347 .0302065
719.079 .0301860
719.811 .0301657
720.542 .0301455
721.273 .0301258
722.005 .0301061
722.735 .0300874
723.466 .0300691
724.196 .0300514
724.927 .0300343
725.656 .0300174
726.386 .0300010
727.116 .0299841
727.845 .0299668
728.574 .0299491
729.303 .0299307
730.031 .0299119
730.760 .0298935
731.488 .0298756
732.216 .0298586
732.944 .0298419
733.671 .0298259
734.398 .0298099
735.125 .0297937
735.852 .0297769
736.579 .0297595
737.305 .0297418
738.031 .0297244
738.757 .0297073
739.483 .0296912
740.208 .0296762
740.933 .0296623
741.658 .0296490
742.383 .0296360
743.108 .0296224
743.832 .0296083
744.556 .0295933
745.280 .0295776
746.004 .0295607
746.727 .0295433
747.450 .0295256
748.173 .0295076
748.896 .0294900
749.618 .0294723
750.340 .0294546
751.062 .0294368
751.784 .0294190
752.506 .0294015
753.227 .0293838
753.948 .0293666
754.669 .0293497
755.389 .0293335
756.110 .0293184
756.830 .0293037
757.550 .0292903
758.269 .0292778
758.989 .0292663
759.708 .0292546
760.427 .0292427
761.146 .0292303
761.864 .0292177
762.582 .0292049
763.300 .0291921
764.018 .0291800
764.736 .0291688
765.453 .0291588
766.170 .0291500
766.887 .0291422
767.603 .0291350
768.320 .0291277
769.036 .0291202
769.751 .0291119
770.467 .0291030
771.182 .0290937
771.897 .0290849
772.612 .0290769
773.327 .0290695
774.041 .0290627
774.755 .0290561
775.469 .0290496
776.183 .0290424
776.896 .0290344
777.609 .0290260
778.322 .0290171
779.035 .0290082
779.747 .0289997
780.459 .0289923
781.171 .0289859
781.882 .0289809
782.594 .0289771
783.305 .0289743
784.016 .0289722
784.726 .0289706
785.436 .0289692
786.147 .0289687
786.856 .0289690
787.566 .0289700
788.275 .0289719
788.984 .0289746
789.693 .0289778
790.401 .0289808
791.110 .0289829
791.818 .0289836
792.525 .0289828
793.233 .0289803
793.940 .0289757
794.647 .0289695
795.353 .0289622
796.060 .0289542
796.766 .0289452
797.472 .0289351
798.177 .0289238
798.883 .0289110
799.588 .0288966
800.292 .0288807
800.997 .0288637
801.701 .0288460
802.405 .0288284
803.109 .0288116
803.812 .0287957
804.515 .0287811
805.218 .0287676
805.921 .0287550
806.623 .0287432
807.325 .0287317
808.027 .0287204
808.728 .0287093
809.429 .0286986
810.130 .0286878
810.831 .0286769
811.531 .0286658
812.231 .0286540
812.931 .0286410
813.630 .0286267
814.330 .0286106
815.029 .0285932
815.727 .0285745
816.426 .0285548
817.124 .0285345
817.821 .0285141
818.519 .0284939
819.216 .0284743
819.913 .0284552
820.609 .0284368
821.306 .0284192
822.002 .0284028
822.697 .0283875
823.393 .0283736
824.088 .0283611
824.783 .0283498
825.477 .0283392
826.171 .0283292
826.865 .0283197
827.559 .0283106
828.252 .0283021
828.945 .0282941
829.638 .0282864
830.330 .0282786
831.023 .0282707
831.714 .0282623
832.406 .0282528
833.097 .0282420
833.788 .0282294
834.479 .0282150
835.169 .0281995
835.859 .0281831
836.548 .0281663
837.238 .0281499
837.927 .0281340
838.615 .0281180
839.304 .0281023
839.992 .0280860
840.680 .0280692
841.367 .0280520
842.054 .0280344
842.741 .0280164
843.428 .0279988
844.114 .0279820
844.800 .0279659
845.485 .0279504
846.170 .0279355
846.855 .0279204
847.540 .0279047
848.224 .0278885
848.908 .0278713
849.592 .0278535
850.275 .0278354
850.958 .0278169
851.641 .0277984
852.323 .0277800
853.005 .0277616
853.687 .0277430
854.368 .0277243
855.049 .0277057
855.730 .0276867
856.410 .0276679
857.090 .0276496
857.769 .0276319
858.449 .0276153
859.128 .0276001
859.806 .0275860
860.485 .0275737
861.163 .0275628
861.840 .0275539
862.518 .0275464
863.195 .0275400
863.871 .0275344
864.548 .0275290
865.224 .0275238
865.899 .0275184
866.574 .0275123
867.249 .0275063
867.924 .0275005
868.598 .0274951
869.272 .0274899
869.946 .0274855
870.619 .0274812
871.292 .0274769
871.964 .0274722
872.636 .0274669
873.308 .0274608
873.979 .0274546
874.651 .0274485
875.321 .0274428
875.992 .0274381
876.662 .0274343
877.331 .0274312
878.001 .0274293
878.670 .0274276
879.338 .0274258
880.007 .0274244
880.675 .0274235
881.342 .0274229
882.009 .0274228
882.676 .0274237
883.343 .0274253
884.009 .0274275
884.675 .0274300
885.340 .0274323
886.005 .0274346
886.670 .0274369
887.334 .0274390
887.998 .0274413
888.662 .0274443
889.325 .0274479
889.988 .0274519
890.650 .0274567
891.312 .0274614
891.974 .0274660
892.636 .0274703
893.297 .0274747
893.957 .0274789
894.618 .0274832
895.278 .0274880
895.937 .0274933
896.596 .0274993
897.255 .0275058
897.914 .0275122
898.572 .0275189
899.230 .0275254
899.887 .0275314
900.544 .0275370
901.201 .0275426
901.857 .0275480
902.513 .0275532
903.168 .0275580
903.823 .0275618
904.478 .0275645
905.132 .0275653
905.786 .0275639
906.440 .0275599
907.093 .0275536
907.746 .0275447
908.399 .0275336
909.051 .0275209
909.703 .0275069
910.354 .0274924
911.005 .0274774
911.656 .0274618
912.306 .0274457
912.956 .0274285
913.605 .0274104
914.254 .0273914
914.903 .0273717
915.551 .0273518
916.199 .0273325
916.847 .0273143
917.494 .0272974
918.141 .0272821
918.788 .0272684
919.434 .0272559
920.079 .0272441
920.725 .0272324
921.370 .0272198
922.014 .0272064
922.658 .0271918
923.302 .0271761
923.946 .0271599
924.589 .0271428
925.231 .0271251
925.873 .0271067
926.515 .0270875
927.157 .0270673
927.798 .0270457
928.439 .0270224
929.079 .0269971
929.719 .0269700
930.359 .0269407
930.998 .0269102
931.637 .0268793
932.275 .0268483
932.913 .0268176
933.551 .0267874
934.188 .0267582
934.825 .0267301
935.462 .0267033
936.098 .0266779
936.733 .0266540
937.369 .0266322
938.004 .0266118
938.638 .0265930
939.273 .0265758
939.907 .0265598
940.540 .0265447
941.173 .0265306
941.806 .0265173
942.438 .0265042
943.070 .0264915
943.702 .0264791
944.333 .0264668
944.964 .0264541
945.594 .0264411
946.224 .0264274
946.854 .0264134
947.483 .0263991
948.112 .0263838
948.741 .0263684
949.369 .0263530
949.996 .0263377
950.624 .0263227
951.251 .0263078
951.878 .0262935
952.504 .0262788
953.130 .0262640
953.755 .0262485
954.380 .0262321
955.005 .0262149
955.629 .0261970
956.253 .0261778
956.877 .0261575
957.500 .0261364
958.123 .0261148
958.746 .0260922
959.368 .0260687
959.990 .0260446
960.611 .0260196
961.232 .0259942
961.853 .0259685
962.473 .0259421
963.093 .0259164
963.712 .0258909
964.331 .0258663
964.950 .0258430
965.569 .0258222
966.187 .0258036
966.804 .0257879
967.422 .0257752
968.039 .0257644
968.655 .0257550
969.272 .0257466
969.887 .0257382
970.503 .0257293
971.118 .0257200
971.733 .0257100
972.347 .0256996
972.961 .0256898
973.575 .0256798
974.188 .0256697
974.801 .0256591
975.414 .0256471
976.026 .0256330
976.638 .0256167
977.250 .0255985
977.861 .0255785
978.472 .0255578
979.083 .0255369
979.693 .0255161
980.303 .0254963
980.912 .0254776
981.521 .0254603
982.130 .0254438
982.738 .0254276
983.346 .0254111
983.954 .0253943
984.562 .0253776
985.169 .0253607
985.775 .0253437
986.382 .0253269
986.988 .0253105
987.594 .0252941
988.199 .0252782
988.804 .0252631
989.409 .0252492
990.013 .0252366
990.617 .0252248
991.221 .0252142
991.824 .0252048
992.427 .0251971
993.030 .0251913
993.632 .0251875
994.234 .0251861
994.836 .0251867
995.438 .0251893
996.039 .0251940
996.640 .0252005
997.240 .0252081
997.840 .0252161
998.440 .0252245
999.040 .0252325
999.639 .0252398
1000.238 .0252461
1000.836 .0252518
1001.435 .0252567
1002.033 .0252606
1002.630 .0252634
1003.228 .0252660
1003.825 .0252687
1004.422 .0252710
1005.018 .0252734
1005.614 .0252761
1006.210 .0252791
1006.806 .0252821
1007.401 .0252854
1007.996 .0252891
1008.591 .0252940
1009.186 .0252994
1009.780 .0253056
1010.374 .0253127
1010.967 .0253208
1011.561 .0253289
1012.154 .0253367
1012.746 .0253440
1013.339 .0253504
1013.931 .0253558
1014.523 .0253610
1015.115 .0253656
1015.706 .0253706
1016.298 .0253761
1016.888 .0253821
1017.479 .0253885
1018.069 .0253955
1018.660 .0254020
1019.250 .0254083
1019.839 .0254143
1020.429 .0254204
1021.018 .0254273
1021.607 .0254357
1022.195 .0254464
1022.784 .0254595
1023.372 .0254754
1023.960 .0254939
1024.547 .0255145
1025.135 .0255371
1025.722 .0255606
1026.309 .0255848
1026.896 .0256087
1027.483 .0256331
1028.069 .0256574
1028.655 .0256814
1029.241 .0257058
1029.827 .0257300
1030.412 .0257540
1030.997 .0257777
1031.582 .0258013
1032.167 .0258241
1032.752 .0258460
1033.336 .0258671
1033.921 .0258860
1034.505 .0259039
1035.089 .0259206
1035.672 .0259357
1036.256 .0259507
1036.839 .0259660
1037.422 .0259825
1038.005 .0260005
1038.588 .0260208
1039.171 .0260423
1039.753 .0260652
1040.335 .0260886
1040.918 .0261106
1041.500 .0261308
1042.081 .0261485
1042.663 .0261634
1043.244 .0261754
1043.826 .0261846
1044.407 .0261914
1044.988 .0261969
1045.569 .0262019
1046.150 .0262061
1046.730 .0262102
1047.311 .0262127
1047.891 .0262146
1048.471 .0262157
1049.052 .0262167
1049.632 .0262181
1050.211 .0262201
1050.791 .0262240
1051.371 .0262294
1051.950 .0262370
1052.530 .0262465
1053.109 .0262574
1053.688 .0262701
1054.268 .0262830
1054.847 .0262957
1055.426 .0263080
1056.005 .0263199
1056.583 .0263315
1057.162 .0263426
1057.741 .0263517
1058.319 .0263592
1058.898 .0263647
1059.476 .0263680
1060.055 .0263697
1060.633 .0263698
1061.211 .0263695
1061.790 .0263697
1062.368 .0263708
1062.946 .0263730
1063.524 .0263771
1064.102 .0263835
1064.680 .0263905
1065.258 .0263974
1065.836 .0264038
1066.414 .0264091
1066.992 .0264134
1067.570 .0264178
1068.148 .0264219
1068.726 .0264257
1069.304 .0264301
1069.882 .0264344
1070.460 .0264394
1071.038 .0264443
1071.616 .0264494
1072.194 .0264555
1072.772 .0264621
1073.350 .0264683
1073.928 .0264749
1074.506 .0264823
1075.084 .0264911
1075.662 .0264988
1076.240 .0265056
1076.819 .0265111
1077.397 .0265159
1077.976 .0265187
1078.554 .0265214
1079.133 .0265244
1079.711 .0265282
1080.290 .0265312
1080.869 .0265351
1081.448 .0265390
1082.027 .0265425
1082.606 .0265455
1083.185 .0265478
1083.764 .0265488
1084.343 .0265494
1084.923 .0265475
1085.502 .0265463
1086.082 .0265471
1086.662 .0265512
1087.242 .0265559
1087.822 .0265637
1088.402 .0265721
1088.983 .0265811
1089.563 .0265888
1090.144 .0265959
1090.725 .0266014
1091.306 .0266052
1091.887 .0266062
1092.469 .0266054
1093.050 .0266038
1093.632 .0266030
1094.214 .0266013
1094.796 .0266018
1095.379 .0266018
1095.961 .0266032
1096.544 .0266057
1097.127 .0266097
1097.710 .0266156
1098.294 .0266246
1098.877 .0266341
1099.461 .0266445
1100.046 .0266570
1100.630 .0266701
1101.215 .0266839
1101.800 .0266998
1102.385 .0267186
1102.970 .0267380
1103.556 .0267585
1104.142 .0267791
1104.728 .0267978
1105.315 .0268150
1105.902 .0268276
1106.489 .0268337
1107.077 .0268354
1107.664 .0268330
1108.253 .0268260
1108.841 .0268163
1109.430 .0268071
1110.019 .0267962
1110.609 .0267846
1111.198 .0267717
1111.789 .0267594
1112.379 .0267453
1112.970 .0267309
1113.561 .0267172
1114.153 .0267040
1114.745 .0266960
1115.338 .0266934
1115.931 .0266973
1116.524 .0267090
1117.117 .0267291
1117.712 .0267550
1118.306 .0267889
1118.901 .0268314
1119.496 .0268829
1120.092 .0269399
1120.689 .0270033
1121.285 .0270687
1121.882 .0271328
1122.480 .0271957
1123.078 .0272571
1123.677 .0273143
1124.276 .0273735
1124.875 .0274320
1125.476 .0274962
1126.076 .0275652
1126.677 .0276439
1127.279 .0277269
1127.881 .0278131
1128.484 .0278967
1129.087 .0279745
1129.691 .0280440
1130.295 .0281121
1130.900 .0281758
1131.505 .0282446
1132.111 .0283195
1132.718 .0284055
1133.325 .0285003
1133.933 .0286065
1134.541 .0287186
1135.150 .0288362
1135.760 .0289551
1136.370 .0290757
1136.981 .0291910
1137.592 .0293080
1138.204 .0294292
1138.817 .0295509
1139.431 .0296753
1140.045 .0298049
1140.660 .0299358
1141.275 .0300811
1141.891 .0302184
1142.508 .0303251
1143.126 .0305024
1143.744 .0305826
1144.363 .0310717
1144.983 .0307689
