Measurement Sequence started on: 15-12-46-377
Integration time: 28
Scans to Average: 2 
>>>>>Begin Spectral Data<<<<<
432.689 .0000100
433.621 .0000100
434.552 .0000100
435.482 .0000100
436.410 .0000100
437.337 .0000100
438.262 .0265074
439.187 .0559964
440.110 .0927557
441.031 .1341861
441.952 .1743948
442.871 .2060091
443.789 .2233233
444.705 .2243818
445.621 .2116257
446.535 .1903065
447.447 .1661690
448.359 .1291499
449.269 .1109842
450.178 .0994529
451.086 .0913467
451.993 .0851705
452.898 .0803181
453.803 .0763457
454.706 .0730679
455.608 .0702826
456.508 .0678936
457.408 .0658349
458.306 .0640029
459.204 .0623599
460.100 .0608893
460.995 .0595902
461.888 .0584353
462.781 .0574008
463.673 .0564784
464.563 .0556345
465.452 .0548563
466.340 .0541317
467.228 .0534410
468.114 .0527913
468.999 .0521820
469.882 .0516030
470.765 .0510571
471.647 .0505497
472.528 .0500737
473.407 .0496377
474.286 .0492462
475.163 .0488900
476.040 .0485644
476.915 .0482739
477.790 .0480202
478.663 .0478020
479.535 .0476172
480.407 .0474636
481.277 .0473327
482.147 .0472243
483.015 .0471243
483.883 .0470342
484.749 .0469579
485.615 .0469032
486.479 .0468685
487.343 .0468643
488.206 .0468877
489.067 .0469372
489.928 .0470091
490.788 .0471025
491.647 .0472103
492.505 .0473279
493.362 .0474508
494.218 .0475803
495.073 .0477155
495.928 .0478719
496.781 .0480450
497.634 .0482489
498.486 .0484841
499.337 .0487473
500.187 .0490349
501.036 .0493503
501.884 .0496846
502.731 .0500502
503.578 .0504433
504.424 .0508690
505.268 .0513218
506.113 .0518041
506.956 .0523217
507.798 .0528724
508.640 .0534702
509.480 .0541144
510.320 .0548037
511.160 .0555643
511.998 .0564045
512.836 .0573354
513.672 .0583787
514.508 .0595499
515.344 .0608601
516.178 .0623524
517.012 .0640547
517.845 .0659903
518.677 .0682208
519.508 .0707597
520.339 .0736718
521.169 .0769850
521.998 .0807606
522.826 .0850077
523.654 .0897933
524.481 .0951209
525.307 .1010233
526.133 .1074527
526.958 .1144143
527.782 .1217873
528.605 .1294137
529.428 .1371898
530.250 .1445073
531.072 .1510394
531.892 .1564239
532.712 .1602763
533.532 .1624394
534.350 .1626742
535.168 .1610168
535.986 .1575631
536.802 .1526125
537.618 .1464526
538.434 .1393501
539.249 .1318764
540.063 .1242277
540.876 .1166442
541.689 .1093717
542.501 .1025368
543.313 .0963035
544.124 .0907101
544.934 .0857051
545.744 .0812013
546.553 .0771925
547.361 .0736150
548.169 .0704784
548.976 .0677043
549.783 .0652756
550.589 .0631291
551.395 .0612145
552.200 .0594961
553.004 .0579269
553.808 .0564782
554.611 .0551642
555.414 .0539660
556.216 .0528777
557.018 .0518951
557.819 .0509927
558.619 .0501598
559.419 .0493980
560.218 .0486970
561.017 .0480426
561.815 .0474143
562.613 .0468213
563.410 .0462321
564.207 .0456553
565.003 .0450869
565.799 .0445266
566.594 .0439720
567.388 .0434316
568.182 .0429000
568.976 .0423726
569.769 .0418600
570.562 .0413672
571.354 .0408881
572.145 .0404321
572.936 .0399839
573.727 .0395402
574.517 .0391061
575.307 .0386840
576.096 .0382682
576.885 .0378688
577.673 .0374945
578.461 .0371430
579.248 .0368123
580.035 .0365065
580.821 .0362172
581.607 .0359452
582.392 .0356875
583.177 .0354378
583.962 .0351969
584.746 .0349718
585.529 .0347627
586.313 .0345718
587.095 .0344021
587.878 .0342518
588.660 .0341204
589.441 .0340072
590.222 .0339040
591.003 .0338089
591.783 .0337216
592.563 .0336403
593.342 .0335636
594.121 .0334907
594.899 .0334224
595.678 .0333590
596.455 .0333014
597.233 .0332476
598.009 .0331964
598.786 .0331471
599.562 .0330982
600.338 .0330487
601.113 .0329989
601.888 .0329490
602.663 .0328982
603.437 .0328494
604.211 .0328030
604.984 .0327583
605.757 .0327159
606.530 .0326752
607.302 .0326369
608.074 .0326001
608.845 .0325643
609.616 .0325304
610.387 .0324985
611.158 .0324694
611.928 .0324422
612.697 .0324170
613.467 .0323940
614.236 .0323723
615.004 .0323508
615.773 .0323293
616.541 .0323079
617.308 .0322854
618.076 .0322637
618.843 .0322432
619.609 .0322239
620.375 .0322064
621.141 .0321901
621.907 .0321742
622.672 .0321579
623.437 .0321409
624.202 .0321219
624.966 .0321015
625.730 .0320809
626.493 .0320589
627.257 .0320366
628.020 .0320145
628.782 .0319922
629.545 .0319694
630.307 .0319459
631.068 .0319203
631.830 .0318932
632.591 .0318645
633.352 .0318339
634.112 .0318018
634.872 .0317691
635.632 .0317361
636.392 .0317025
637.151 .0316692
637.910 .0316359
638.668 .0316028
639.427 .0315703
640.185 .0315385
640.943 .0315073
641.700 .0314771
642.457 .0314477
643.214 .0314195
643.971 .0313918
644.727 .0313649
645.483 .0313391
646.239 .0313144
646.994 .0312906
647.750 .0312679
648.505 .0312451
649.259 .0312234
650.014 .0312006
650.768 .0311770
651.521 .0311514
652.275 .0311240
653.028 .0310942
653.781 .0310622
654.534 .0310288
655.286 .0309945
656.039 .0309600
656.791 .0309264
657.542 .0308932
658.294 .0308613
659.045 .0308301
659.796 .0307997
660.546 .0307704
661.297 .0307416
662.047 .0307125
662.796 .0306841
663.546 .0306565
664.295 .0306296
665.044 .0306038
665.793 .0305797
666.542 .0305581
667.290 .0305377
668.038 .0305182
668.786 .0304994
669.533 .0304807
670.281 .0304618
671.028 .0304418
671.774 .0304208
672.521 .0303997
673.267 .0303784
674.013 .0303577
674.759 .0303372
675.505 .0303183
676.250 .0303000
676.995 .0302815
677.740 .0302633
678.484 .0302445
679.229 .0302250
679.973 .0302053
680.717 .0301855
681.460 .0301657
682.204 .0301462
682.947 .0301272
683.690 .0301084
684.433 .0300902
685.175 .0300720
685.917 .0300532
686.659 .0300340
687.401 .0300144
688.142 .0299943
688.884 .0299744
689.625 .0299550
690.365 .0299361
691.106 .0299178
691.846 .0298996
692.586 .0298812
693.326 .0298625
694.066 .0298430
694.805 .0298224
695.545 .0298008
696.284 .0297787
697.022 .0297561
697.761 .0297339
698.499 .0297123
699.237 .0296918
699.975 .0296728
700.713 .0296546
701.450 .0296369
702.187 .0296201
702.924 .0296039
703.661 .0295877
704.397 .0295720
705.133 .0295576
705.869 .0295440
706.605 .0295311
707.341 .0295190
708.076 .0295075
708.811 .0294960
709.546 .0294840
710.281 .0294704
711.015 .0294552
711.749 .0294383
712.483 .0294195
713.217 .0293986
713.950 .0293767
714.684 .0293539
715.417 .0293303
716.150 .0293068
716.882 .0292838
717.615 .0292612
718.347 .0292397
719.079 .0292194
719.811 .0292003
720.542 .0291819
721.273 .0291645
722.005 .0291472
722.735 .0291306
723.466 .0291144
724.196 .0290981
724.927 .0290819
725.656 .0290661
726.386 .0290501
727.116 .0290340
727.845 .0290178
728.574 .0290018
729.303 .0289856
730.031 .0289696
730.760 .0289535
731.488 .0289374
732.216 .0289220
732.944 .0289074
733.671 .0288934
734.398 .0288806
735.125 .0288694
735.852 .0288595
736.579 .0288508
737.305 .0288433
738.031 .0288368
738.757 .0288310
739.483 .0288252
740.208 .0288196
740.933 .0288137
741.658 .0288072
742.383 .0287999
743.108 .0287917
743.832 .0287825
744.556 .0287720
745.280 .0287601
746.004 .0287467
746.727 .0287317
747.450 .0287152
748.173 .0286970
748.896 .0286780
749.618 .0286581
750.340 .0286378
751.062 .0286174
751.784 .0285973
752.506 .0285776
753.227 .0285582
753.948 .0285396
754.669 .0285213
755.389 .0285030
756.110 .0284848
756.830 .0284665
757.550 .0284483
758.269 .0284302
758.989 .0284120
759.708 .0283941
760.427 .0283766
761.146 .0283595
761.864 .0283427
762.582 .0283267
763.300 .0283108
764.018 .0282952
764.736 .0282794
765.453 .0282637
766.170 .0282476
766.887 .0282312
767.603 .0282145
768.320 .0281976
769.036 .0281810
769.751 .0281644
770.467 .0281482
771.182 .0281332
771.897 .0281188
772.612 .0281055
773.327 .0280927
774.041 .0280810
774.755 .0280695
775.469 .0280581
776.183 .0280466
776.896 .0280348
777.609 .0280225
778.322 .0280099
779.035 .0279970
779.747 .0279846
780.459 .0279729
781.171 .0279622
781.882 .0279528
782.594 .0279448
783.305 .0279374
784.016 .0279309
784.726 .0279247
785.436 .0279187
786.147 .0279121
786.856 .0279055
787.566 .0278993
788.275 .0278935
788.984 .0278888
789.693 .0278847
790.401 .0278811
791.110 .0278776
791.818 .0278733
792.525 .0278680
793.233 .0278612
793.940 .0278528
794.647 .0278426
795.353 .0278312
796.060 .0278191
796.766 .0278062
797.472 .0277931
798.177 .0277802
798.883 .0277672
799.588 .0277537
800.292 .0277400
800.997 .0277259
801.701 .0277118
802.405 .0276977
803.109 .0276841
803.812 .0276714
804.515 .0276598
805.218 .0276493
805.921 .0276398
806.623 .0276313
807.325 .0276236
808.027 .0276161
808.728 .0276084
809.429 .0276002
810.130 .0275913
810.831 .0275818
811.531 .0275715
812.231 .0275604
812.931 .0275484
813.630 .0275357
814.330 .0275220
815.029 .0275077
815.727 .0274929
816.426 .0274774
817.124 .0274612
817.821 .0274449
818.519 .0274282
819.216 .0274117
819.913 .0273959
820.609 .0273808
821.306 .0273670
822.002 .0273547
822.697 .0273439
823.393 .0273350
824.088 .0273278
824.783 .0273218
825.477 .0273164
826.171 .0273119
826.865 .0273076
827.559 .0273039
828.252 .0273006
828.945 .0272977
829.638 .0272953
830.330 .0272937
831.023 .0272919
831.714 .0272901
832.406 .0272880
833.097 .0272854
833.788 .0272813
834.479 .0272762
835.169 .0272699
835.859 .0272631
836.548 .0272564
837.238 .0272499
837.927 .0272436
838.615 .0272378
839.304 .0272321
839.992 .0272263
840.680 .0272201
841.367 .0272135
842.054 .0272065
842.741 .0271993
843.428 .0271924
844.114 .0271860
844.800 .0271801
845.485 .0271752
846.170 .0271706
846.855 .0271661
847.540 .0271610
848.224 .0271553
848.908 .0271492
849.592 .0271425
850.275 .0271354
850.958 .0271277
851.641 .0271203
852.323 .0271129
853.005 .0271054
853.687 .0270975
854.368 .0270889
855.049 .0270796
855.730 .0270694
856.410 .0270580
857.090 .0270457
857.769 .0270326
858.449 .0270185
859.128 .0270037
859.806 .0269885
860.485 .0269730
861.163 .0269579
861.840 .0269434
862.518 .0269296
863.195 .0269164
863.871 .0269039
864.548 .0268917
865.224 .0268797
865.899 .0268675
866.574 .0268543
867.249 .0268404
867.924 .0268260
868.598 .0268114
869.272 .0267972
869.946 .0267841
870.619 .0267720
871.292 .0267608
871.964 .0267501
872.636 .0267393
873.308 .0267281
873.979 .0267163
874.651 .0267037
875.321 .0266903
875.992 .0266769
876.662 .0266638
877.331 .0266518
878.001 .0266412
878.670 .0266317
879.338 .0266231
880.007 .0266153
880.675 .0266077
881.342 .0265998
882.009 .0265915
882.676 .0265826
883.343 .0265732
884.009 .0265635
884.675 .0265533
885.340 .0265430
886.005 .0265328
886.670 .0265231
887.334 .0265136
887.998 .0265045
888.662 .0264963
889.325 .0264890
889.988 .0264827
890.650 .0264772
891.312 .0264725
891.974 .0264686
892.636 .0264656
893.297 .0264634
893.957 .0264618
894.618 .0264611
895.278 .0264611
895.937 .0264617
896.596 .0264632
897.255 .0264647
897.914 .0264657
898.572 .0264656
899.230 .0264640
899.887 .0264604
900.544 .0264549
901.201 .0264476
901.857 .0264388
902.513 .0264289
903.168 .0264182
903.823 .0264066
904.478 .0263947
905.132 .0263818
905.786 .0263678
906.440 .0263525
907.093 .0263358
907.746 .0263172
908.399 .0262977
909.051 .0262773
909.703 .0262567
910.354 .0262359
911.005 .0262154
911.656 .0261949
912.306 .0261749
912.956 .0261551
913.605 .0261350
914.254 .0261151
914.903 .0260954
915.551 .0260759
916.199 .0260573
916.847 .0260394
917.494 .0260228
918.141 .0260072
918.788 .0259929
919.434 .0259792
920.079 .0259660
920.725 .0259533
921.370 .0259403
922.014 .0259274
922.658 .0259137
923.302 .0258991
923.946 .0258839
924.589 .0258677
925.231 .0258500
925.873 .0258309
926.515 .0258107
927.157 .0257894
927.798 .0257674
928.439 .0257449
929.079 .0257222
929.719 .0256998
930.359 .0256775
930.998 .0256552
931.637 .0256329
932.275 .0256110
932.913 .0255886
933.551 .0255664
934.188 .0255440
934.825 .0255221
935.462 .0255009
936.098 .0254810
936.733 .0254627
937.369 .0254462
938.004 .0254313
938.638 .0254179
939.273 .0254052
939.907 .0253936
940.540 .0253821
941.173 .0253711
941.806 .0253603
942.438 .0253501
943.070 .0253401
943.702 .0253311
944.333 .0253227
944.964 .0253153
945.594 .0253083
946.224 .0253020
946.854 .0252960
947.483 .0252897
948.112 .0252828
948.741 .0252753
949.369 .0252668
949.996 .0252576
950.624 .0252475
951.251 .0252367
951.878 .0252255
952.504 .0252141
953.130 .0252021
953.755 .0251898
954.380 .0251772
955.005 .0251642
955.629 .0251508
956.253 .0251372
956.877 .0251236
957.500 .0251101
958.123 .0250973
958.746 .0250848
959.368 .0250726
959.990 .0250609
960.611 .0250492
961.232 .0250376
961.853 .0250262
962.473 .0250149
963.093 .0250037
963.712 .0249934
964.331 .0249841
964.950 .0249756
965.569 .0249685
966.187 .0249626
966.804 .0249579
967.422 .0249540
968.039 .0249512
968.655 .0249488
969.272 .0249471
969.887 .0249460
970.503 .0249444
971.118 .0249434
971.733 .0249427
972.347 .0249418
972.961 .0249408
973.575 .0249400
974.188 .0249383
974.801 .0249358
975.414 .0249324
976.026 .0249281
976.638 .0249227
977.250 .0249166
977.861 .0249093
978.472 .0249011
979.083 .0248926
979.693 .0248830
980.303 .0248724
980.912 .0248619
981.521 .0248507
982.130 .0248393
982.738 .0248277
983.346 .0248166
983.954 .0248059
984.562 .0247966
985.169 .0247886
985.775 .0247811
986.382 .0247745
986.988 .0247683
987.594 .0247622
988.199 .0247559
988.804 .0247494
989.409 .0247424
990.013 .0247359
990.617 .0247297
991.221 .0247232
991.824 .0247175
992.427 .0247127
993.030 .0247088
993.632 .0247052
994.234 .0247024
994.836 .0247002
995.438 .0246986
996.039 .0246985
996.640 .0246988
997.240 .0247002
997.840 .0247031
998.440 .0247072
999.040 .0247126
999.639 .0247188
1000.238 .0247255
1000.836 .0247324
1001.435 .0247394
1002.033 .0247463
1002.630 .0247526
1003.228 .0247587
1003.825 .0247646
1004.422 .0247705
1005.018 .0247763
1005.614 .0247815
1006.210 .0247860
1006.806 .0247899
1007.401 .0247925
1007.996 .0247933
1008.591 .0247924
1009.186 .0247902
1009.780 .0247876
1010.374 .0247846
1010.967 .0247820
1011.561 .0247804
1012.154 .0247796
1012.746 .0247791
1013.339 .0247789
1013.931 .0247789
1014.523 .0247786
1015.115 .0247781
1015.706 .0247784
1016.298 .0247798
1016.888 .0247827
1017.479 .0247869
1018.069 .0247938
1018.660 .0248027
1019.250 .0248134
1019.839 .0248248
1020.429 .0248361
1021.018 .0248474
1021.607 .0248582
1022.195 .0248684
1022.784 .0248787
1023.372 .0248894
1023.960 .0249010
1024.547 .0249131
1025.135 .0249264
1025.722 .0249401
1026.309 .0249540
1026.896 .0249683
1027.483 .0249826
1028.069 .0249957
1028.655 .0250086
1029.241 .0250204
1029.827 .0250325
1030.412 .0250445
1030.997 .0250565
1031.582 .0250688
1032.167 .0250813
1032.752 .0250944
1033.336 .0251076
1033.921 .0251209
1034.505 .0251348
1035.089 .0251475
1035.672 .0251596
1036.256 .0251700
1036.839 .0251782
1037.422 .0251849
1038.005 .0251903
1038.588 .0251947
1039.171 .0251993
1039.753 .0252037
1040.335 .0252084
1040.918 .0252137
1041.500 .0252193
1042.081 .0252239
1042.663 .0252267
1043.244 .0252280
1043.826 .0252265
1044.407 .0252229
1044.988 .0252186
1045.569 .0252130
1046.150 .0252082
1046.730 .0252049
1047.311 .0252031
1047.891 .0252030
1048.471 .0252041
1049.052 .0252055
1049.632 .0252078
1050.211 .0252118
1050.791 .0252163
1051.371 .0252218
1051.950 .0252300
1052.530 .0252402
1053.109 .0252511
1053.688 .0252635
1054.268 .0252769
1054.847 .0252903
1055.426 .0253034
1056.005 .0253154
1056.583 .0253266
1057.162 .0253372
1057.741 .0253474
1058.319 .0253569
1058.898 .0253659
1059.476 .0253733
1060.055 .0253780
1060.633 .0253803
1061.211 .0253803
1061.790 .0253778
1062.368 .0253730
1062.946 .0253676
1063.524 .0253623
1064.102 .0253568
1064.680 .0253525
1065.258 .0253505
1065.836 .0253499
1066.414 .0253491
1066.992 .0253485
1067.570 .0253480
1068.148 .0253458
1068.726 .0253427
1069.304 .0253381
1069.882 .0253331
1070.460 .0253279
1071.038 .0253228
1071.616 .0253169
1072.194 .0253124
1072.772 .0253091
1073.350 .0253052
1073.928 .0253019
1074.506 .0252997
1075.084 .0252972
1075.662 .0252958
1076.240 .0252953
1076.819 .0252959
1077.397 .0252968
1077.976 .0253001
1078.554 .0253040
1079.133 .0253085
1079.711 .0253127
1080.290 .0253169
1080.869 .0253199
1081.448 .0253228
1082.027 .0253252
1082.606 .0253271
1083.185 .0253311
1083.764 .0253364
1084.343 .0253408
1084.923 .0253446
1085.502 .0253461
1086.082 .0253456
1086.662 .0253408
1087.242 .0253320
1087.822 .0253200
1088.402 .0253060
1088.983 .0252919
1089.563 .0252781
1090.144 .0252656
1090.725 .0252568
1091.306 .0252500
1091.887 .0252448
1092.469 .0252409
1093.050 .0252374
1093.632 .0252347
1094.214 .0252327
1094.796 .0252329
1095.379 .0252349
1095.961 .0252401
1096.544 .0252507
1097.127 .0252675
1097.710 .0252879
1098.294 .0253127
1098.877 .0253404
1099.461 .0253702
1100.046 .0254003
1100.630 .0254283
1101.215 .0254538
1101.800 .0254776
1102.385 .0254975
1102.970 .0255139
1103.556 .0255246
1104.142 .0255329
1104.728 .0255372
1105.315 .0255388
1105.902 .0255391
1106.489 .0255397
1107.077 .0255413
1107.664 .0255471
1108.253 .0255549
1108.841 .0255639
1109.430 .0255737
1110.019 .0255845
1110.609 .0255958
1111.198 .0256098
1111.789 .0256278
1112.379 .0256524
1112.970 .0256846
1113.561 .0257272
1114.153 .0257774
1114.745 .0258346
1115.338 .0258980
1115.931 .0259602
1116.524 .0260183
1117.117 .0260707
1117.712 .0261174
1118.306 .0261599
1118.901 .0262009
1119.496 .0262428
1120.092 .0262860
1120.689 .0263324
1121.285 .0263800
1121.882 .0264244
1122.480 .0264710
1123.078 .0265150
1123.677 .0265572
1124.276 .0265991
1124.875 .0266440
1125.476 .0266917
1126.076 .0267471
1126.677 .0268104
1127.279 .0268774
1127.881 .0269483
1128.484 .0270231
1129.087 .0270969
1129.691 .0271739
1130.295 .0272547
1130.900 .0273382
1131.505 .0274279
1132.111 .0275242
1132.718 .0276192
1133.325 .0277197
1133.933 .0278256
1134.541 .0279316
1135.150 .0280370
1135.760 .0281467
1136.370 .0282586
1136.981 .0283724
1137.592 .0284930
1138.204 .0286172
1138.817 .0287519
1139.431 .0288999
1140.045 .0290630
1140.660 .0292369
1141.275 .0294312
1141.891 .0296187
1142.508 .0298191
1143.126 .0302218
1143.744 .0302347
1144.363 .0305849
1144.983 .0302125
