Measurement Sequence started on: 15-12-46-377
Integration time: 28
Scans to Average: 2 
>>>>>Begin Spectral Data<<<<<
432.689 .0000100
433.621 .0000100
434.552 .0000100
435.482 .0000100
436.410 .0000100
437.337 .0000100
438.262 .0290157
439.187 .0614041
440.110 .1016190
441.031 .1468644
441.952 .1907216
442.871 .2251002
443.789 .2437092
444.705 .2444364
445.621 .2300003
446.535 .2062187
447.447 .1794314
448.359 .1386181
449.269 .1184740
450.178 .1057852
451.086 .0968708
451.993 .0900152
452.898 .0845792
453.803 .0801300
454.706 .0764189
455.608 .0732382
456.508 .0705082
457.408 .0681565
458.306 .0661189
459.204 .0643263
460.100 .0627636
460.995 .0613890
461.888 .0601643
462.781 .0590433
463.673 .0580085
464.563 .0570620
465.452 .0561894
466.340 .0553717
467.228 .0546230
468.114 .0539337
468.999 .0533125
469.882 .0527410
470.765 .0522171
471.647 .0517355
472.528 .0512880
473.407 .0508646
474.286 .0504684
475.163 .0500834
476.040 .0497167
476.915 .0493655
477.790 .0490336
478.663 .0487137
479.535 .0484074
480.407 .0481195
481.277 .0478537
482.147 .0476130
483.015 .0473990
483.883 .0471993
484.749 .0470267
485.615 .0468763
486.479 .0467480
487.343 .0466386
488.206 .0465540
489.067 .0464916
489.928 .0464568
490.788 .0464439
491.647 .0464591
492.505 .0465032
493.362 .0465824
494.218 .0466871
495.073 .0468096
495.928 .0469482
496.781 .0470964
497.634 .0472543
498.486 .0474276
499.337 .0476137
500.187 .0478205
501.036 .0480539
501.884 .0483216
502.731 .0486302
503.578 .0489862
504.424 .0493935
505.268 .0498428
506.113 .0503362
506.956 .0508722
507.798 .0514591
508.640 .0521106
509.480 .0528417
510.320 .0536596
511.160 .0545961
511.998 .0556515
512.836 .0568331
513.672 .0581476
514.508 .0596115
515.344 .0612199
516.178 .0630095
517.012 .0650132
517.845 .0672494
518.677 .0697486
519.508 .0725790
520.339 .0757809
521.169 .0793869
521.998 .0834203
522.826 .0878941
523.654 .0928345
524.481 .0982415
525.307 .1041031
526.133 .1104204
526.958 .1171629
527.782 .1242907
528.605 .1316126
529.428 .1390161
530.250 .1459835
531.072 .1522325
531.892 .1573865
532.712 .1612122
533.532 .1633924
534.350 .1638104
535.168 .1624355
535.986 .1593604
536.802 .1547635
537.618 .1489430
538.434 .1421396
539.249 .1348657
540.063 .1272960
540.876 .1197430
541.689 .1123952
542.501 .1055905
543.313 .0993680
544.124 .0937927
544.934 .0888293
545.744 .0843908
546.553 .0804122
547.361 .0768802
548.169 .0737547
548.976 .0709795
549.783 .0685136
550.589 .0663240
551.395 .0643337
552.200 .0625382
553.004 .0608853
553.808 .0593675
554.611 .0579718
555.414 .0566928
556.216 .0554882
557.018 .0543749
557.819 .0533450
558.619 .0523838
559.419 .0514857
560.218 .0506544
561.017 .0498743
561.815 .0491308
562.613 .0484219
563.410 .0477402
564.207 .0470842
565.003 .0464612
565.799 .0458609
566.594 .0452818
567.388 .0447316
568.182 .0442028
568.976 .0436903
569.769 .0431949
570.562 .0427139
571.354 .0422319
572.145 .0417457
572.936 .0412510
573.727 .0407469
574.517 .0402386
575.307 .0397319
576.096 .0392321
576.885 .0387489
577.673 .0382917
578.461 .0378581
579.248 .0374535
580.035 .0370819
580.821 .0367379
581.607 .0364208
582.392 .0361278
583.177 .0358572
583.962 .0356076
584.746 .0353809
585.529 .0351758
586.313 .0349903
587.095 .0348245
587.878 .0346761
588.660 .0345421
589.441 .0344214
590.222 .0343113
591.003 .0342109
591.783 .0341183
592.563 .0340335
593.342 .0339529
594.121 .0338773
594.899 .0338063
595.678 .0337390
596.455 .0336741
597.233 .0336117
598.009 .0335504
598.786 .0334903
599.562 .0334325
600.338 .0333766
601.113 .0333224
601.888 .0332698
602.663 .0332182
603.437 .0331669
604.211 .0331156
604.984 .0330651
605.757 .0330149
606.530 .0329665
607.302 .0329215
608.074 .0328799
608.845 .0328420
609.616 .0328068
610.387 .0327745
611.158 .0327437
611.928 .0327130
612.697 .0326817
613.467 .0326497
614.236 .0326171
615.004 .0325852
615.773 .0325537
616.541 .0325243
617.308 .0324967
618.076 .0324714
618.843 .0324467
619.609 .0324226
620.375 .0323976
621.141 .0323715
621.907 .0323445
622.672 .0323173
623.437 .0322893
624.202 .0322620
624.966 .0322361
625.730 .0322120
626.493 .0321885
627.257 .0321659
628.020 .0321429
628.782 .0321195
629.545 .0320940
630.307 .0320670
631.068 .0320388
631.830 .0320110
632.591 .0319829
633.352 .0319552
634.112 .0319283
634.872 .0319022
635.632 .0318771
636.392 .0318523
637.151 .0318274
637.910 .0318024
638.668 .0317769
639.427 .0317515
640.185 .0317260
640.943 .0317006
641.700 .0316749
642.457 .0316500
643.214 .0316252
643.971 .0315993
644.727 .0315732
645.483 .0315469
646.239 .0315204
646.994 .0314931
647.750 .0314657
648.505 .0314385
649.259 .0314125
650.014 .0313875
650.768 .0313633
651.521 .0313401
652.275 .0313178
653.028 .0312953
653.781 .0312726
654.534 .0312499
655.286 .0312268
656.039 .0312036
656.791 .0311805
657.542 .0311564
658.294 .0311323
659.045 .0311072
659.796 .0310814
660.546 .0310545
661.297 .0310259
662.047 .0309961
662.796 .0309649
663.546 .0309333
664.295 .0309013
665.044 .0308693
665.793 .0308386
666.542 .0308084
667.290 .0307796
668.038 .0307521
668.786 .0307253
669.533 .0306992
670.281 .0306734
671.028 .0306475
671.774 .0306216
672.521 .0305956
673.267 .0305699
674.013 .0305441
674.759 .0305181
675.505 .0304922
676.250 .0304654
676.995 .0304383
677.740 .0304105
678.484 .0303823
679.229 .0303546
679.973 .0303272
680.717 .0303006
681.460 .0302751
682.204 .0302507
682.947 .0302277
683.690 .0302057
684.433 .0301844
685.175 .0301635
685.917 .0301438
686.659 .0301247
687.401 .0301068
688.142 .0300903
688.884 .0300753
689.625 .0300613
690.365 .0300482
691.106 .0300352
691.846 .0300223
692.586 .0300096
693.326 .0299963
694.066 .0299827
694.805 .0299693
695.545 .0299554
696.284 .0299413
697.022 .0299269
697.761 .0299120
698.499 .0298958
699.237 .0298791
699.975 .0298613
700.713 .0298430
701.450 .0298249
702.187 .0298077
702.924 .0297920
703.661 .0297781
704.397 .0297656
705.133 .0297540
705.869 .0297426
706.605 .0297310
707.341 .0297183
708.076 .0297050
708.811 .0296914
709.546 .0296775
710.281 .0296641
711.015 .0296518
711.749 .0296405
712.483 .0296299
713.217 .0296195
713.950 .0296088
714.684 .0295968
715.417 .0295838
716.150 .0295693
716.882 .0295533
717.615 .0295363
718.347 .0295189
719.079 .0295012
719.811 .0294836
720.542 .0294664
721.273 .0294496
722.005 .0294332
722.735 .0294173
723.466 .0294014
724.196 .0293856
724.927 .0293697
725.656 .0293536
726.386 .0293366
727.116 .0293191
727.845 .0293008
728.574 .0292820
729.303 .0292632
730.031 .0292446
730.760 .0292265
731.488 .0292090
732.216 .0291929
732.944 .0291776
733.671 .0291629
734.398 .0291488
735.125 .0291351
735.852 .0291213
736.579 .0291072
737.305 .0290932
738.031 .0290797
738.757 .0290668
739.483 .0290543
740.208 .0290418
740.933 .0290294
741.658 .0290167
742.383 .0290031
743.108 .0289887
743.832 .0289740
744.556 .0289584
745.280 .0289422
746.004 .0289258
746.727 .0289091
747.450 .0288921
748.173 .0288747
748.896 .0288569
749.618 .0288380
750.340 .0288182
751.062 .0287974
751.784 .0287760
752.506 .0287549
753.227 .0287336
753.948 .0287129
754.669 .0286935
755.389 .0286750
756.110 .0286572
756.830 .0286400
757.550 .0286229
758.269 .0286052
758.989 .0285865
759.708 .0285662
760.427 .0285446
761.146 .0285219
761.864 .0284983
762.582 .0284744
763.300 .0284508
764.018 .0284280
764.736 .0284056
765.453 .0283842
766.170 .0283633
766.887 .0283421
767.603 .0283210
768.320 .0282989
769.036 .0282763
769.751 .0282527
770.467 .0282287
771.182 .0282052
771.897 .0281825
772.612 .0281618
773.327 .0281429
774.041 .0281263
774.755 .0281117
775.469 .0280985
776.183 .0280863
776.896 .0280750
777.609 .0280637
778.322 .0280524
779.035 .0280413
779.747 .0280304
780.459 .0280204
781.171 .0280118
781.882 .0280048
782.594 .0279997
783.305 .0279962
784.016 .0279946
784.726 .0279935
785.436 .0279934
786.147 .0279931
786.856 .0279926
787.566 .0279920
788.275 .0279908
788.984 .0279893
789.693 .0279879
790.401 .0279862
791.110 .0279845
791.818 .0279825
792.525 .0279803
793.233 .0279775
793.940 .0279742
794.647 .0279703
795.353 .0279658
796.060 .0279606
796.766 .0279554
797.472 .0279498
798.177 .0279446
798.883 .0279397
799.588 .0279353
800.292 .0279316
800.997 .0279286
801.701 .0279259
802.405 .0279235
803.109 .0279211
803.812 .0279194
804.515 .0279171
805.218 .0279146
805.921 .0279116
806.623 .0279080
807.325 .0279036
808.027 .0278987
808.728 .0278927
809.429 .0278858
810.130 .0278782
810.831 .0278698
811.531 .0278604
812.231 .0278509
812.931 .0278405
813.630 .0278296
814.330 .0278183
815.029 .0278063
815.727 .0277937
816.426 .0277815
817.124 .0277696
817.821 .0277590
818.519 .0277497
819.216 .0277420
819.913 .0277358
820.609 .0277312
821.306 .0277276
822.002 .0277245
822.697 .0277220
823.393 .0277201
824.088 .0277181
824.783 .0277168
825.477 .0277162
826.171 .0277170
826.865 .0277195
827.559 .0277231
828.252 .0277280
828.945 .0277332
829.638 .0277383
830.330 .0277428
831.023 .0277463
831.714 .0277487
832.406 .0277498
833.097 .0277499
833.788 .0277489
834.479 .0277470
835.169 .0277447
835.859 .0277422
836.548 .0277393
837.238 .0277361
837.927 .0277320
838.615 .0277273
839.304 .0277223
839.992 .0277160
840.680 .0277094
841.367 .0277019
842.054 .0276935
842.741 .0276846
843.428 .0276754
844.114 .0276662
844.800 .0276568
845.485 .0276474
846.170 .0276373
846.855 .0276258
847.540 .0276130
848.224 .0275981
848.908 .0275814
849.592 .0275629
850.275 .0275427
850.958 .0275212
851.641 .0274994
852.323 .0274771
853.005 .0274546
853.687 .0274321
854.368 .0274091
855.049 .0273856
855.730 .0273615
856.410 .0273368
857.090 .0273121
857.769 .0272876
858.449 .0272636
859.128 .0272400
859.806 .0272171
860.485 .0271944
861.163 .0271719
861.840 .0271491
862.518 .0271255
863.195 .0271012
863.871 .0270761
864.548 .0270504
865.224 .0270246
865.899 .0269990
866.574 .0269737
867.249 .0269488
867.924 .0269244
868.598 .0268998
869.272 .0268751
869.946 .0268505
870.619 .0268258
871.292 .0268012
871.964 .0267772
872.636 .0267536
873.308 .0267307
873.979 .0267085
874.651 .0266865
875.321 .0266648
875.992 .0266433
876.662 .0266217
877.331 .0265996
878.001 .0265779
878.670 .0265565
879.338 .0265352
880.007 .0265146
880.675 .0264950
881.342 .0264760
882.009 .0264577
882.676 .0264401
883.343 .0264229
884.009 .0264063
884.675 .0263903
885.340 .0263749
886.005 .0263598
886.670 .0263458
887.334 .0263325
887.998 .0263198
888.662 .0263086
889.325 .0262984
889.988 .0262890
890.650 .0262810
891.312 .0262738
891.974 .0262671
892.636 .0262609
893.297 .0262559
893.957 .0262512
894.618 .0262464
895.278 .0262420
895.937 .0262373
896.596 .0262324
897.255 .0262274
897.914 .0262216
898.572 .0262153
899.230 .0262085
899.887 .0262004
900.544 .0261910
901.201 .0261811
901.857 .0261707
902.513 .0261593
903.168 .0261474
903.823 .0261347
904.478 .0261207
905.132 .0261059
905.786 .0260902
906.440 .0260739
907.093 .0260575
907.746 .0260411
908.399 .0260252
909.051 .0260108
909.703 .0259978
910.354 .0259864
911.005 .0259768
911.656 .0259682
912.306 .0259597
912.956 .0259507
913.605 .0259411
914.254 .0259309
914.903 .0259196
915.551 .0259082
916.199 .0258970
916.847 .0258869
917.494 .0258776
918.141 .0258697
918.788 .0258634
919.434 .0258582
920.079 .0258533
920.725 .0258484
921.370 .0258431
922.014 .0258377
922.658 .0258323
923.302 .0258270
923.946 .0258222
924.589 .0258181
925.231 .0258142
925.873 .0258110
926.515 .0258082
927.157 .0258049
927.798 .0258007
928.439 .0257956
929.079 .0257893
929.719 .0257814
930.359 .0257723
930.998 .0257621
931.637 .0257512
932.275 .0257405
932.913 .0257293
933.551 .0257184
934.188 .0257084
934.825 .0256996
935.462 .0256916
936.098 .0256848
936.733 .0256795
937.369 .0256761
938.004 .0256747
938.638 .0256752
939.273 .0256774
939.907 .0256816
940.540 .0256873
941.173 .0256942
941.806 .0257024
942.438 .0257113
943.070 .0257208
943.702 .0257305
944.333 .0257398
944.964 .0257488
945.594 .0257573
946.224 .0257657
946.854 .0257748
947.483 .0257845
948.112 .0257951
948.741 .0258067
949.369 .0258193
949.996 .0258320
950.624 .0258443
951.251 .0258559
951.878 .0258663
952.504 .0258752
953.130 .0258828
953.755 .0258892
954.380 .0258951
955.005 .0259007
955.629 .0259059
956.253 .0259108
956.877 .0259150
957.500 .0259182
958.123 .0259199
958.746 .0259195
959.368 .0259174
959.990 .0259133
960.611 .0259074
961.232 .0259005
961.853 .0258930
962.473 .0258856
963.093 .0258789
963.712 .0258732
964.331 .0258678
964.950 .0258631
965.569 .0258586
966.187 .0258542
966.804 .0258502
967.422 .0258469
968.039 .0258440
968.655 .0258424
969.272 .0258414
969.887 .0258410
970.503 .0258412
971.118 .0258417
971.733 .0258419
972.347 .0258418
972.961 .0258413
973.575 .0258403
974.188 .0258383
974.801 .0258364
975.414 .0258338
976.026 .0258313
976.638 .0258281
977.250 .0258243
977.861 .0258194
978.472 .0258136
979.083 .0258061
979.693 .0257968
980.303 .0257858
980.912 .0257735
981.521 .0257599
982.130 .0257457
982.738 .0257311
983.346 .0257161
983.954 .0257004
984.562 .0256842
985.169 .0256662
985.775 .0256467
986.382 .0256254
986.988 .0256025
987.594 .0255781
988.199 .0255532
988.804 .0255287
989.409 .0255052
990.013 .0254837
990.617 .0254643
991.221 .0254471
991.824 .0254324
992.427 .0254197
993.030 .0254088
993.632 .0253993
994.234 .0253916
994.836 .0253847
995.438 .0253793
996.039 .0253755
996.640 .0253729
997.240 .0253717
997.840 .0253715
998.440 .0253713
999.040 .0253701
999.639 .0253677
1000.238 .0253630
1000.836 .0253555
1001.435 .0253457
1002.033 .0253335
1002.630 .0253196
1003.228 .0253050
1003.825 .0252903
1004.422 .0252755
1005.018 .0252619
1005.614 .0252491
1006.210 .0252361
1006.806 .0252229
1007.401 .0252095
1007.996 .0251958
1008.591 .0251817
1009.186 .0251687
1009.780 .0251565
1010.374 .0251454
1010.967 .0251356
1011.561 .0251265
1012.154 .0251176
1012.746 .0251080
1013.339 .0250976
1013.931 .0250854
1014.523 .0250727
1015.115 .0250587
1015.706 .0250440
1016.298 .0250296
1016.888 .0250156
1017.479 .0250025
1018.069 .0249895
1018.660 .0249769
1019.250 .0249642
1019.839 .0249510
1020.429 .0249379
1021.018 .0249246
1021.607 .0249121
1022.195 .0248996
1022.784 .0248885
1023.372 .0248787
1023.960 .0248697
1024.547 .0248619
1025.135 .0248548
1025.722 .0248480
1026.309 .0248412
1026.896 .0248348
1027.483 .0248281
1028.069 .0248223
1028.655 .0248171
1029.241 .0248120
1029.827 .0248076
1030.412 .0248036
1030.997 .0247995
1031.582 .0247952
1032.167 .0247909
1032.752 .0247861
1033.336 .0247803
1033.921 .0247751
1034.505 .0247690
1035.089 .0247630
1035.672 .0247560
1036.256 .0247478
1036.839 .0247383
1037.422 .0247277
1038.005 .0247158
1038.588 .0247032
1039.171 .0246911
1039.753 .0246792
1040.335 .0246685
1040.918 .0246595
1041.500 .0246513
1042.081 .0246444
1042.663 .0246377
1043.244 .0246319
1043.826 .0246255
1044.407 .0246187
1044.988 .0246118
1045.569 .0246054
1046.150 .0246002
1046.730 .0245955
1047.311 .0245919
1047.891 .0245895
1048.471 .0245881
1049.052 .0245869
1049.632 .0245853
1050.211 .0245826
1050.791 .0245781
1051.371 .0245716
1051.950 .0245637
1052.530 .0245546
1053.109 .0245442
1053.688 .0245338
1054.268 .0245243
1054.847 .0245150
1055.426 .0245058
1056.005 .0244970
1056.583 .0244889
1057.162 .0244800
1057.741 .0244700
1058.319 .0244583
1058.898 .0244460
1059.476 .0244325
1060.055 .0244186
1060.633 .0244045
1061.211 .0243919
1061.790 .0243810
1062.368 .0243713
1062.946 .0243635
1063.524 .0243577
1064.102 .0243531
1064.680 .0243501
1065.258 .0243493
1065.836 .0243495
1066.414 .0243512
1066.992 .0243541
1067.570 .0243588
1068.148 .0243636
1068.726 .0243684
1069.304 .0243741
1069.882 .0243803
1070.460 .0243876
1071.038 .0243962
1071.616 .0244057
1072.194 .0244180
1072.772 .0244302
1073.350 .0244422
1073.928 .0244512
1074.506 .0244579
1075.084 .0244611
1075.662 .0244613
1076.240 .0244596
1076.819 .0244586
1077.397 .0244577
1077.976 .0244600
1078.554 .0244647
1079.133 .0244717
1079.711 .0244802
1080.290 .0244894
1080.869 .0244982
1081.448 .0245064
1082.027 .0245129
1082.606 .0245197
1083.185 .0245258
1083.764 .0245356
1084.343 .0245483
1084.923 .0245642
1085.502 .0245842
1086.082 .0246076
1086.662 .0246330
1087.242 .0246590
1087.822 .0246844
1088.402 .0247101
1088.983 .0247348
1089.563 .0247596
1090.144 .0247840
1090.725 .0248087
1091.306 .0248344
1091.887 .0248604
1092.469 .0248877
1093.050 .0249152
1093.632 .0249421
1094.214 .0249691
1094.796 .0249953
1095.379 .0250223
1095.961 .0250498
1096.544 .0250788
1097.127 .0251096
1097.710 .0251431
1098.294 .0251762
1098.877 .0252099
1099.461 .0252433
1100.046 .0252762
1100.630 .0253068
1101.215 .0253354
1101.800 .0253620
1102.385 .0253865
1102.970 .0254113
1103.556 .0254364
1104.142 .0254609
1104.728 .0254887
1105.315 .0255157
1105.902 .0255439
1106.489 .0255689
1107.077 .0255929
1107.664 .0256138
1108.253 .0256348
1108.841 .0256563
1109.430 .0256799
1110.019 .0257070
1110.609 .0257409
1111.198 .0257794
1111.789 .0258254
1112.379 .0258751
1112.970 .0259291
1113.561 .0259848
1114.153 .0260435
1114.745 .0261011
1115.338 .0261602
1115.931 .0262172
1116.524 .0262782
1117.117 .0263408
1117.712 .0264070
1118.306 .0264731
1118.901 .0265432
1119.496 .0266105
1120.092 .0266762
1120.689 .0267389
1121.285 .0267990
1121.882 .0268533
1122.480 .0269070
1123.078 .0269552
1123.677 .0270010
1124.276 .0270436
1124.875 .0270853
1125.476 .0271230
1126.076 .0271616
1126.677 .0271977
1127.279 .0272305
1127.881 .0272613
1128.484 .0272951
1129.087 .0273246
1129.691 .0273585
1130.295 .0273909
1130.900 .0274212
1131.505 .0274529
1132.111 .0274868
1132.718 .0275219
1133.325 .0275671
1133.933 .0276253
1134.541 .0276973
1135.150 .0277813
1135.760 .0278797
1136.370 .0279897
1136.981 .0281121
1137.592 .0282427
1138.204 .0283780
1138.817 .0285189
1139.431 .0286794
1140.045 .0288560
1140.660 .0290486
1141.275 .0292628
1141.891 .0295226
1142.508 .0298435
1143.126 .0301652
1143.744 .0301954
1144.363 .0304921
1144.983 .0315100
