Measurement Sequence started on: 15-12-46-377
Integration time: 28
Scans to Average: 2 
>>>>>Begin Spectral Data<<<<<
432.689 .0000100
433.621 .0000100
434.552 .0000100
435.482 .0000100
436.410 .0000100
437.337 .0000100
438.262 .0275951
439.187 .0584772
440.110 .0969227
441.031 .1403007
441.952 .1824521
442.871 .2156523
443.789 .2338990
444.705 .2351107
445.621 .2217820
446.535 .1994351
447.447 .1740950
448.359 .1352917
449.269 .1160000
450.178 .1037248
451.086 .0950277
451.993 .0883380
452.898 .0830166
453.803 .0786228
454.706 .0749487
455.608 .0718160
456.508 .0691156
457.408 .0667828
458.306 .0647567
459.204 .0629783
460.100 .0614025
460.995 .0599862
461.888 .0587094
462.781 .0575435
463.673 .0564674
464.563 .0554837
465.452 .0545796
466.340 .0537297
467.228 .0529496
468.114 .0522236
468.999 .0515470
469.882 .0509141
470.765 .0503221
471.647 .0497738
472.528 .0492748
473.407 .0488293
474.286 .0484364
475.163 .0480982
476.040 .0478159
476.915 .0475699
477.790 .0473553
478.663 .0471584
479.535 .0469758
480.407 .0468035
481.277 .0466443
482.147 .0465008
483.015 .0463797
483.883 .0462873
484.749 .0462200
485.615 .0461796
486.479 .0461622
487.343 .0461634
488.206 .0461753
489.067 .0461955
489.928 .0462242
490.788 .0462597
491.647 .0463116
492.505 .0463832
493.362 .0464797
494.218 .0466020
495.073 .0467534
495.928 .0469322
496.781 .0471305
497.634 .0473546
498.486 .0475964
499.337 .0478616
500.187 .0481432
501.036 .0484376
501.884 .0487517
502.731 .0490886
503.578 .0494498
504.424 .0498317
505.268 .0502431
506.113 .0506840
506.956 .0511637
507.798 .0516944
508.640 .0522737
509.480 .0529123
510.320 .0536221
511.160 .0544090
511.998 .0552711
512.836 .0562218
513.672 .0572780
514.508 .0584535
515.344 .0597730
516.178 .0612576
517.012 .0629429
517.845 .0648731
518.677 .0670767
519.508 .0695701
520.339 .0724011
521.169 .0756205
521.998 .0792325
522.826 .0832930
523.654 .0878325
524.481 .0928781
525.307 .0985001
526.133 .1046891
526.958 .1113969
527.782 .1185289
528.605 .1259426
529.428 .1334590
530.250 .1405379
531.072 .1468800
531.892 .1520719
532.712 .1558665
533.532 .1580269
534.350 .1583581
535.168 .1568407
535.986 .1536280
536.802 .1489121
537.618 .1429658
538.434 .1360482
539.249 .1286619
540.063 .1210304
540.876 .1134647
541.689 .1061699
542.501 .0993758
543.313 .0932072
544.124 .0877163
544.934 .0828349
545.744 .0785115
546.553 .0746913
547.361 .0713681
548.169 .0684835
548.976 .0659623
549.783 .0637482
550.589 .0617978
551.395 .0600385
552.200 .0584461
553.004 .0569799
553.808 .0556196
554.611 .0543807
555.414 .0532569
556.216 .0522494
557.018 .0513639
557.819 .0505734
558.619 .0498460
559.419 .0491562
560.218 .0484917
561.017 .0478216
561.815 .0471414
562.613 .0464580
563.410 .0457714
564.207 .0450954
565.003 .0444467
565.799 .0438389
566.594 .0432734
567.388 .0427496
568.182 .0422584
568.976 .0417912
569.769 .0413371
570.562 .0408883
571.354 .0404433
572.145 .0400127
572.936 .0395957
573.727 .0391875
574.517 .0387944
575.307 .0384179
576.096 .0380561
576.885 .0377045
577.673 .0373604
578.461 .0370243
579.248 .0366901
580.035 .0363594
580.821 .0360342
581.607 .0357167
582.392 .0354139
583.177 .0351305
583.962 .0348674
584.746 .0346285
585.529 .0344136
586.313 .0342235
587.095 .0340572
587.878 .0339112
588.660 .0337833
589.441 .0336687
590.222 .0335674
591.003 .0334777
591.783 .0333974
592.563 .0333262
593.342 .0332632
594.121 .0332050
594.899 .0331513
595.678 .0330997
596.455 .0330482
597.233 .0329965
598.009 .0329433
598.786 .0328887
599.562 .0328335
600.338 .0327784
601.113 .0327248
601.888 .0326722
602.663 .0326220
603.437 .0325728
604.211 .0325240
604.984 .0324764
605.757 .0324298
606.530 .0323835
607.302 .0323382
608.074 .0322946
608.845 .0322539
609.616 .0322162
610.387 .0321813
611.158 .0321495
611.928 .0321202
612.697 .0320924
613.467 .0320655
614.236 .0320386
615.004 .0320126
615.773 .0319873
616.541 .0319630
617.308 .0319403
618.076 .0319194
618.843 .0319002
619.609 .0318838
620.375 .0318694
621.141 .0318557
621.907 .0318425
622.672 .0318301
623.437 .0318174
624.202 .0318038
624.966 .0317892
625.730 .0317734
626.493 .0317560
627.257 .0317370
628.020 .0317158
628.782 .0316922
629.545 .0316665
630.307 .0316381
631.068 .0316069
631.830 .0315740
632.591 .0315382
633.352 .0315009
634.112 .0314624
634.872 .0314227
635.632 .0313814
636.392 .0313396
637.151 .0312987
637.910 .0312589
638.668 .0312207
639.427 .0311851
640.185 .0311519
640.943 .0311221
641.700 .0310945
642.457 .0310693
643.214 .0310452
643.971 .0310219
644.727 .0309980
645.483 .0309741
646.239 .0309505
646.994 .0309276
647.750 .0309057
648.505 .0308856
649.259 .0308674
650.014 .0308503
650.768 .0308334
651.521 .0308169
652.275 .0307997
653.028 .0307816
653.781 .0307607
654.534 .0307378
655.286 .0307137
656.039 .0306892
656.791 .0306640
657.542 .0306387
658.294 .0306130
659.045 .0305868
659.796 .0305595
660.546 .0305301
661.297 .0304991
662.047 .0304667
662.796 .0304331
663.546 .0303990
664.295 .0303648
665.044 .0303311
665.793 .0302980
666.542 .0302669
667.290 .0302367
668.038 .0302069
668.786 .0301774
669.533 .0301483
670.281 .0301202
671.028 .0300931
671.774 .0300673
672.521 .0300435
673.267 .0300226
674.013 .0300038
674.759 .0299862
675.505 .0299704
676.250 .0299560
676.995 .0299426
677.740 .0299290
678.484 .0299154
679.229 .0299018
679.973 .0298885
680.717 .0298752
681.460 .0298619
682.204 .0298489
682.947 .0298360
683.690 .0298233
684.433 .0298101
685.175 .0297965
685.917 .0297826
686.659 .0297682
687.401 .0297534
688.142 .0297376
688.884 .0297207
689.625 .0297024
690.365 .0296837
691.106 .0296646
691.846 .0296452
692.586 .0296264
693.326 .0296080
694.066 .0295907
694.805 .0295740
695.545 .0295570
696.284 .0295399
697.022 .0295224
697.761 .0295042
698.499 .0294847
699.237 .0294647
699.975 .0294444
700.713 .0294246
701.450 .0294057
702.187 .0293877
702.924 .0293712
703.661 .0293559
704.397 .0293413
705.133 .0293275
705.869 .0293144
706.605 .0293020
707.341 .0292898
708.076 .0292782
708.811 .0292665
709.546 .0292547
710.281 .0292426
711.015 .0292303
711.749 .0292173
712.483 .0292043
713.217 .0291905
713.950 .0291765
714.684 .0291626
715.417 .0291483
716.150 .0291340
716.882 .0291202
717.615 .0291062
718.347 .0290924
719.079 .0290783
719.811 .0290645
720.542 .0290504
721.273 .0290371
722.005 .0290238
722.735 .0290108
723.466 .0289989
724.196 .0289874
724.927 .0289758
725.656 .0289639
726.386 .0289513
727.116 .0289376
727.845 .0289224
728.574 .0289052
729.303 .0288861
730.031 .0288658
730.760 .0288443
731.488 .0288225
732.216 .0288008
732.944 .0287805
733.671 .0287614
734.398 .0287439
735.125 .0287281
735.852 .0287135
736.579 .0287000
737.305 .0286874
738.031 .0286759
738.757 .0286648
739.483 .0286540
740.208 .0286438
740.933 .0286341
741.658 .0286247
742.383 .0286156
743.108 .0286067
743.832 .0285979
744.556 .0285889
745.280 .0285792
746.004 .0285683
746.727 .0285565
747.450 .0285434
748.173 .0285283
748.896 .0285118
749.618 .0284942
750.340 .0284753
751.062 .0284557
751.784 .0284357
752.506 .0284156
753.227 .0283956
753.948 .0283754
754.669 .0283545
755.389 .0283334
756.110 .0283118
756.830 .0282894
757.550 .0282663
758.269 .0282432
758.989 .0282199
759.708 .0281964
760.427 .0281728
761.146 .0281490
761.864 .0281250
762.582 .0281009
763.300 .0280765
764.018 .0280522
764.736 .0280284
765.453 .0280053
766.170 .0279834
766.887 .0279629
767.603 .0279435
768.320 .0279251
769.036 .0279074
769.751 .0278901
770.467 .0278729
771.182 .0278555
771.897 .0278384
772.612 .0278217
773.327 .0278056
774.041 .0277902
774.755 .0277757
775.469 .0277621
776.183 .0277493
776.896 .0277366
777.609 .0277239
778.322 .0277109
779.035 .0276980
779.747 .0276850
780.459 .0276723
781.171 .0276603
781.882 .0276494
782.594 .0276395
783.305 .0276310
784.016 .0276233
784.726 .0276165
785.436 .0276103
786.147 .0276041
786.856 .0275979
787.566 .0275920
788.275 .0275864
788.984 .0275808
789.693 .0275753
790.401 .0275696
791.110 .0275633
791.818 .0275561
792.525 .0275480
793.233 .0275385
793.940 .0275280
794.647 .0275163
795.353 .0275035
796.060 .0274899
796.766 .0274756
797.472 .0274609
798.177 .0274462
798.883 .0274312
799.588 .0274159
800.292 .0274007
800.997 .0273859
801.701 .0273719
802.405 .0273585
803.109 .0273461
803.812 .0273348
804.515 .0273248
805.218 .0273153
805.921 .0273064
806.623 .0272978
807.325 .0272898
808.027 .0272815
808.728 .0272730
809.429 .0272640
810.130 .0272548
810.831 .0272457
811.531 .0272364
812.231 .0272266
812.931 .0272161
813.630 .0272048
814.330 .0271931
815.029 .0271807
815.727 .0271681
816.426 .0271556
817.124 .0271437
817.821 .0271323
818.519 .0271219
819.216 .0271124
819.913 .0271045
820.609 .0270983
821.306 .0270933
822.002 .0270891
822.697 .0270858
823.393 .0270834
824.088 .0270817
824.783 .0270807
825.477 .0270803
826.171 .0270801
826.865 .0270807
827.559 .0270813
828.252 .0270820
828.945 .0270830
829.638 .0270842
830.330 .0270853
831.023 .0270859
831.714 .0270864
832.406 .0270866
833.097 .0270865
833.788 .0270862
834.479 .0270852
835.169 .0270844
835.859 .0270837
836.548 .0270837
837.238 .0270844
837.927 .0270861
838.615 .0270883
839.304 .0270912
839.992 .0270944
840.680 .0270974
841.367 .0271001
842.054 .0271026
842.741 .0271047
843.428 .0271065
844.114 .0271083
844.800 .0271107
845.485 .0271131
846.170 .0271160
846.855 .0271181
847.540 .0271191
848.224 .0271187
848.908 .0271164
849.592 .0271121
850.275 .0271058
850.958 .0270975
851.641 .0270878
852.323 .0270769
853.005 .0270650
853.687 .0270524
854.368 .0270389
855.049 .0270246
855.730 .0270094
856.410 .0269932
857.090 .0269763
857.769 .0269586
858.449 .0269406
859.128 .0269226
859.806 .0269042
860.485 .0268863
861.163 .0268686
861.840 .0268517
862.518 .0268353
863.195 .0268197
863.871 .0268049
864.548 .0267908
865.224 .0267772
865.899 .0267642
866.574 .0267516
867.249 .0267397
867.924 .0267278
868.598 .0267162
869.272 .0267051
869.946 .0266943
870.619 .0266836
871.292 .0266735
871.964 .0266640
872.636 .0266548
873.308 .0266456
873.979 .0266367
874.651 .0266274
875.321 .0266177
875.992 .0266072
876.662 .0265959
877.331 .0265841
878.001 .0265720
878.670 .0265595
879.338 .0265471
880.007 .0265353
880.675 .0265237
881.342 .0265125
882.009 .0265022
882.676 .0264922
883.343 .0264823
884.009 .0264726
884.675 .0264631
885.340 .0264538
886.005 .0264448
886.670 .0264365
887.334 .0264287
887.998 .0264214
888.662 .0264150
889.325 .0264090
889.988 .0264032
890.650 .0263978
891.312 .0263919
891.974 .0263860
892.636 .0263799
893.297 .0263735
893.957 .0263671
894.618 .0263610
895.278 .0263548
895.937 .0263482
896.596 .0263413
897.255 .0263338
897.914 .0263246
898.572 .0263143
899.230 .0263025
899.887 .0262888
900.544 .0262736
901.201 .0262574
901.857 .0262399
902.513 .0262219
903.168 .0262029
903.823 .0261827
904.478 .0261615
905.132 .0261389
905.786 .0261144
906.440 .0260881
907.093 .0260605
907.746 .0260316
908.399 .0260015
909.051 .0259714
909.703 .0259412
910.354 .0259115
911.005 .0258824
911.656 .0258537
912.306 .0258254
912.956 .0257978
913.605 .0257705
914.254 .0257437
914.903 .0257170
915.551 .0256905
916.199 .0256651
916.847 .0256406
917.494 .0256171
918.141 .0255949
918.788 .0255739
919.434 .0255543
920.079 .0255353
920.725 .0255173
921.370 .0254996
922.014 .0254824
922.658 .0254649
923.302 .0254469
923.946 .0254285
924.589 .0254092
925.231 .0253889
925.873 .0253680
926.515 .0253464
927.157 .0253236
927.798 .0252999
928.439 .0252753
929.079 .0252497
929.719 .0252228
930.359 .0251949
930.998 .0251668
931.637 .0251382
932.275 .0251100
932.913 .0250823
933.551 .0250556
934.188 .0250303
934.825 .0250063
935.462 .0249836
936.098 .0249620
936.733 .0249420
937.369 .0249237
938.004 .0249071
938.638 .0248925
939.273 .0248799
939.907 .0248695
940.540 .0248612
941.173 .0248547
941.806 .0248492
942.438 .0248449
943.070 .0248412
943.702 .0248378
944.333 .0248341
944.964 .0248303
945.594 .0248263
946.224 .0248219
946.854 .0248177
947.483 .0248136
948.112 .0248097
948.741 .0248057
949.369 .0248016
949.996 .0247973
950.624 .0247921
951.251 .0247864
951.878 .0247798
952.504 .0247727
953.130 .0247651
953.755 .0247569
954.380 .0247486
955.005 .0247409
955.629 .0247334
956.253 .0247262
956.877 .0247194
957.500 .0247135
958.123 .0247079
958.746 .0247027
959.368 .0246977
959.990 .0246927
960.611 .0246878
961.232 .0246834
961.853 .0246791
962.473 .0246754
963.093 .0246722
963.712 .0246694
964.331 .0246668
964.950 .0246645
965.569 .0246624
966.187 .0246605
966.804 .0246589
967.422 .0246579
968.039 .0246570
968.655 .0246565
969.272 .0246561
969.887 .0246559
970.503 .0246558
971.118 .0246557
971.733 .0246552
972.347 .0246548
972.961 .0246551
973.575 .0246560
974.188 .0246571
974.801 .0246587
975.414 .0246604
976.026 .0246617
976.638 .0246624
977.250 .0246623
977.861 .0246615
978.472 .0246605
979.083 .0246590
979.693 .0246574
980.303 .0246557
980.912 .0246542
981.521 .0246522
982.130 .0246502
982.738 .0246477
983.346 .0246448
983.954 .0246420
984.562 .0246392
985.169 .0246369
985.775 .0246354
986.382 .0246347
986.988 .0246348
987.594 .0246355
988.199 .0246370
988.804 .0246383
989.409 .0246398
990.013 .0246413
990.617 .0246435
991.221 .0246461
991.824 .0246495
992.427 .0246543
993.030 .0246601
993.632 .0246664
994.234 .0246735
994.836 .0246811
995.438 .0246894
996.039 .0246975
996.640 .0247055
997.240 .0247134
997.840 .0247219
998.440 .0247302
999.040 .0247384
999.639 .0247468
1000.238 .0247552
1000.836 .0247631
1001.435 .0247709
1002.033 .0247791
1002.630 .0247874
1003.228 .0247959
1003.825 .0248049
1004.422 .0248140
1005.018 .0248231
1005.614 .0248319
1006.210 .0248411
1006.806 .0248505
1007.401 .0248596
1007.996 .0248679
1008.591 .0248762
1009.186 .0248846
1009.780 .0248922
1010.374 .0248995
1010.967 .0249064
1011.561 .0249133
1012.154 .0249197
1012.746 .0249254
1013.339 .0249316
1013.931 .0249381
1014.523 .0249445
1015.115 .0249509
1015.706 .0249577
1016.298 .0249642
1016.888 .0249706
1017.479 .0249771
1018.069 .0249842
1018.660 .0249917
1019.250 .0250009
1019.839 .0250114
1020.429 .0250238
1021.018 .0250386
1021.607 .0250542
1022.195 .0250704
1022.784 .0250876
1023.372 .0251041
1023.960 .0251207
1024.547 .0251368
1025.135 .0251528
1025.722 .0251687
1026.309 .0251845
1026.896 .0252009
1027.483 .0252180
1028.069 .0252357
1028.655 .0252539
1029.241 .0252722
1029.827 .0252911
1030.412 .0253089
1030.997 .0253250
1031.582 .0253405
1032.167 .0253544
1032.752 .0253667
1033.336 .0253779
1033.921 .0253886
1034.505 .0253998
1035.089 .0254107
1035.672 .0254218
1036.256 .0254335
1036.839 .0254449
1037.422 .0254547
1038.005 .0254625
1038.588 .0254685
1039.171 .0254721
1039.753 .0254732
1040.335 .0254726
1040.918 .0254714
1041.500 .0254689
1042.081 .0254658
1042.663 .0254627
1043.244 .0254594
1043.826 .0254563
1044.407 .0254527
1044.988 .0254502
1045.569 .0254478
1046.150 .0254453
1046.730 .0254438
1047.311 .0254437
1047.891 .0254456
1048.471 .0254487
1049.052 .0254531
1049.632 .0254590
1050.211 .0254654
1050.791 .0254720
1051.371 .0254785
1051.950 .0254856
1052.530 .0254924
1053.109 .0254985
1053.688 .0255031
1054.268 .0255065
1054.847 .0255082
1055.426 .0255074
1056.005 .0255048
1056.583 .0254993
1057.162 .0254913
1057.741 .0254810
1058.319 .0254684
1058.898 .0254545
1059.476 .0254402
1060.055 .0254266
1060.633 .0254144
1061.211 .0254036
1061.790 .0253942
1062.368 .0253857
1062.946 .0253782
1063.524 .0253710
1064.102 .0253634
1064.680 .0253552
1065.258 .0253469
1065.836 .0253372
1066.414 .0253284
1066.992 .0253202
1067.570 .0253136
1068.148 .0253082
1068.726 .0253039
1069.304 .0253006
1069.882 .0252979
1070.460 .0252956
1071.038 .0252936
1071.616 .0252919
1072.194 .0252898
1072.772 .0252863
1073.350 .0252816
1073.928 .0252759
1074.506 .0252692
1075.084 .0252612
1075.662 .0252519
1076.240 .0252421
1076.819 .0252321
1077.397 .0252219
1077.976 .0252119
1078.554 .0252035
1079.133 .0251961
1079.711 .0251881
1080.290 .0251786
1080.869 .0251682
1081.448 .0251566
1082.027 .0251454
1082.606 .0251342
1083.185 .0251244
1083.764 .0251174
1084.343 .0251144
1084.923 .0251155
1085.502 .0251209
1086.082 .0251297
1086.662 .0251394
1087.242 .0251484
1087.822 .0251563
1088.402 .0251603
1088.983 .0251616
1089.563 .0251620
1090.144 .0251624
1090.725 .0251635
1091.306 .0251666
1091.887 .0251705
1092.469 .0251773
1093.050 .0251847
1093.632 .0251892
1094.214 .0251894
1094.796 .0251858
1095.379 .0251787
1095.961 .0251680
1096.544 .0251559
1097.127 .0251444
1097.710 .0251346
1098.294 .0251281
1098.877 .0251231
1099.461 .0251195
1100.046 .0251160
1100.630 .0251122
1101.215 .0251076
1101.800 .0251026
1102.385 .0250966
1102.970 .0250911
1103.556 .0250890
1104.142 .0250895
1104.728 .0250927
1105.315 .0250980
1105.902 .0251043
1106.489 .0251128
1107.077 .0251228
1107.664 .0251339
1108.253 .0251460
1108.841 .0251608
1109.430 .0251776
1110.019 .0251972
1110.609 .0252202
1111.198 .0252459
1111.789 .0252749
1112.379 .0253083
1112.970 .0253446
1113.561 .0253833
1114.153 .0254266
1114.745 .0254750
1115.338 .0255274
1115.931 .0255821
1116.524 .0256373
1117.117 .0256903
1117.712 .0257403
1118.306 .0257874
1118.901 .0258309
1119.496 .0258716
1120.092 .0259097
1120.689 .0259442
1121.285 .0259766
1121.882 .0260072
1122.480 .0260339
1123.078 .0260572
1123.677 .0260775
1124.276 .0260940
1124.875 .0261059
1125.476 .0261164
1126.076 .0261306
1126.677 .0261485
1127.279 .0261734
1127.881 .0262060
1128.484 .0262443
1129.087 .0262888
1129.691 .0263386
1130.295 .0263956
1130.900 .0264590
1131.505 .0265281
1132.111 .0266039
1132.718 .0266882
1133.325 .0267812
1133.933 .0268814
1134.541 .0269860
1135.150 .0270961
1135.760 .0272091
1136.370 .0273198
1136.981 .0274288
1137.592 .0275357
1138.204 .0276461
1138.817 .0277565
1139.431 .0278659
1140.045 .0279713
1140.660 .0280730
1141.275 .0281742
1141.891 .0282457
1142.508 .0284362
1143.126 .0283522
1143.744 .0284533
1144.363 .0286813
1144.983 .0280572
