Measurement Sequence started on: 15-12-46-377
Integration time: 28
Scans to Average: 2 
>>>>>Begin Spectral Data<<<<<
432.689 .0000100
433.621 .0000100
434.552 .0000100
435.482 .0000100
436.410 .0000100
437.337 .0000100
438.262 .0256805
439.187 .0544147
440.110 .0900989
441.031 .1303133
441.952 .1693216
442.871 .1999947
443.789 .2167831
444.705 .2177933
445.621 .2054300
446.535 .1848263
447.447 .1615739
448.359 .1259032
449.269 .1084243
450.178 .0975268
451.086 .0898966
451.993 .0840780
452.898 .0794625
453.803 .0756614
454.706 .0725138
455.608 .0698319
456.508 .0675314
457.408 .0655514
458.306 .0637928
459.204 .0622107
460.100 .0607563
460.995 .0594106
461.888 .0581642
462.781 .0570061
463.673 .0559315
464.563 .0549293
465.452 .0539961
466.340 .0531206
467.228 .0523079
468.114 .0515687
468.999 .0508973
469.882 .0502662
470.765 .0496910
471.647 .0491623
472.528 .0486765
473.407 .0482505
474.286 .0478829
475.163 .0475610
476.040 .0472954
476.915 .0470697
477.790 .0468720
478.663 .0466977
479.535 .0465433
480.407 .0463987
481.277 .0462713
482.147 .0461604
483.015 .0460575
483.883 .0459716
484.749 .0459168
485.615 .0458766
486.479 .0458539
487.343 .0458529
488.206 .0458613
489.067 .0458728
489.928 .0458861
490.788 .0458976
491.647 .0459102
492.505 .0459402
493.362 .0459800
494.218 .0460426
495.073 .0461302
495.928 .0462457
496.781 .0463772
497.634 .0465393
498.486 .0467284
499.337 .0469356
500.187 .0471636
501.036 .0474210
501.884 .0476957
502.731 .0479971
503.578 .0483221
504.424 .0486905
505.268 .0490897
506.113 .0495343
506.956 .0500041
507.798 .0505261
508.640 .0511031
509.480 .0517434
510.320 .0524491
511.160 .0532423
511.998 .0541123
512.836 .0550523
513.672 .0560849
514.508 .0572232
515.344 .0584635
516.178 .0598451
517.012 .0614043
517.845 .0631769
518.677 .0651844
519.508 .0674819
520.339 .0701051
521.169 .0731263
521.998 .0765581
522.826 .0804232
523.654 .0847697
524.481 .0896230
525.307 .0950342
526.133 .1009537
526.958 .1074061
527.782 .1142684
528.605 .1213453
529.428 .1284980
530.250 .1352388
531.072 .1413196
531.892 .1463755
532.712 .1501383
533.532 .1523941
534.350 .1530204
535.168 .1519693
535.986 .1493007
536.802 .1452340
537.618 .1400256
538.434 .1338465
539.249 .1271260
540.063 .1200744
540.876 .1129726
541.689 .1060553
542.501 .0995516
543.313 .0935465
544.124 .0881724
544.934 .0833846
545.744 .0791291
546.553 .0753484
547.361 .0720415
548.169 .0691264
548.976 .0664982
549.783 .0641277
550.589 .0619491
551.395 .0599102
552.200 .0580309
553.004 .0562980
553.808 .0547143
554.611 .0532953
555.414 .0520399
556.216 .0509263
557.018 .0499722
557.819 .0491456
558.619 .0483973
559.419 .0477214
560.218 .0471017
561.017 .0465136
561.815 .0459493
562.613 .0454189
563.410 .0449133
564.207 .0444361
565.003 .0439898
565.799 .0435609
566.594 .0431450
567.388 .0427441
568.182 .0423379
568.976 .0419198
569.769 .0414932
570.562 .0410547
571.354 .0405946
572.145 .0401300
572.936 .0396554
573.727 .0391760
574.517 .0386995
575.307 .0382338
576.096 .0377821
576.885 .0373501
577.673 .0369450
578.461 .0365655
579.248 .0362099
580.035 .0358808
580.821 .0355713
581.607 .0352843
582.392 .0350188
583.177 .0347703
583.962 .0345397
584.746 .0343318
585.529 .0341431
586.313 .0339733
587.095 .0338196
587.878 .0336803
588.660 .0335528
589.441 .0334360
590.222 .0333283
591.003 .0332278
591.783 .0331343
592.563 .0330476
593.342 .0329670
594.121 .0328913
594.899 .0328215
595.678 .0327583
596.455 .0327021
597.233 .0326511
598.009 .0326040
598.786 .0325618
599.562 .0325228
600.338 .0324862
601.113 .0324511
601.888 .0324158
602.663 .0323806
603.437 .0323450
604.211 .0323087
604.984 .0322728
605.757 .0322377
606.530 .0322033
607.302 .0321700
608.074 .0321382
608.845 .0321071
609.616 .0320779
610.387 .0320498
611.158 .0320223
611.928 .0319942
612.697 .0319663
613.467 .0319385
614.236 .0319115
615.004 .0318871
615.773 .0318652
616.541 .0318469
617.308 .0318327
618.076 .0318218
618.843 .0318136
619.609 .0318073
620.375 .0318020
621.141 .0317969
621.907 .0317909
622.672 .0317827
623.437 .0317729
624.202 .0317622
624.966 .0317508
625.730 .0317384
626.493 .0317257
627.257 .0317131
628.020 .0317000
628.782 .0316861
629.545 .0316697
630.307 .0316508
631.068 .0316285
631.830 .0316021
632.591 .0315704
633.352 .0315344
634.112 .0314946
634.872 .0314520
635.632 .0314085
636.392 .0313647
637.151 .0313216
637.910 .0312805
638.668 .0312417
639.427 .0312044
640.185 .0311682
640.943 .0311329
641.700 .0310977
642.457 .0310635
643.214 .0310295
643.971 .0309955
644.727 .0309630
645.483 .0309330
646.239 .0309051
646.994 .0308786
647.750 .0308545
648.505 .0308321
649.259 .0308109
650.014 .0307910
650.768 .0307715
651.521 .0307527
652.275 .0307343
653.028 .0307154
653.781 .0306959
654.534 .0306759
655.286 .0306551
656.039 .0306341
656.791 .0306135
657.542 .0305932
658.294 .0305739
659.045 .0305559
659.796 .0305393
660.546 .0305236
661.297 .0305077
662.047 .0304916
662.796 .0304746
663.546 .0304567
664.295 .0304375
665.044 .0304183
665.793 .0304001
666.542 .0303829
667.290 .0303678
668.038 .0303548
668.786 .0303438
669.533 .0303345
670.281 .0303260
671.028 .0303181
671.774 .0303104
672.521 .0303024
673.267 .0302943
674.013 .0302866
674.759 .0302796
675.505 .0302729
676.250 .0302672
676.995 .0302622
677.740 .0302574
678.484 .0302522
679.229 .0302467
679.973 .0302407
680.717 .0302343
681.460 .0302268
682.204 .0302186
682.947 .0302094
683.690 .0301996
684.433 .0301889
685.175 .0301771
685.917 .0301643
686.659 .0301504
687.401 .0301350
688.142 .0301185
688.884 .0301007
689.625 .0300819
690.365 .0300619
691.106 .0300408
691.846 .0300181
692.586 .0299935
693.326 .0299673
694.066 .0299398
694.805 .0299107
695.545 .0298808
696.284 .0298503
697.022 .0298198
697.761 .0297898
698.499 .0297600
699.237 .0297308
699.975 .0297020
700.713 .0296732
701.450 .0296443
702.187 .0296152
702.924 .0295863
703.661 .0295574
704.397 .0295290
705.133 .0295017
705.869 .0294754
706.605 .0294504
707.341 .0294271
708.076 .0294054
708.811 .0293851
709.546 .0293655
710.281 .0293468
711.015 .0293291
711.749 .0293117
712.483 .0292940
713.217 .0292760
713.950 .0292578
714.684 .0292387
715.417 .0292184
716.150 .0291973
716.882 .0291757
717.615 .0291535
718.347 .0291309
719.079 .0291083
719.811 .0290864
720.542 .0290652
721.273 .0290448
722.005 .0290247
722.735 .0290055
723.466 .0289861
724.196 .0289671
724.927 .0289484
725.656 .0289304
726.386 .0289132
727.116 .0288975
727.845 .0288833
728.574 .0288706
729.303 .0288594
730.031 .0288494
730.760 .0288402
731.488 .0288312
732.216 .0288215
732.944 .0288116
733.671 .0288014
734.398 .0287914
735.125 .0287815
735.852 .0287724
736.579 .0287644
737.305 .0287576
738.031 .0287516
738.757 .0287461
739.483 .0287412
740.208 .0287366
740.933 .0287324
741.658 .0287287
742.383 .0287254
743.108 .0287232
743.832 .0287221
744.556 .0287220
745.280 .0287218
746.004 .0287213
746.727 .0287197
747.450 .0287169
748.173 .0287121
748.896 .0287052
749.618 .0286967
750.340 .0286876
751.062 .0286781
751.784 .0286679
752.506 .0286573
753.227 .0286463
753.948 .0286342
754.669 .0286207
755.389 .0286052
756.110 .0285879
756.830 .0285694
757.550 .0285499
758.269 .0285294
758.989 .0285091
759.708 .0284891
760.427 .0284695
761.146 .0284505
761.864 .0284312
762.582 .0284109
763.300 .0283894
764.018 .0283669
764.736 .0283429
765.453 .0283177
766.170 .0282916
766.887 .0282651
767.603 .0282387
768.320 .0282122
769.036 .0281853
769.751 .0281588
770.467 .0281324
771.182 .0281058
771.897 .0280786
772.612 .0280514
773.327 .0280246
774.041 .0279989
774.755 .0279743
775.469 .0279512
776.183 .0279293
776.896 .0279084
777.609 .0278879
778.322 .0278676
779.035 .0278467
779.747 .0278253
780.459 .0278033
781.171 .0277810
781.882 .0277584
782.594 .0277361
783.305 .0277144
784.016 .0276936
784.726 .0276735
785.436 .0276538
786.147 .0276335
786.856 .0276130
787.566 .0275920
788.275 .0275707
788.984 .0275498
789.693 .0275295
790.401 .0275103
791.110 .0274923
791.818 .0274757
792.525 .0274600
793.233 .0274449
793.940 .0274304
794.647 .0274155
795.353 .0274003
796.060 .0273846
796.766 .0273686
797.472 .0273521
798.177 .0273362
798.883 .0273206
799.588 .0273053
800.292 .0272906
800.997 .0272763
801.701 .0272623
802.405 .0272487
803.109 .0272356
803.812 .0272228
804.515 .0272106
805.218 .0271989
805.921 .0271870
806.623 .0271756
807.325 .0271645
808.027 .0271538
808.728 .0271436
809.429 .0271340
810.130 .0271252
810.831 .0271172
811.531 .0271102
812.231 .0271038
812.931 .0270978
813.630 .0270918
814.330 .0270854
815.029 .0270787
815.727 .0270713
816.426 .0270638
817.124 .0270567
817.821 .0270501
818.519 .0270442
819.216 .0270394
819.913 .0270356
820.609 .0270325
821.306 .0270302
822.002 .0270285
822.697 .0270275
823.393 .0270275
824.088 .0270285
824.783 .0270306
825.477 .0270340
826.171 .0270387
826.865 .0270448
827.559 .0270523
828.252 .0270610
828.945 .0270702
829.638 .0270798
830.330 .0270900
831.023 .0270998
831.714 .0271091
832.406 .0271179
833.097 .0271256
833.788 .0271315
834.479 .0271354
835.169 .0271374
835.859 .0271374
836.548 .0271355
837.238 .0271319
837.927 .0271263
838.615 .0271192
839.304 .0271105
839.992 .0271002
840.680 .0270889
841.367 .0270770
842.054 .0270640
842.741 .0270507
843.428 .0270375
844.114 .0270241
844.800 .0270106
845.485 .0269970
846.170 .0269830
846.855 .0269681
847.540 .0269527
848.224 .0269367
848.908 .0269205
849.592 .0269043
850.275 .0268881
850.958 .0268713
851.641 .0268539
852.323 .0268354
853.005 .0268157
853.687 .0267943
854.368 .0267711
855.049 .0267461
855.730 .0267194
856.410 .0266911
857.090 .0266622
857.769 .0266323
858.449 .0266018
859.128 .0265704
859.806 .0265381
860.485 .0265047
861.163 .0264707
861.840 .0264358
862.518 .0264004
863.195 .0263649
863.871 .0263294
864.548 .0262941
865.224 .0262593
865.899 .0262257
866.574 .0261928
867.249 .0261608
867.924 .0261299
868.598 .0260996
869.272 .0260703
869.946 .0260422
870.619 .0260149
871.292 .0259886
871.964 .0259633
872.636 .0259388
873.308 .0259151
873.979 .0258925
874.651 .0258704
875.321 .0258491
875.992 .0258285
876.662 .0258083
877.331 .0257880
878.001 .0257678
878.670 .0257479
879.338 .0257277
880.007 .0257080
880.675 .0256883
881.342 .0256689
882.009 .0256504
882.676 .0256324
883.343 .0256150
884.009 .0255988
884.675 .0255834
885.340 .0255689
886.005 .0255554
886.670 .0255433
887.334 .0255322
887.998 .0255222
888.662 .0255138
889.325 .0255063
889.988 .0255001
890.650 .0254950
891.312 .0254908
891.974 .0254876
892.636 .0254854
893.297 .0254839
893.957 .0254834
894.618 .0254836
895.278 .0254845
895.937 .0254860
896.596 .0254881
897.255 .0254904
897.914 .0254927
898.572 .0254947
899.230 .0254968
899.887 .0254986
900.544 .0255007
901.201 .0255028
901.857 .0255053
902.513 .0255079
903.168 .0255105
903.823 .0255130
904.478 .0255146
905.132 .0255153
905.786 .0255151
906.440 .0255132
907.093 .0255101
907.746 .0255059
908.399 .0255012
909.051 .0254965
909.703 .0254915
910.354 .0254864
911.005 .0254812
911.656 .0254759
912.306 .0254701
912.956 .0254634
913.605 .0254556
914.254 .0254472
914.903 .0254380
915.551 .0254288
916.199 .0254198
916.847 .0254114
917.494 .0254042
918.141 .0253982
918.788 .0253929
919.434 .0253884
920.079 .0253842
920.725 .0253807
921.370 .0253770
922.014 .0253733
922.658 .0253691
923.302 .0253649
923.946 .0253612
924.589 .0253577
925.231 .0253545
925.873 .0253517
926.515 .0253494
927.157 .0253479
927.798 .0253460
928.439 .0253439
929.079 .0253416
929.719 .0253390
930.359 .0253356
930.998 .0253314
931.637 .0253267
932.275 .0253217
932.913 .0253168
933.551 .0253115
934.188 .0253060
934.825 .0253009
935.462 .0252959
936.098 .0252910
936.733 .0252863
937.369 .0252816
938.004 .0252770
938.638 .0252724
939.273 .0252679
939.907 .0252633
940.540 .0252589
941.173 .0252549
941.806 .0252518
942.438 .0252489
943.070 .0252466
943.702 .0252444
944.333 .0252425
944.964 .0252406
945.594 .0252383
946.224 .0252358
946.854 .0252333
947.483 .0252312
948.112 .0252293
948.741 .0252271
949.369 .0252253
949.996 .0252230
950.624 .0252202
951.251 .0252165
951.878 .0252115
952.504 .0252049
953.130 .0251968
953.755 .0251872
954.380 .0251758
955.005 .0251636
955.629 .0251504
956.253 .0251363
956.877 .0251215
957.500 .0251058
958.123 .0250890
958.746 .0250712
959.368 .0250524
959.990 .0250327
960.611 .0250115
961.232 .0249900
961.853 .0249676
962.473 .0249455
963.093 .0249239
963.712 .0249026
964.331 .0248817
964.950 .0248619
965.569 .0248421
966.187 .0248226
966.804 .0248030
967.422 .0247837
968.039 .0247640
968.655 .0247439
969.272 .0247232
969.887 .0247022
970.503 .0246811
971.118 .0246606
971.733 .0246397
972.347 .0246192
972.961 .0245981
973.575 .0245765
974.188 .0245540
974.801 .0245304
975.414 .0245052
976.026 .0244789
976.638 .0244510
977.250 .0244224
977.861 .0243930
978.472 .0243637
979.083 .0243345
979.693 .0243060
980.303 .0242773
980.912 .0242485
981.521 .0242193
982.130 .0241897
982.738 .0241596
983.346 .0241295
983.954 .0240990
984.562 .0240689
985.169 .0240394
985.775 .0240109
986.382 .0239835
986.988 .0239579
987.594 .0239330
988.199 .0239089
988.804 .0238851
989.409 .0238611
990.013 .0238365
990.617 .0238116
991.221 .0237856
991.824 .0237593
992.427 .0237332
993.030 .0237073
993.632 .0236821
994.234 .0236587
994.836 .0236369
995.438 .0236167
996.039 .0235980
996.640 .0235800
997.240 .0235627
997.840 .0235465
998.440 .0235309
999.040 .0235161
999.639 .0235024
1000.238 .0234897
1000.836 .0234782
1001.435 .0234680
1002.033 .0234592
1002.630 .0234516
1003.228 .0234448
1003.825 .0234390
1004.422 .0234339
1005.018 .0234290
1005.614 .0234249
1006.210 .0234212
1006.806 .0234178
1007.401 .0234139
1007.996 .0234096
1008.591 .0234050
1009.186 .0234005
1009.780 .0233965
1010.374 .0233929
1010.967 .0233904
1011.561 .0233895
1012.154 .0233896
1012.746 .0233903
1013.339 .0233923
1013.931 .0233950
1014.523 .0233977
1015.115 .0234008
1015.706 .0234046
1016.298 .0234094
1016.888 .0234153
1017.479 .0234232
1018.069 .0234326
1018.660 .0234433
1019.250 .0234561
1019.839 .0234696
1020.429 .0234842
1021.018 .0235002
1021.607 .0235164
1022.195 .0235331
1022.784 .0235506
1023.372 .0235686
1023.960 .0235865
1024.547 .0236049
1025.135 .0236237
1025.722 .0236420
1026.309 .0236601
1026.896 .0236788
1027.483 .0236975
1028.069 .0237166
1028.655 .0237364
1029.241 .0237559
1029.827 .0237757
1030.412 .0237955
1030.997 .0238149
1031.582 .0238346
1032.167 .0238544
1032.752 .0238741
1033.336 .0238932
1033.921 .0239124
1034.505 .0239310
1035.089 .0239488
1035.672 .0239659
1036.256 .0239826
1036.839 .0239990
1037.422 .0240148
1038.005 .0240310
1038.588 .0240483
1039.171 .0240671
1039.753 .0240872
1040.335 .0241088
1040.918 .0241308
1041.500 .0241519
1042.081 .0241716
1042.663 .0241895
1043.244 .0242060
1043.826 .0242209
1044.407 .0242338
1044.988 .0242467
1045.569 .0242600
1046.150 .0242736
1046.730 .0242878
1047.311 .0243035
1047.891 .0243200
1048.471 .0243355
1049.052 .0243490
1049.632 .0243608
1050.211 .0243708
1050.791 .0243795
1051.371 .0243873
1051.950 .0243952
1052.530 .0244036
1053.109 .0244133
1053.688 .0244238
1054.268 .0244367
1054.847 .0244507
1055.426 .0244656
1056.005 .0244805
1056.583 .0244946
1057.162 .0245070
1057.741 .0245178
1058.319 .0245288
1058.898 .0245409
1059.476 .0245533
1060.055 .0245671
1060.633 .0245814
1061.211 .0245972
1061.790 .0246130
1062.368 .0246299
1062.946 .0246469
1063.524 .0246654
1064.102 .0246842
1064.680 .0247033
1065.258 .0247229
1065.836 .0247432
1066.414 .0247638
1066.992 .0247842
1067.570 .0248033
1068.148 .0248201
1068.726 .0248347
1069.304 .0248487
1069.882 .0248612
1070.460 .0248742
1071.038 .0248875
1071.616 .0249012
1072.194 .0249149
1072.772 .0249288
1073.350 .0249415
1073.928 .0249544
1074.506 .0249656
1075.084 .0249745
1075.662 .0249813
1076.240 .0249867
1076.819 .0249910
1077.397 .0249942
1077.976 .0249966
1078.554 .0249979
1079.133 .0249982
1079.711 .0249974
1080.290 .0249940
1080.869 .0249908
1081.448 .0249872
1082.027 .0249834
1082.606 .0249782
1083.185 .0249743
1083.764 .0249714
1084.343 .0249711
1084.923 .0249722
1085.502 .0249755
1086.082 .0249816
1086.662 .0249905
1087.242 .0250012
1087.822 .0250145
1088.402 .0250292
1088.983 .0250421
1089.563 .0250524
1090.144 .0250609
1090.725 .0250661
1091.306 .0250705
1091.887 .0250754
1092.469 .0250835
1093.050 .0250926
1093.632 .0251037
1094.214 .0251152
1094.796 .0251269
1095.379 .0251387
1095.961 .0251463
1096.544 .0251506
1097.127 .0251543
1097.710 .0251574
1098.294 .0251614
1098.877 .0251700
1099.461 .0251824
1100.046 .0251979
1100.630 .0252153
1101.215 .0252333
1101.800 .0252490
1102.385 .0252622
1102.970 .0252740
1103.556 .0252818
1104.142 .0252883
1104.728 .0252935
1105.315 .0252945
1105.902 .0252937
1106.489 .0252899
1107.077 .0252824
1107.664 .0252716
1108.253 .0252589
1108.841 .0252461
1109.430 .0252368
1110.019 .0252347
1110.609 .0252390
1111.198 .0252499
1111.789 .0252696
1112.379 .0252934
1112.970 .0253166
1113.561 .0253395
1114.153 .0253583
1114.745 .0253758
1115.338 .0253929
1115.931 .0254104
1116.524 .0254321
1117.117 .0254616
1117.712 .0254984
1118.306 .0255386
1118.901 .0255819
1119.496 .0256250
1120.092 .0256639
1120.689 .0256992
1121.285 .0257273
1121.882 .0257495
1122.480 .0257718
1123.078 .0257951
1123.677 .0258229
1124.276 .0258589
1124.875 .0259037
1125.476 .0259596
1126.076 .0260264
1126.677 .0261021
1127.279 .0261798
1127.881 .0262607
1128.484 .0263424
1129.087 .0264177
1129.691 .0264889
1130.295 .0265530
1130.900 .0266154
1131.505 .0266800
1132.111 .0267438
1132.718 .0268072
1133.325 .0268761
1133.933 .0269476
1134.541 .0270169
1135.150 .0270852
1135.760 .0271534
1136.370 .0272253
1136.981 .0272998
1137.592 .0273770
1138.204 .0274606
1138.817 .0275586
1139.431 .0276690
1140.045 .0277937
1140.660 .0279371
1141.275 .0281133
1141.891 .0283019
1142.508 .0283938
1143.126 .0287009
1143.744 .0288973
1144.363 .0295476
1144.983 .0293655
