Measurement Sequence started on: 15-12-46-377
Integration time: 28
Scans to Average: 2 
>>>>>Begin Spectral Data<<<<<
432.689 .0000100
433.621 .0000100
434.552 .0000100
435.482 .0000100
436.410 .0000100
437.337 .0000100
438.262 .0283001
439.187 .0600617
440.110 .0996033
441.031 .1442336
441.952 .1875981
442.871 .2217228
443.789 .2404236
444.705 .2415857
445.621 .2277840
446.535 .2046932
447.447 .1785442
448.359 .1386382
449.269 .1187624
450.178 .1062040
451.086 .0973579
451.993 .0906047
452.898 .0852686
453.803 .0808429
454.706 .0770820
455.608 .0738242
456.508 .0709905
457.408 .0685092
458.306 .0663292
459.204 .0643863
460.100 .0626349
460.995 .0610723
461.888 .0596578
462.781 .0583717
463.673 .0572072
464.563 .0561500
465.452 .0551755
466.340 .0542641
467.228 .0534230
468.114 .0526450
468.999 .0519390
469.882 .0512933
470.765 .0506996
471.647 .0501577
472.528 .0496603
473.407 .0492129
474.286 .0488164
475.163 .0484717
476.040 .0481747
476.915 .0479240
477.790 .0477090
478.663 .0475190
479.535 .0473522
480.407 .0472051
481.277 .0470815
482.147 .0469804
483.015 .0468994
483.883 .0468493
484.749 .0468302
485.615 .0468450
486.479 .0468865
487.343 .0469570
488.206 .0470482
489.067 .0471493
489.928 .0472507
490.788 .0473514
491.647 .0474553
492.505 .0475697
493.362 .0476948
494.218 .0478402
495.073 .0480042
495.928 .0481957
496.781 .0483998
497.634 .0486284
498.486 .0488713
499.337 .0491322
500.187 .0494044
501.036 .0496954
501.884 .0500047
502.731 .0503398
503.578 .0507093
504.424 .0511197
505.268 .0515563
506.113 .0520295
506.956 .0525258
507.798 .0530608
508.640 .0536322
509.480 .0542553
510.320 .0549440
511.160 .0557253
511.998 .0566112
512.836 .0576066
513.672 .0587247
514.508 .0599696
515.344 .0613376
516.178 .0628516
517.012 .0645323
517.845 .0664093
518.677 .0685384
519.508 .0709494
520.339 .0736926
521.169 .0768405
521.998 .0804342
522.826 .0845078
523.654 .0890497
524.481 .0940466
525.307 .0995538
526.133 .1054899
526.958 .1118971
527.782 .1186986
528.605 .1258338
529.428 .1331674
530.250 .1401524
531.072 .1465300
531.892 .1519550
532.712 .1561045
533.532 .1587610
534.350 .1596864
535.168 .1589139
535.986 .1565057
536.802 .1526557
537.618 .1476223
538.434 .1416609
539.249 .1351801
540.063 .1283431
540.876 .1213501
541.689 .1144702
542.501 .1078842
543.313 .1017616
544.124 .0961743
544.934 .0910870
545.744 .0864734
546.553 .0822816
547.361 .0784980
548.169 .0751291
548.976 .0720703
549.783 .0693268
550.589 .0668461
551.395 .0645864
552.200 .0625402
553.004 .0606985
553.808 .0590456
554.611 .0575904
555.414 .0563121
556.216 .0551854
557.018 .0541940
557.819 .0533164
558.619 .0525255
559.419 .0518009
560.218 .0511190
561.017 .0504747
561.815 .0498369
562.613 .0492050
563.410 .0485651
564.207 .0479148
565.003 .0472688
565.799 .0466141
566.594 .0459487
567.388 .0452848
568.182 .0446229
568.976 .0439665
569.769 .0433128
570.562 .0426717
571.354 .0420455
572.145 .0414377
572.936 .0408498
573.727 .0402850
574.517 .0397509
575.307 .0392449
576.096 .0387685
576.885 .0383195
577.673 .0379010
578.461 .0375103
579.248 .0371494
580.035 .0368185
580.821 .0365132
581.607 .0362321
582.392 .0359753
583.177 .0357397
583.962 .0355234
584.746 .0353218
585.529 .0351346
586.313 .0349637
587.095 .0348055
587.878 .0346578
588.660 .0345230
589.441 .0344013
590.222 .0342922
591.003 .0341939
591.783 .0341070
592.563 .0340277
593.342 .0339563
594.121 .0338891
594.899 .0338250
595.678 .0337627
596.455 .0337019
597.233 .0336418
598.009 .0335820
598.786 .0335239
599.562 .0334667
600.338 .0334107
601.113 .0333567
601.888 .0333044
602.663 .0332528
603.437 .0332018
604.211 .0331513
604.984 .0331009
605.757 .0330518
606.530 .0330033
607.302 .0329575
608.074 .0329147
608.845 .0328758
609.616 .0328404
610.387 .0328090
611.158 .0327811
611.928 .0327554
612.697 .0327312
613.467 .0327083
614.236 .0326853
615.004 .0326633
615.773 .0326417
616.541 .0326217
617.308 .0326032
618.076 .0325864
618.843 .0325696
619.609 .0325541
620.375 .0325373
621.141 .0325197
621.907 .0325006
622.672 .0324802
623.437 .0324579
624.202 .0324349
624.966 .0324110
625.730 .0323866
626.493 .0323618
627.257 .0323370
628.020 .0323108
628.782 .0322840
629.545 .0322551
630.307 .0322242
631.068 .0321911
631.830 .0321568
632.591 .0321200
633.352 .0320822
634.112 .0320428
634.872 .0320023
635.632 .0319614
636.392 .0319213
637.151 .0318818
637.910 .0318438
638.668 .0318072
639.427 .0317720
640.185 .0317380
640.943 .0317046
641.700 .0316717
642.457 .0316396
643.214 .0316084
643.971 .0315778
644.727 .0315484
645.483 .0315204
646.239 .0314940
646.994 .0314691
647.750 .0314448
648.505 .0314208
649.259 .0313964
650.014 .0313710
650.768 .0313452
651.521 .0313191
652.275 .0312936
653.028 .0312685
653.781 .0312444
654.534 .0312212
655.286 .0311982
656.039 .0311757
656.791 .0311528
657.542 .0311289
658.294 .0311038
659.045 .0310775
659.796 .0310500
660.546 .0310218
661.297 .0309933
662.047 .0309647
662.796 .0309362
663.546 .0309083
664.295 .0308805
665.044 .0308533
665.793 .0308269
666.542 .0308015
667.290 .0307771
668.038 .0307540
668.786 .0307320
669.533 .0307114
670.281 .0306925
671.028 .0306747
671.774 .0306576
672.521 .0306418
673.267 .0306276
674.013 .0306149
674.759 .0306035
675.505 .0305941
676.250 .0305862
676.995 .0305791
677.740 .0305721
678.484 .0305642
679.229 .0305550
679.973 .0305440
680.717 .0305310
681.460 .0305157
682.204 .0304987
682.947 .0304805
683.690 .0304619
684.433 .0304433
685.175 .0304253
685.917 .0304071
686.659 .0303888
687.401 .0303700
688.142 .0303502
688.884 .0303287
689.625 .0303061
690.365 .0302823
691.106 .0302580
691.846 .0302337
692.586 .0302102
693.326 .0301881
694.066 .0301678
694.805 .0301493
695.545 .0301316
696.284 .0301146
697.022 .0300980
697.761 .0300814
698.499 .0300649
699.237 .0300487
699.975 .0300329
700.713 .0300177
701.450 .0300033
702.187 .0299898
702.924 .0299769
703.661 .0299642
704.397 .0299519
705.133 .0299397
705.869 .0299278
706.605 .0299162
707.341 .0299052
708.076 .0298946
708.811 .0298848
709.546 .0298749
710.281 .0298643
711.015 .0298526
711.749 .0298394
712.483 .0298239
713.217 .0298064
713.950 .0297868
714.684 .0297660
715.417 .0297436
716.150 .0297212
716.882 .0296983
717.615 .0296751
718.347 .0296519
719.079 .0296280
719.811 .0296033
720.542 .0295788
721.273 .0295537
722.005 .0295289
722.735 .0295044
723.466 .0294809
724.196 .0294580
724.927 .0294360
725.656 .0294148
726.386 .0293941
727.116 .0293738
727.845 .0293544
728.574 .0293346
729.303 .0293150
730.031 .0292957
730.760 .0292761
731.488 .0292566
732.216 .0292375
732.944 .0292188
733.671 .0292007
734.398 .0291836
735.125 .0291678
735.852 .0291530
736.579 .0291391
737.305 .0291267
738.031 .0291147
738.757 .0291034
739.483 .0290920
740.208 .0290803
740.933 .0290687
741.658 .0290572
742.383 .0290452
743.108 .0290328
743.832 .0290203
744.556 .0290074
745.280 .0289933
746.004 .0289787
746.727 .0289632
747.450 .0289468
748.173 .0289292
748.896 .0289110
749.618 .0288923
750.340 .0288736
751.062 .0288553
751.784 .0288375
752.506 .0288208
753.227 .0288045
753.948 .0287890
754.669 .0287742
755.389 .0287601
756.110 .0287466
756.830 .0287330
757.550 .0287194
758.269 .0287058
758.989 .0286912
759.708 .0286758
760.427 .0286594
761.146 .0286424
761.864 .0286242
762.582 .0286053
763.300 .0285858
764.018 .0285662
764.736 .0285462
765.453 .0285269
766.170 .0285078
766.887 .0284896
767.603 .0284719
768.320 .0284547
769.036 .0284382
769.751 .0284223
770.467 .0284069
771.182 .0283921
771.897 .0283779
772.612 .0283650
773.327 .0283529
774.041 .0283423
774.755 .0283331
775.469 .0283255
776.183 .0283187
776.896 .0283126
777.609 .0283068
778.322 .0283011
779.035 .0282952
779.747 .0282896
780.459 .0282839
781.171 .0282790
781.882 .0282748
782.594 .0282713
783.305 .0282688
784.016 .0282676
784.726 .0282671
785.436 .0282673
786.147 .0282679
786.856 .0282686
787.566 .0282691
788.275 .0282697
788.984 .0282697
789.693 .0282694
790.401 .0282687
791.110 .0282665
791.818 .0282633
792.525 .0282591
793.233 .0282534
793.940 .0282470
794.647 .0282398
795.353 .0282321
796.060 .0282241
796.766 .0282159
797.472 .0282073
798.177 .0281988
798.883 .0281901
799.588 .0281814
800.292 .0281731
800.997 .0281657
801.701 .0281587
802.405 .0281529
803.109 .0281483
803.812 .0281448
804.515 .0281416
805.218 .0281380
805.921 .0281336
806.623 .0281278
807.325 .0281205
808.027 .0281120
808.728 .0281027
809.429 .0280930
810.130 .0280834
810.831 .0280743
811.531 .0280655
812.231 .0280570
812.931 .0280479
813.630 .0280384
814.330 .0280279
815.029 .0280162
815.727 .0280035
816.426 .0279905
817.124 .0279777
817.821 .0279646
818.519 .0279522
819.216 .0279405
819.913 .0279295
820.609 .0279187
821.306 .0279081
822.002 .0278980
822.697 .0278886
823.393 .0278802
824.088 .0278725
824.783 .0278657
825.477 .0278594
826.171 .0278532
826.865 .0278475
827.559 .0278420
828.252 .0278369
828.945 .0278323
829.638 .0278286
830.330 .0278258
831.023 .0278236
831.714 .0278218
832.406 .0278203
833.097 .0278182
833.788 .0278148
834.479 .0278095
835.169 .0278024
835.859 .0277939
836.548 .0277843
837.238 .0277745
837.927 .0277644
838.615 .0277546
839.304 .0277450
839.992 .0277353
840.680 .0277257
841.367 .0277161
842.054 .0277061
842.741 .0276964
843.428 .0276870
844.114 .0276779
844.800 .0276693
845.485 .0276610
846.170 .0276526
846.855 .0276438
847.540 .0276338
848.224 .0276226
848.908 .0276107
849.592 .0275979
850.275 .0275845
850.958 .0275704
851.641 .0275558
852.323 .0275407
853.005 .0275246
853.687 .0275076
854.368 .0274890
855.049 .0274692
855.730 .0274480
856.410 .0274256
857.090 .0274024
857.769 .0273783
858.449 .0273537
859.128 .0273288
859.806 .0273041
860.485 .0272795
861.163 .0272552
861.840 .0272315
862.518 .0272086
863.195 .0271864
863.871 .0271647
864.548 .0271436
865.224 .0271233
865.899 .0271040
866.574 .0270854
867.249 .0270673
867.924 .0270504
868.598 .0270347
869.272 .0270202
869.946 .0270069
870.619 .0269943
871.292 .0269823
871.964 .0269702
872.636 .0269574
873.308 .0269436
873.979 .0269287
874.651 .0269127
875.321 .0268955
875.992 .0268779
876.662 .0268598
877.331 .0268411
878.001 .0268219
878.670 .0268028
879.338 .0267832
880.007 .0267632
880.675 .0267431
881.342 .0267230
882.009 .0267037
882.676 .0266852
883.343 .0266672
884.009 .0266507
884.675 .0266352
885.340 .0266207
886.005 .0266070
886.670 .0265946
887.334 .0265837
887.998 .0265742
888.662 .0265667
889.325 .0265604
889.988 .0265557
890.650 .0265521
891.312 .0265489
891.974 .0265459
892.636 .0265429
893.297 .0265394
893.957 .0265359
894.618 .0265323
895.278 .0265289
895.937 .0265257
896.596 .0265232
897.255 .0265210
897.914 .0265189
898.572 .0265161
899.230 .0265127
899.887 .0265079
900.544 .0265023
901.201 .0264952
901.857 .0264875
902.513 .0264791
903.168 .0264700
903.823 .0264601
904.478 .0264499
905.132 .0264386
905.786 .0264263
906.440 .0264122
907.093 .0263969
907.746 .0263801
908.399 .0263622
909.051 .0263433
909.703 .0263244
910.354 .0263060
911.005 .0262881
911.656 .0262707
912.306 .0262543
912.956 .0262383
913.605 .0262225
914.254 .0262070
914.903 .0261912
915.551 .0261754
916.199 .0261601
916.847 .0261454
917.494 .0261320
918.141 .0261200
918.788 .0261092
919.434 .0260999
920.079 .0260914
920.725 .0260832
921.370 .0260741
922.014 .0260645
922.658 .0260536
923.302 .0260412
923.946 .0260278
924.589 .0260132
925.231 .0259979
925.873 .0259829
926.515 .0259679
927.157 .0259529
927.798 .0259383
928.439 .0259241
929.079 .0259100
929.719 .0258959
930.359 .0258817
930.998 .0258674
931.637 .0258539
932.275 .0258413
932.913 .0258296
933.551 .0258197
934.188 .0258119
934.825 .0258054
935.462 .0258006
936.098 .0257971
936.733 .0257938
937.369 .0257907
938.004 .0257875
938.638 .0257837
939.273 .0257799
939.907 .0257766
940.540 .0257737
941.173 .0257720
941.806 .0257717
942.438 .0257722
943.070 .0257736
943.702 .0257762
944.333 .0257787
944.964 .0257808
945.594 .0257824
946.224 .0257832
946.854 .0257833
947.483 .0257837
948.112 .0257843
948.741 .0257856
949.369 .0257881
949.996 .0257909
950.624 .0257937
951.251 .0257965
951.878 .0257981
952.504 .0257981
953.130 .0257959
953.755 .0257913
954.380 .0257843
955.005 .0257756
955.629 .0257657
956.253 .0257550
956.877 .0257449
957.500 .0257355
958.123 .0257269
958.746 .0257190
959.368 .0257118
959.990 .0257054
960.611 .0256992
961.232 .0256935
961.853 .0256879
962.473 .0256828
963.093 .0256788
963.712 .0256761
964.331 .0256750
964.950 .0256755
965.569 .0256778
966.187 .0256815
966.804 .0256869
967.422 .0256930
968.039 .0256997
968.655 .0257062
969.272 .0257120
969.887 .0257165
970.503 .0257190
971.118 .0257204
971.733 .0257205
972.347 .0257201
972.961 .0257189
973.575 .0257172
974.188 .0257153
974.801 .0257128
975.414 .0257093
976.026 .0257045
976.638 .0256986
977.250 .0256915
977.861 .0256835
978.472 .0256755
979.083 .0256680
979.693 .0256613
980.303 .0256547
980.912 .0256488
981.521 .0256426
982.130 .0256365
982.738 .0256300
983.346 .0256235
983.954 .0256169
984.562 .0256106
985.169 .0256039
985.775 .0255972
986.382 .0255905
986.988 .0255837
987.594 .0255757
988.199 .0255674
988.804 .0255586
989.409 .0255492
990.013 .0255403
990.617 .0255326
991.221 .0255256
991.824 .0255205
992.427 .0255164
993.030 .0255132
993.632 .0255109
994.234 .0255098
994.836 .0255084
995.438 .0255071
996.039 .0255064
996.640 .0255053
997.240 .0255043
997.840 .0255046
998.440 .0255053
999.040 .0255067
999.639 .0255087
1000.238 .0255110
1000.836 .0255127
1001.435 .0255142
1002.033 .0255147
1002.630 .0255139
1003.228 .0255125
1003.825 .0255105
1004.422 .0255077
1005.018 .0255055
1005.614 .0255038
1006.210 .0255028
1006.806 .0255022
1007.401 .0255018
1007.996 .0255010
1008.591 .0255000
1009.186 .0254984
1009.780 .0254964
1010.374 .0254939
1010.967 .0254917
1011.561 .0254898
1012.154 .0254882
1012.746 .0254868
1013.339 .0254863
1013.931 .0254863
1014.523 .0254867
1015.115 .0254870
1015.706 .0254878
1016.298 .0254877
1016.888 .0254882
1017.479 .0254887
1018.069 .0254895
1018.660 .0254898
1019.250 .0254897
1019.839 .0254892
1020.429 .0254888
1021.018 .0254878
1021.607 .0254864
1022.195 .0254847
1022.784 .0254832
1023.372 .0254807
1023.960 .0254777
1024.547 .0254745
1025.135 .0254715
1025.722 .0254675
1026.309 .0254637
1026.896 .0254596
1027.483 .0254564
1028.069 .0254537
1028.655 .0254524
1029.241 .0254527
1029.827 .0254539
1030.412 .0254553
1030.997 .0254570
1031.582 .0254584
1032.167 .0254586
1032.752 .0254576
1033.336 .0254558
1033.921 .0254534
1034.505 .0254511
1035.089 .0254492
1035.672 .0254486
1036.256 .0254501
1036.839 .0254523
1037.422 .0254541
1038.005 .0254565
1038.588 .0254583
1039.171 .0254583
1039.753 .0254571
1040.335 .0254547
1040.918 .0254519
1041.500 .0254494
1042.081 .0254476
1042.663 .0254466
1043.244 .0254468
1043.826 .0254468
1044.407 .0254457
1044.988 .0254435
1045.569 .0254399
1046.150 .0254339
1046.730 .0254265
1047.311 .0254184
1047.891 .0254090
1048.471 .0254001
1049.052 .0253915
1049.632 .0253838
1050.211 .0253766
1050.791 .0253697
1051.371 .0253628
1051.950 .0253572
1052.530 .0253524
1053.109 .0253483
1053.688 .0253445
1054.268 .0253420
1054.847 .0253393
1055.426 .0253367
1056.005 .0253338
1056.583 .0253306
1057.162 .0253261
1057.741 .0253207
1058.319 .0253134
1058.898 .0253052
1059.476 .0252948
1060.055 .0252832
1060.633 .0252700
1061.211 .0252569
1061.790 .0252433
1062.368 .0252300
1062.946 .0252173
1063.524 .0252064
1064.102 .0251945
1064.680 .0251826
1065.258 .0251703
1065.836 .0251587
1066.414 .0251474
1066.992 .0251376
1067.570 .0251296
1068.148 .0251247
1068.726 .0251230
1069.304 .0251257
1069.882 .0251306
1070.460 .0251387
1071.038 .0251452
1071.616 .0251509
1072.194 .0251543
1072.772 .0251558
1073.350 .0251552
1073.928 .0251539
1074.506 .0251529
1075.084 .0251516
1075.662 .0251488
1076.240 .0251467
1076.819 .0251435
1077.397 .0251391
1077.976 .0251327
1078.554 .0251242
1079.133 .0251154
1079.711 .0251073
1080.290 .0251007
1080.869 .0250975
1081.448 .0250974
1082.027 .0250997
1082.606 .0251022
1083.185 .0251060
1083.764 .0251107
1084.343 .0251143
1084.923 .0251200
1085.502 .0251275
1086.082 .0251357
1086.662 .0251464
1087.242 .0251602
1087.822 .0251743
1088.402 .0251901
1088.983 .0252045
1089.563 .0252171
1090.144 .0252268
1090.725 .0252338
1091.306 .0252369
1091.887 .0252397
1092.469 .0252456
1093.050 .0252520
1093.632 .0252602
1094.214 .0252728
1094.796 .0252855
1095.379 .0252984
1095.961 .0253105
1096.544 .0253215
1097.127 .0253307
1097.710 .0253398
1098.294 .0253488
1098.877 .0253580
1099.461 .0253687
1100.046 .0253814
1100.630 .0253946
1101.215 .0254089
1101.800 .0254212
1102.385 .0254305
1102.970 .0254383
1103.556 .0254453
1104.142 .0254528
1104.728 .0254625
1105.315 .0254763
1105.902 .0254944
1106.489 .0255155
1107.077 .0255374
1107.664 .0255615
1108.253 .0255865
1108.841 .0256139
1109.430 .0256440
1110.019 .0256771
1110.609 .0257156
1111.198 .0257597
1111.789 .0258074
1112.379 .0258565
1112.970 .0259048
1113.561 .0259513
1114.153 .0259904
1114.745 .0260238
1115.338 .0260514
1115.931 .0260769
1116.524 .0261014
1117.117 .0261288
1117.712 .0261566
1118.306 .0261869
1118.901 .0262156
1119.496 .0262422
1120.092 .0262637
1120.689 .0262805
1121.285 .0262917
1121.882 .0262983
1122.480 .0263025
1123.078 .0263110
1123.677 .0263231
1124.276 .0263464
1124.875 .0263795
1125.476 .0264235
1126.076 .0264750
1126.677 .0265329
1127.279 .0265911
1127.881 .0266526
1128.484 .0267146
1129.087 .0267775
1129.691 .0268403
1130.295 .0269081
1130.900 .0269785
1131.505 .0270556
1132.111 .0271405
1132.718 .0272302
1133.325 .0273210
1133.933 .0274150
1134.541 .0275050
1135.150 .0275962
1135.760 .0276871
1136.370 .0277830
1136.981 .0278882
1137.592 .0280055
1138.204 .0281294
1138.817 .0282622
1139.431 .0284131
1140.045 .0285761
1140.660 .0287604
1141.275 .0289787
1141.891 .0292437
1142.508 .0293710
1143.126 .0295311
1143.744 .0301100
1144.363 .0307504
1144.983 .0315013
