Measurement Sequence started on: 15-12-46-377
Integration time: 28
Scans to Average: 2 
>>>>>Begin Spectral Data<<<<<
432.689 .0000100
433.621 .0000100
434.552 .0000100
435.482 .0000100
436.410 .0000100
437.337 .0000100
438.262 .0271729
439.187 .0575375
440.110 .0953581
441.031 .1380182
441.952 .1794824
442.871 .2121715
443.789 .2301660
444.705 .2313723
445.621 .2182749
446.535 .1962602
447.447 .1712527
448.359 .1329300
449.269 .1138152
450.178 .1015781
451.086 .0928907
451.993 .0862270
452.898 .0809426
453.803 .0766272
454.706 .0730670
455.608 .0700036
456.508 .0673365
457.408 .0649843
458.306 .0629026
459.204 .0610303
460.100 .0593680
460.995 .0578961
461.888 .0565863
462.781 .0554272
463.673 .0543760
464.563 .0534248
465.452 .0525519
466.340 .0517358
467.228 .0509850
468.114 .0503000
468.999 .0496869
469.882 .0491325
470.765 .0486493
471.647 .0482346
472.528 .0478762
473.407 .0475662
474.286 .0472971
475.163 .0470591
476.040 .0468524
476.915 .0466715
477.790 .0465127
478.663 .0463803
479.535 .0462665
480.407 .0461693
481.277 .0460790
482.147 .0459928
483.015 .0459012
483.883 .0458034
484.749 .0457023
485.615 .0456008
486.479 .0455013
487.343 .0454248
488.206 .0453681
489.067 .0453364
489.928 .0453247
490.788 .0453344
491.647 .0453603
492.505 .0454006
493.362 .0454541
494.218 .0455270
495.073 .0456198
495.928 .0457493
496.781 .0459069
497.634 .0461109
498.486 .0463595
499.337 .0466484
500.187 .0469669
501.036 .0473074
501.884 .0476562
502.731 .0480177
503.578 .0483909
504.424 .0487826
505.268 .0491886
506.113 .0496241
506.956 .0500891
507.798 .0505970
508.640 .0511482
509.480 .0517597
510.320 .0524339
511.160 .0531865
511.998 .0540233
512.836 .0549534
513.672 .0559892
514.508 .0571410
515.344 .0584222
516.178 .0598456
517.012 .0614400
517.845 .0632377
518.677 .0652931
519.508 .0676306
520.339 .0703006
521.169 .0733630
521.998 .0768236
522.826 .0807177
523.654 .0850582
524.481 .0898941
525.307 .0952727
526.133 .1011465
526.958 .1074922
527.782 .1143011
528.605 .1214280
529.428 .1287416
530.250 .1357466
531.072 .1421855
531.892 .1476372
532.712 .1517515
533.532 .1542866
534.350 .1550717
535.168 .1540815
535.986 .1514248
536.802 .1472423
537.618 .1418611
538.434 .1355059
539.249 .1286286
540.063 .1214452
540.876 .1142731
541.689 .1073092
542.501 .1007369
543.313 .0947073
544.124 .0893326
544.934 .0845442
545.744 .0803001
546.553 .0765325
547.361 .0731981
548.169 .0702507
548.976 .0676117
549.783 .0652469
550.589 .0631693
551.395 .0613094
552.200 .0596534
553.004 .0581502
553.808 .0567804
554.611 .0555222
555.414 .0543731
556.216 .0533041
557.018 .0523165
557.819 .0513964
558.619 .0505410
559.419 .0497385
560.218 .0489864
561.017 .0482683
561.815 .0475696
562.613 .0468887
563.410 .0462064
564.207 .0455235
565.003 .0448564
565.799 .0441987
566.594 .0435575
567.388 .0429447
568.182 .0423502
568.976 .0417666
569.769 .0411987
570.562 .0406438
571.354 .0400986
572.145 .0395641
572.936 .0390439
573.727 .0385394
574.517 .0380653
575.307 .0376197
576.096 .0371988
576.885 .0368156
577.673 .0364650
578.461 .0361411
579.248 .0358409
580.035 .0355651
580.821 .0353087
581.607 .0350650
582.392 .0348394
583.177 .0346304
583.962 .0344372
584.746 .0342598
585.529 .0340962
586.313 .0339477
587.095 .0338129
587.878 .0336857
588.660 .0335645
589.441 .0334503
590.222 .0333392
591.003 .0332318
591.783 .0331287
592.563 .0330323
593.342 .0329430
594.121 .0328594
594.899 .0327843
595.678 .0327157
596.455 .0326534
597.233 .0325957
598.009 .0325409
598.786 .0324902
599.562 .0324418
600.338 .0323946
601.113 .0323486
601.888 .0323043
602.663 .0322608
603.437 .0322186
604.211 .0321767
604.984 .0321354
605.757 .0320947
606.530 .0320532
607.302 .0320120
608.074 .0319708
608.845 .0319302
609.616 .0318897
610.387 .0318496
611.158 .0318111
611.928 .0317727
612.697 .0317355
613.467 .0316990
614.236 .0316638
615.004 .0316298
615.773 .0315965
616.541 .0315646
617.308 .0315344
618.076 .0315062
618.843 .0314795
619.609 .0314546
620.375 .0314311
621.141 .0314076
621.907 .0313841
622.672 .0313598
623.437 .0313349
624.202 .0313090
624.966 .0312825
625.730 .0312557
626.493 .0312296
627.257 .0312043
628.020 .0311798
628.782 .0311566
629.545 .0311344
630.307 .0311124
631.068 .0310900
631.830 .0310670
632.591 .0310428
633.352 .0310176
634.112 .0309925
634.872 .0309669
635.632 .0309424
636.392 .0309198
637.151 .0308986
637.910 .0308802
638.668 .0308639
639.427 .0308498
640.185 .0308370
640.943 .0308254
641.700 .0308146
642.457 .0308032
643.214 .0307920
643.971 .0307804
644.727 .0307688
645.483 .0307572
646.239 .0307452
646.994 .0307335
647.750 .0307220
648.505 .0307105
649.259 .0306982
650.014 .0306854
650.768 .0306719
651.521 .0306572
652.275 .0306407
653.028 .0306221
653.781 .0306020
654.534 .0305799
655.286 .0305570
656.039 .0305329
656.791 .0305089
657.542 .0304846
658.294 .0304608
659.045 .0304378
659.796 .0304151
660.546 .0303927
661.297 .0303695
662.047 .0303456
662.796 .0303206
663.546 .0302932
664.295 .0302646
665.044 .0302348
665.793 .0302051
666.542 .0301750
667.290 .0301451
668.038 .0301152
668.786 .0300856
669.533 .0300556
670.281 .0300252
671.028 .0299943
671.774 .0299638
672.521 .0299336
673.267 .0299040
674.013 .0298755
674.759 .0298485
675.505 .0298227
676.250 .0297977
676.995 .0297724
677.740 .0297474
678.484 .0297215
679.229 .0296961
679.973 .0296707
680.717 .0296459
681.460 .0296221
682.204 .0295994
682.947 .0295779
683.690 .0295575
684.433 .0295381
685.175 .0295192
685.917 .0295007
686.659 .0294829
687.401 .0294652
688.142 .0294486
688.884 .0294329
689.625 .0294184
690.365 .0294048
691.106 .0293920
691.846 .0293795
692.586 .0293673
693.326 .0293547
694.066 .0293418
694.805 .0293285
695.545 .0293148
696.284 .0293009
697.022 .0292867
697.761 .0292723
698.499 .0292579
699.237 .0292433
699.975 .0292284
700.713 .0292132
701.450 .0291988
702.187 .0291851
702.924 .0291724
703.661 .0291611
704.397 .0291509
705.133 .0291425
705.869 .0291354
706.605 .0291291
707.341 .0291234
708.076 .0291184
708.811 .0291132
709.546 .0291073
710.281 .0291009
711.015 .0290940
711.749 .0290865
712.483 .0290789
713.217 .0290710
713.950 .0290633
714.684 .0290556
715.417 .0290479
716.150 .0290399
716.882 .0290317
717.615 .0290222
718.347 .0290120
719.079 .0290009
719.811 .0289893
720.542 .0289772
721.273 .0289647
722.005 .0289521
722.735 .0289394
723.466 .0289261
724.196 .0289120
724.927 .0288966
725.656 .0288799
726.386 .0288608
727.116 .0288405
727.845 .0288188
728.574 .0287963
729.303 .0287737
730.031 .0287517
730.760 .0287302
731.488 .0287097
732.216 .0286902
732.944 .0286713
733.671 .0286536
734.398 .0286370
735.125 .0286212
735.852 .0286066
736.579 .0285932
737.305 .0285814
738.031 .0285708
738.757 .0285613
739.483 .0285518
740.208 .0285421
740.933 .0285324
741.658 .0285218
742.383 .0285106
743.108 .0284994
743.832 .0284875
744.556 .0284757
745.280 .0284638
746.004 .0284513
746.727 .0284387
747.450 .0284261
748.173 .0284129
748.896 .0283995
749.618 .0283855
750.340 .0283710
751.062 .0283561
751.784 .0283414
752.506 .0283260
753.227 .0283098
753.948 .0282929
754.669 .0282747
755.389 .0282553
756.110 .0282349
756.830 .0282130
757.550 .0281900
758.269 .0281660
758.989 .0281408
759.708 .0281142
760.427 .0280873
761.146 .0280600
761.864 .0280325
762.582 .0280049
763.300 .0279773
764.018 .0279496
764.736 .0279225
765.453 .0278961
766.170 .0278702
766.887 .0278454
767.603 .0278215
768.320 .0277988
769.036 .0277776
769.751 .0277580
770.467 .0277397
771.182 .0277226
771.897 .0277067
772.612 .0276915
773.327 .0276770
774.041 .0276635
774.755 .0276509
775.469 .0276400
776.183 .0276306
776.896 .0276225
777.609 .0276159
778.322 .0276111
779.035 .0276077
779.747 .0276052
780.459 .0276037
781.171 .0276028
781.882 .0276022
782.594 .0276020
783.305 .0276022
784.016 .0276029
784.726 .0276044
785.436 .0276062
786.147 .0276085
786.856 .0276114
787.566 .0276147
788.275 .0276181
788.984 .0276218
789.693 .0276256
790.401 .0276286
791.110 .0276312
791.818 .0276332
792.525 .0276343
793.233 .0276346
793.940 .0276347
794.647 .0276346
795.353 .0276349
796.060 .0276356
796.766 .0276363
797.472 .0276369
798.177 .0276374
798.883 .0276370
799.588 .0276355
800.292 .0276334
800.997 .0276309
801.701 .0276276
802.405 .0276244
803.109 .0276218
803.812 .0276198
804.515 .0276182
805.218 .0276168
805.921 .0276146
806.623 .0276114
807.325 .0276071
808.027 .0276017
808.728 .0275951
809.429 .0275882
810.130 .0275809
810.831 .0275737
811.531 .0275671
812.231 .0275605
812.931 .0275543
813.630 .0275486
814.330 .0275427
815.029 .0275363
815.727 .0275295
816.426 .0275228
817.124 .0275160
817.821 .0275092
818.519 .0275025
819.216 .0274961
819.913 .0274899
820.609 .0274841
821.306 .0274782
822.002 .0274731
822.697 .0274685
823.393 .0274643
824.088 .0274604
824.783 .0274569
825.477 .0274532
826.171 .0274491
826.865 .0274450
827.559 .0274406
828.252 .0274355
828.945 .0274306
829.638 .0274257
830.330 .0274210
831.023 .0274168
831.714 .0274124
832.406 .0274079
833.097 .0274032
833.788 .0273977
834.479 .0273912
835.169 .0273839
835.859 .0273763
836.548 .0273679
837.238 .0273589
837.927 .0273498
838.615 .0273402
839.304 .0273303
839.992 .0273201
840.680 .0273092
841.367 .0272980
842.054 .0272861
842.741 .0272734
843.428 .0272600
844.114 .0272458
844.800 .0272310
845.485 .0272149
846.170 .0271975
846.855 .0271790
847.540 .0271588
848.224 .0271375
848.908 .0271150
849.592 .0270914
850.275 .0270667
850.958 .0270413
851.641 .0270153
852.323 .0269886
853.005 .0269617
853.687 .0269348
854.368 .0269076
855.049 .0268810
855.730 .0268549
856.410 .0268291
857.090 .0268042
857.769 .0267799
858.449 .0267556
859.128 .0267313
859.806 .0267071
860.485 .0266830
861.163 .0266589
861.840 .0266354
862.518 .0266122
863.195 .0265897
863.871 .0265683
864.548 .0265472
865.224 .0265262
865.899 .0265052
866.574 .0264834
867.249 .0264610
867.924 .0264381
868.598 .0264152
869.272 .0263925
869.946 .0263711
870.619 .0263511
871.292 .0263323
871.964 .0263149
872.636 .0262988
873.308 .0262832
873.979 .0262680
874.651 .0262525
875.321 .0262369
875.992 .0262215
876.662 .0262066
877.331 .0261926
878.001 .0261800
878.670 .0261687
879.338 .0261585
880.007 .0261495
880.675 .0261413
881.342 .0261338
882.009 .0261269
882.676 .0261208
883.343 .0261157
884.009 .0261112
884.675 .0261078
885.340 .0261055
886.005 .0261045
886.670 .0261048
887.334 .0261061
887.998 .0261085
888.662 .0261116
889.325 .0261151
889.988 .0261194
890.650 .0261244
891.312 .0261301
891.974 .0261365
892.636 .0261434
893.297 .0261508
893.957 .0261585
894.618 .0261661
895.278 .0261738
895.937 .0261812
896.596 .0261882
897.255 .0261946
897.914 .0262001
898.572 .0262051
899.230 .0262100
899.887 .0262148
900.544 .0262193
901.201 .0262234
901.857 .0262269
902.513 .0262295
903.168 .0262307
903.823 .0262307
904.478 .0262289
905.132 .0262253
905.786 .0262201
906.440 .0262134
907.093 .0262055
907.746 .0261974
908.399 .0261888
909.051 .0261803
909.703 .0261716
910.354 .0261628
911.005 .0261542
911.656 .0261458
912.306 .0261380
912.956 .0261304
913.605 .0261232
914.254 .0261171
914.903 .0261113
915.551 .0261067
916.199 .0261036
916.847 .0261021
917.494 .0261021
918.141 .0261038
918.788 .0261064
919.434 .0261101
920.079 .0261136
920.725 .0261167
921.370 .0261181
922.014 .0261180
922.658 .0261154
923.302 .0261105
923.946 .0261037
924.589 .0260947
925.231 .0260837
925.873 .0260719
926.515 .0260588
927.157 .0260448
927.798 .0260295
928.439 .0260133
929.079 .0259958
929.719 .0259770
930.359 .0259569
930.998 .0259364
931.637 .0259163
932.275 .0258972
932.913 .0258796
933.551 .0258641
934.188 .0258510
934.825 .0258402
935.462 .0258310
936.098 .0258229
936.733 .0258156
937.369 .0258089
938.004 .0258027
938.638 .0257972
939.273 .0257927
939.907 .0257891
940.540 .0257870
941.173 .0257862
941.806 .0257859
942.438 .0257859
943.070 .0257858
943.702 .0257847
944.333 .0257826
944.964 .0257793
945.594 .0257751
946.224 .0257707
946.854 .0257667
947.483 .0257633
948.112 .0257606
948.741 .0257587
949.369 .0257570
949.996 .0257549
950.624 .0257528
951.251 .0257502
951.878 .0257469
952.504 .0257439
953.130 .0257408
953.755 .0257376
954.380 .0257346
955.005 .0257315
955.629 .0257278
956.253 .0257230
956.877 .0257168
957.500 .0257087
958.123 .0256988
958.746 .0256873
959.368 .0256742
959.990 .0256600
960.611 .0256449
961.232 .0256293
961.853 .0256128
962.473 .0255955
963.093 .0255771
963.712 .0255574
964.331 .0255369
964.950 .0255159
965.569 .0254947
966.187 .0254735
966.804 .0254535
967.422 .0254350
968.039 .0254182
968.655 .0254026
969.272 .0253878
969.887 .0253731
970.503 .0253580
971.118 .0253421
971.733 .0253253
972.347 .0253081
972.961 .0252907
973.575 .0252732
974.188 .0252560
974.801 .0252390
975.414 .0252223
976.026 .0252057
976.638 .0251890
977.250 .0251713
977.861 .0251526
978.472 .0251327
979.083 .0251119
979.693 .0250905
980.303 .0250683
980.912 .0250462
981.521 .0250240
982.130 .0250020
982.738 .0249803
983.346 .0249587
983.954 .0249371
984.562 .0249154
985.169 .0248931
985.775 .0248699
986.382 .0248453
986.988 .0248198
987.594 .0247938
988.199 .0247677
988.804 .0247420
989.409 .0247172
990.013 .0246941
990.617 .0246732
991.221 .0246534
991.824 .0246355
992.427 .0246193
993.030 .0246044
993.632 .0245907
994.234 .0245786
994.836 .0245676
995.438 .0245581
996.039 .0245503
996.640 .0245439
997.240 .0245395
997.840 .0245363
998.440 .0245343
999.040 .0245332
999.639 .0245328
1000.238 .0245320
1000.836 .0245308
1001.435 .0245290
1002.033 .0245260
1002.630 .0245215
1003.228 .0245162
1003.825 .0245103
1004.422 .0245045
1005.018 .0244990
1005.614 .0244940
1006.210 .0244894
1006.806 .0244855
1007.401 .0244806
1007.996 .0244762
1008.591 .0244712
1009.186 .0244657
1009.780 .0244596
1010.374 .0244535
1010.967 .0244472
1011.561 .0244412
1012.154 .0244354
1012.746 .0244302
1013.339 .0244250
1013.931 .0244201
1014.523 .0244142
1015.115 .0244083
1015.706 .0244018
1016.298 .0243953
1016.888 .0243885
1017.479 .0243825
1018.069 .0243767
1018.660 .0243717
1019.250 .0243676
1019.839 .0243652
1020.429 .0243640
1021.018 .0243638
1021.607 .0243650
1022.195 .0243672
1022.784 .0243698
1023.372 .0243733
1023.960 .0243777
1024.547 .0243836
1025.135 .0243911
1025.722 .0244006
1026.309 .0244123
1026.896 .0244268
1027.483 .0244439
1028.069 .0244622
1028.655 .0244821
1029.241 .0245026
1029.827 .0245226
1030.412 .0245420
1030.997 .0245610
1031.582 .0245790
1032.167 .0245964
1032.752 .0246134
1033.336 .0246296
1033.921 .0246450
1034.505 .0246595
1035.089 .0246726
1035.672 .0246846
1036.256 .0246955
1036.839 .0247057
1037.422 .0247149
1038.005 .0247243
1038.588 .0247332
1039.171 .0247422
1039.753 .0247518
1040.335 .0247615
1040.918 .0247713
1041.500 .0247820
1042.081 .0247932
1042.663 .0248046
1043.244 .0248160
1043.826 .0248275
1044.407 .0248384
1044.988 .0248495
1045.569 .0248606
1046.150 .0248715
1046.730 .0248828
1047.311 .0248953
1047.891 .0249081
1048.471 .0249216
1049.052 .0249353
1049.632 .0249479
1050.211 .0249599
1050.791 .0249714
1051.371 .0249816
1051.950 .0249917
1052.530 .0250029
1053.109 .0250145
1053.688 .0250271
1054.268 .0250409
1054.847 .0250544
1055.426 .0250675
1056.005 .0250793
1056.583 .0250888
1057.162 .0250959
1057.741 .0251027
1058.319 .0251091
1058.898 .0251163
1059.476 .0251251
1060.055 .0251345
1060.633 .0251444
1061.211 .0251540
1061.790 .0251627
1062.368 .0251703
1062.946 .0251771
1063.524 .0251827
1064.102 .0251878
1064.680 .0251946
1065.258 .0252017
1065.836 .0252101
1066.414 .0252195
1066.992 .0252290
1067.570 .0252387
1068.148 .0252466
1068.726 .0252540
1069.304 .0252608
1069.882 .0252693
1070.460 .0252796
1071.038 .0252915
1071.616 .0253070
1072.194 .0253252
1072.772 .0253471
1073.350 .0253720
1073.928 .0253984
1074.506 .0254243
1075.084 .0254494
1075.662 .0254730
1076.240 .0254948
1076.819 .0255146
1077.397 .0255323
1077.976 .0255483
1078.554 .0255624
1079.133 .0255740
1079.711 .0255832
1080.290 .0255915
1080.869 .0255988
1081.448 .0256030
1082.027 .0256060
1082.606 .0256068
1083.185 .0256074
1083.764 .0256089
1084.343 .0256113
1084.923 .0256152
1085.502 .0256231
1086.082 .0256335
1086.662 .0256466
1087.242 .0256624
1087.822 .0256799
1088.402 .0256972
1088.983 .0257162
1089.563 .0257350
1090.144 .0257528
1090.725 .0257720
1091.306 .0257919
1091.887 .0258118
1092.469 .0258324
1093.050 .0258520
1093.632 .0258710
1094.214 .0258897
1094.796 .0259077
1095.379 .0259224
1095.961 .0259393
1096.544 .0259591
1097.127 .0259810
1097.710 .0260081
1098.294 .0260399
1098.877 .0260750
1099.461 .0261120
1100.046 .0261486
1100.630 .0261818
1101.215 .0262134
1101.800 .0262429
1102.385 .0262692
1102.970 .0262959
1103.556 .0263227
1104.142 .0263495
1104.728 .0263779
1105.315 .0264059
1105.902 .0264282
1106.489 .0264440
1107.077 .0264527
1107.664 .0264534
1108.253 .0264479
1108.841 .0264383
1109.430 .0264287
1110.019 .0264220
1110.609 .0264189
1111.198 .0264175
1111.789 .0264188
1112.379 .0264224
1112.970 .0264225
1113.561 .0264198
1114.153 .0264144
1114.745 .0264086
1115.338 .0264057
1115.931 .0264054
1116.524 .0264121
1117.117 .0264277
1117.712 .0264528
1118.306 .0264863
1118.901 .0265266
1119.496 .0265714
1120.092 .0266187
1120.689 .0266685
1121.285 .0267220
1121.882 .0267770
1122.480 .0268338
1123.078 .0268972
1123.677 .0269647
1124.276 .0270373
1124.875 .0271153
1125.476 .0271986
1126.076 .0272884
1126.677 .0273833
1127.279 .0274797
1127.881 .0275746
1128.484 .0276710
1129.087 .0277674
1129.691 .0278564
1130.295 .0279427
1130.900 .0280238
1131.505 .0281001
1132.111 .0281724
1132.718 .0282434
1133.325 .0283161
1133.933 .0283922
1134.541 .0284740
1135.150 .0285587
1135.760 .0286460
1136.370 .0287346
1136.981 .0288195
1137.592 .0288982
1138.204 .0289692
1138.817 .0290360
1139.431 .0291036
1140.045 .0291776
1140.660 .0292524
1141.275 .0293437
1141.891 .0294254
1142.508 .0296103
1143.126 .0298197
1143.744 .0296164
1144.363 .0299937
1144.983 .0295089
