Measurement Sequence started on: 15-12-46-377
Integration time: 28
Scans to Average: 2 
>>>>>Begin Spectral Data<<<<<
432.689 .0000100
433.621 .0000100
434.552 .0000100
435.482 .0000100
436.410 .0000100
437.337 .0000100
438.262 .0286564
439.187 .0608566
440.110 .1007432
441.031 .1457379
441.952 .1893348
442.871 .2235232
443.789 .2420510
444.705 .2427918
445.621 .2284063
446.535 .2046501
447.447 .1778157
448.359 .1370877
449.269 .1166369
450.178 .1037402
451.086 .0945492
451.993 .0875351
452.898 .0819937
453.803 .0774726
454.706 .0737397
455.608 .0705938
456.508 .0679166
457.408 .0656156
458.306 .0635882
459.204 .0617841
460.100 .0601586
460.995 .0586967
461.888 .0573723
462.781 .0561702
463.673 .0550746
464.563 .0540807
465.452 .0531689
466.340 .0523364
467.228 .0515817
468.114 .0508938
468.999 .0502705
469.882 .0496957
470.765 .0491759
471.647 .0487077
472.528 .0482885
473.407 .0479258
474.286 .0476128
475.163 .0473517
476.040 .0471399
476.915 .0469677
477.790 .0468190
478.663 .0466947
479.535 .0465861
480.407 .0464824
481.277 .0463861
482.147 .0462988
483.015 .0462225
483.883 .0461599
484.749 .0461107
485.615 .0460721
486.479 .0460402
487.343 .0460193
488.206 .0459999
489.067 .0459856
489.928 .0459687
490.788 .0459560
491.647 .0459508
492.505 .0459657
493.362 .0460020
494.218 .0460661
495.073 .0461640
495.928 .0463022
496.781 .0464656
497.634 .0466683
498.486 .0469024
499.337 .0471686
500.187 .0474503
501.036 .0477462
501.884 .0480503
502.731 .0483629
503.578 .0486753
504.424 .0489926
505.268 .0493043
506.113 .0496354
506.956 .0499789
507.798 .0503544
508.640 .0507789
509.480 .0512645
510.320 .0518242
511.160 .0524768
511.998 .0532085
512.836 .0540309
513.672 .0549446
514.508 .0559789
515.344 .0571453
516.178 .0584771
517.012 .0600283
517.845 .0618498
518.677 .0639979
519.508 .0665091
520.339 .0694328
521.169 .0728231
521.998 .0766761
522.826 .0809868
523.654 .0858068
524.481 .0910540
525.307 .0967788
526.133 .1029123
526.958 .1094541
527.782 .1163250
528.605 .1233673
529.428 .1305114
530.250 .1373070
531.072 .1434838
531.892 .1487385
532.712 .1527181
533.532 .1553075
534.350 .1561642
535.168 .1552633
535.986 .1526672
536.802 .1485389
537.618 .1431580
538.434 .1367566
539.249 .1298090
540.063 .1226056
540.876 .1154124
541.689 .1084847
542.501 .1020023
543.313 .0961224
544.124 .0908199
544.934 .0860318
545.744 .0817043
546.553 .0777911
547.361 .0742519
548.169 .0711150
548.976 .0683001
549.783 .0657973
550.589 .0635869
551.395 .0615964
552.200 .0598223
553.004 .0582178
553.808 .0567360
554.611 .0553896
555.414 .0541656
556.216 .0530575
557.018 .0520604
557.819 .0511739
558.619 .0503749
559.419 .0496419
560.218 .0489663
561.017 .0483191
561.815 .0476761
562.613 .0470386
563.410 .0464049
564.207 .0457669
565.003 .0451414
565.799 .0445286
566.594 .0439196
567.388 .0433268
568.182 .0427369
568.976 .0421450
569.769 .0415564
570.562 .0409722
571.354 .0403920
572.145 .0398320
572.936 .0393005
573.727 .0387952
574.517 .0383197
575.307 .0378785
576.096 .0374641
576.885 .0370711
577.673 .0366960
578.461 .0363360
579.248 .0359935
580.035 .0356740
580.821 .0353740
581.607 .0350969
582.392 .0348478
583.177 .0346216
583.962 .0344144
584.746 .0342260
585.529 .0340514
586.313 .0338893
587.095 .0337384
587.878 .0335981
588.660 .0334684
589.441 .0333477
590.222 .0332387
591.003 .0331396
591.783 .0330488
592.563 .0329646
593.342 .0328849
594.121 .0328094
594.899 .0327382
595.678 .0326694
596.455 .0326027
597.233 .0325396
598.009 .0324801
598.786 .0324233
599.562 .0323703
600.338 .0323204
601.113 .0322728
601.888 .0322275
602.663 .0321846
603.437 .0321427
604.211 .0321025
604.984 .0320638
605.757 .0320259
606.530 .0319887
607.302 .0319522
608.074 .0319156
608.845 .0318788
609.616 .0318427
610.387 .0318065
611.158 .0317704
611.928 .0317350
612.697 .0316995
613.467 .0316656
614.236 .0316332
615.004 .0316023
615.773 .0315727
616.541 .0315444
617.308 .0315174
618.076 .0314919
618.843 .0314675
619.609 .0314448
620.375 .0314234
621.141 .0314033
621.907 .0313846
622.672 .0313674
623.437 .0313513
624.202 .0313364
624.966 .0313217
625.730 .0313066
626.493 .0312898
627.257 .0312708
628.020 .0312489
628.782 .0312245
629.545 .0311983
630.307 .0311705
631.068 .0311415
631.830 .0311136
632.591 .0310861
633.352 .0310597
634.112 .0310344
634.872 .0310095
635.632 .0309840
636.392 .0309577
637.151 .0309299
637.910 .0309011
638.668 .0308723
639.427 .0308445
640.185 .0308174
640.943 .0307929
641.700 .0307705
642.457 .0307497
643.214 .0307300
643.971 .0307107
644.727 .0306901
645.483 .0306684
646.239 .0306449
646.994 .0306195
647.750 .0305935
648.505 .0305677
649.259 .0305423
650.014 .0305185
650.768 .0304964
651.521 .0304756
652.275 .0304551
653.028 .0304349
653.781 .0304135
654.534 .0303907
655.286 .0303664
656.039 .0303403
656.791 .0303134
657.542 .0302854
658.294 .0302569
659.045 .0302292
659.796 .0302021
660.546 .0301753
661.297 .0301485
662.047 .0301215
662.796 .0300932
663.546 .0300642
664.295 .0300346
665.044 .0300046
665.793 .0299757
666.542 .0299480
667.290 .0299215
668.038 .0298973
668.786 .0298749
669.533 .0298534
670.281 .0298328
671.028 .0298129
671.774 .0297926
672.521 .0297721
673.267 .0297519
674.013 .0297319
674.759 .0297127
675.505 .0296945
676.250 .0296768
676.995 .0296594
677.740 .0296423
678.484 .0296246
679.229 .0296063
679.973 .0295875
680.717 .0295681
681.460 .0295487
682.204 .0295291
682.947 .0295095
683.690 .0294903
684.433 .0294716
685.175 .0294533
685.917 .0294351
686.659 .0294171
687.401 .0293989
688.142 .0293810
688.884 .0293630
689.625 .0293447
690.365 .0293259
691.106 .0293065
691.846 .0292864
692.586 .0292654
693.326 .0292435
694.066 .0292207
694.805 .0291978
695.545 .0291747
696.284 .0291510
697.022 .0291273
697.761 .0291035
698.499 .0290798
699.237 .0290562
699.975 .0290326
700.713 .0290093
701.450 .0289868
702.187 .0289654
702.924 .0289449
703.661 .0289261
704.397 .0289088
705.133 .0288933
705.869 .0288790
706.605 .0288660
707.341 .0288537
708.076 .0288419
708.811 .0288304
709.546 .0288188
710.281 .0288066
711.015 .0287940
711.749 .0287809
712.483 .0287679
713.217 .0287539
713.950 .0287394
714.684 .0287242
715.417 .0287084
716.150 .0286914
716.882 .0286736
717.615 .0286551
718.347 .0286365
719.079 .0286179
719.811 .0285999
720.542 .0285827
721.273 .0285667
722.005 .0285514
722.735 .0285369
723.466 .0285226
724.196 .0285083
724.927 .0284927
725.656 .0284768
726.386 .0284604
727.116 .0284438
727.845 .0284271
728.574 .0284112
729.303 .0283961
730.031 .0283820
730.760 .0283683
731.488 .0283541
732.216 .0283399
732.944 .0283251
733.671 .0283093
734.398 .0282931
735.125 .0282767
735.852 .0282606
736.579 .0282449
737.305 .0282308
738.031 .0282178
738.757 .0282061
739.483 .0281955
740.208 .0281852
740.933 .0281751
741.658 .0281642
742.383 .0281523
743.108 .0281398
743.832 .0281267
744.556 .0281126
745.280 .0280981
746.004 .0280836
746.727 .0280693
747.450 .0280556
748.173 .0280423
748.896 .0280294
749.618 .0280170
750.340 .0280043
751.062 .0279912
751.784 .0279779
752.506 .0279646
753.227 .0279511
753.948 .0279380
754.669 .0279254
755.389 .0279133
756.110 .0279024
756.830 .0278922
757.550 .0278825
758.269 .0278732
758.989 .0278637
759.708 .0278534
760.427 .0278421
761.146 .0278298
761.864 .0278162
762.582 .0278017
763.300 .0277862
764.018 .0277696
764.736 .0277525
765.453 .0277352
766.170 .0277175
766.887 .0276998
767.603 .0276824
768.320 .0276653
769.036 .0276491
769.751 .0276338
770.467 .0276194
771.182 .0276061
771.897 .0275938
772.612 .0275823
773.327 .0275715
774.041 .0275619
774.755 .0275527
775.469 .0275442
776.183 .0275368
776.896 .0275297
777.609 .0275227
778.322 .0275164
779.035 .0275105
779.747 .0275048
780.459 .0274990
781.171 .0274928
781.882 .0274864
782.594 .0274797
783.305 .0274727
784.016 .0274650
784.726 .0274574
785.436 .0274499
786.147 .0274420
786.856 .0274347
787.566 .0274278
788.275 .0274213
788.984 .0274153
789.693 .0274094
790.401 .0274031
791.110 .0273963
791.818 .0273886
792.525 .0273799
793.233 .0273704
793.940 .0273597
794.647 .0273482
795.353 .0273360
796.060 .0273236
796.766 .0273107
797.472 .0272973
798.177 .0272836
798.883 .0272693
799.588 .0272544
800.292 .0272390
800.997 .0272232
801.701 .0272073
802.405 .0271918
803.109 .0271769
803.812 .0271632
804.515 .0271506
805.218 .0271390
805.921 .0271282
806.623 .0271176
807.325 .0271072
808.027 .0270966
808.728 .0270859
809.429 .0270751
810.130 .0270640
810.831 .0270528
811.531 .0270415
812.231 .0270299
812.931 .0270176
813.630 .0270046
814.330 .0269901
815.029 .0269740
815.727 .0269560
816.426 .0269368
817.124 .0269163
817.821 .0268953
818.519 .0268743
819.216 .0268536
819.913 .0268336
820.609 .0268149
821.306 .0267971
822.002 .0267805
822.697 .0267649
823.393 .0267502
824.088 .0267360
824.783 .0267228
825.477 .0267101
826.171 .0266981
826.865 .0266875
827.559 .0266780
828.252 .0266692
828.945 .0266620
829.638 .0266556
830.330 .0266499
831.023 .0266443
831.714 .0266387
832.406 .0266324
833.097 .0266255
833.788 .0266178
834.479 .0266094
835.169 .0266007
835.859 .0265923
836.548 .0265840
837.238 .0265758
837.927 .0265678
838.615 .0265593
839.304 .0265501
839.992 .0265401
840.680 .0265288
841.367 .0265161
842.054 .0265028
842.741 .0264894
843.428 .0264761
844.114 .0264637
844.800 .0264520
845.485 .0264406
846.170 .0264295
846.855 .0264182
847.540 .0264062
848.224 .0263938
848.908 .0263812
849.592 .0263683
850.275 .0263555
850.958 .0263432
851.641 .0263317
852.323 .0263210
853.005 .0263110
853.687 .0263007
854.368 .0262898
855.049 .0262783
855.730 .0262658
856.410 .0262521
857.090 .0262381
857.769 .0262236
858.449 .0262085
859.128 .0261932
859.806 .0261778
860.485 .0261624
861.163 .0261479
861.840 .0261338
862.518 .0261199
863.195 .0261063
863.871 .0260927
864.548 .0260791
865.224 .0260658
865.899 .0260527
866.574 .0260400
867.249 .0260272
867.924 .0260151
868.598 .0260032
869.272 .0259922
869.946 .0259821
870.619 .0259730
871.292 .0259647
871.964 .0259568
872.636 .0259490
873.308 .0259414
873.979 .0259336
874.651 .0259261
875.321 .0259186
875.992 .0259115
876.662 .0259050
877.331 .0258990
878.001 .0258935
878.670 .0258890
879.338 .0258851
880.007 .0258816
880.675 .0258781
881.342 .0258743
882.009 .0258698
882.676 .0258644
883.343 .0258583
884.009 .0258513
884.675 .0258434
885.340 .0258350
886.005 .0258256
886.670 .0258161
887.334 .0258067
887.998 .0257978
888.662 .0257902
889.325 .0257840
889.988 .0257790
890.650 .0257753
891.312 .0257731
891.974 .0257720
892.636 .0257721
893.297 .0257737
893.957 .0257768
894.618 .0257811
895.278 .0257866
895.937 .0257935
896.596 .0258015
897.255 .0258105
897.914 .0258199
898.572 .0258288
899.230 .0258371
899.887 .0258436
900.544 .0258480
901.201 .0258506
901.857 .0258514
902.513 .0258501
903.168 .0258466
903.823 .0258410
904.478 .0258334
905.132 .0258236
905.786 .0258119
906.440 .0257985
907.093 .0257838
907.746 .0257677
908.399 .0257506
909.051 .0257328
909.703 .0257150
910.354 .0256969
911.005 .0256794
911.656 .0256618
912.306 .0256441
912.956 .0256266
913.605 .0256092
914.254 .0255930
914.903 .0255779
915.551 .0255646
916.199 .0255532
916.847 .0255440
917.494 .0255365
918.141 .0255303
918.788 .0255252
919.434 .0255206
920.079 .0255159
920.725 .0255109
921.370 .0255053
922.014 .0254993
922.658 .0254930
923.302 .0254864
923.946 .0254792
924.589 .0254713
925.231 .0254617
925.873 .0254509
926.515 .0254383
927.157 .0254238
927.798 .0254075
928.439 .0253900
929.079 .0253714
929.719 .0253519
930.359 .0253318
930.998 .0253117
931.637 .0252916
932.275 .0252722
932.913 .0252530
933.551 .0252347
934.188 .0252174
934.825 .0252014
935.462 .0251865
936.098 .0251729
936.733 .0251603
937.369 .0251483
938.004 .0251371
938.638 .0251261
939.273 .0251151
939.907 .0251046
940.540 .0250949
941.173 .0250863
941.806 .0250792
942.438 .0250737
943.070 .0250690
943.702 .0250652
944.333 .0250614
944.964 .0250568
945.594 .0250513
946.224 .0250452
946.854 .0250386
947.483 .0250323
948.112 .0250271
948.741 .0250229
949.369 .0250205
949.996 .0250198
950.624 .0250194
951.251 .0250190
951.878 .0250177
952.504 .0250149
953.130 .0250102
953.755 .0250039
954.380 .0249963
955.005 .0249876
955.629 .0249785
956.253 .0249694
956.877 .0249603
957.500 .0249513
958.123 .0249418
958.746 .0249317
959.368 .0249209
959.990 .0249092
960.611 .0248965
961.232 .0248834
961.853 .0248700
962.473 .0248566
963.093 .0248433
963.712 .0248304
964.331 .0248178
964.950 .0248053
965.569 .0247932
966.187 .0247818
966.804 .0247708
967.422 .0247609
968.039 .0247520
968.655 .0247442
969.272 .0247368
969.887 .0247299
970.503 .0247225
971.118 .0247149
971.733 .0247071
972.347 .0246990
972.961 .0246902
973.575 .0246816
974.188 .0246725
974.801 .0246633
975.414 .0246539
976.026 .0246443
976.638 .0246339
977.250 .0246233
977.861 .0246122
978.472 .0246005
979.083 .0245887
979.693 .0245771
980.303 .0245648
980.912 .0245523
981.521 .0245390
982.130 .0245249
982.738 .0245101
983.346 .0244952
983.954 .0244800
984.562 .0244647
985.169 .0244495
985.775 .0244343
986.382 .0244196
986.988 .0244059
987.594 .0243927
988.199 .0243798
988.804 .0243675
989.409 .0243553
990.013 .0243432
990.617 .0243313
991.221 .0243195
991.824 .0243083
992.427 .0242977
993.030 .0242879
993.632 .0242791
994.234 .0242721
994.836 .0242669
995.438 .0242628
996.039 .0242595
996.640 .0242562
997.240 .0242522
997.840 .0242479
998.440 .0242427
999.040 .0242370
999.639 .0242313
1000.238 .0242263
1000.836 .0242223
1001.435 .0242201
1002.033 .0242197
1002.630 .0242211
1003.228 .0242236
1003.825 .0242263
1004.422 .0242282
1005.018 .0242293
1005.614 .0242292
1006.210 .0242281
1006.806 .0242260
1007.401 .0242237
1007.996 .0242211
1008.591 .0242185
1009.186 .0242158
1009.780 .0242133
1010.374 .0242104
1010.967 .0242064
1011.561 .0242012
1012.154 .0241948
1012.746 .0241874
1013.339 .0241794
1013.931 .0241712
1014.523 .0241637
1015.115 .0241571
1015.706 .0241514
1016.298 .0241470
1016.888 .0241437
1017.479 .0241402
1018.069 .0241363
1018.660 .0241318
1019.250 .0241265
1019.839 .0241210
1020.429 .0241149
1021.018 .0241092
1021.607 .0241047
1022.195 .0241009
1022.784 .0240979
1023.372 .0240961
1023.960 .0240951
1024.547 .0240948
1025.135 .0240950
1025.722 .0240965
1026.309 .0240995
1026.896 .0241042
1027.483 .0241113
1028.069 .0241196
1028.655 .0241301
1029.241 .0241411
1029.827 .0241511
1030.412 .0241609
1030.997 .0241693
1031.582 .0241762
1032.167 .0241815
1032.752 .0241858
1033.336 .0241898
1033.921 .0241940
1034.505 .0241987
1035.089 .0242040
1035.672 .0242098
1036.256 .0242155
1036.839 .0242208
1037.422 .0242249
1038.005 .0242285
1038.588 .0242303
1039.171 .0242316
1039.753 .0242326
1040.335 .0242327
1040.918 .0242331
1041.500 .0242335
1042.081 .0242342
1042.663 .0242351
1043.244 .0242351
1043.826 .0242345
1044.407 .0242324
1044.988 .0242295
1045.569 .0242241
1046.150 .0242173
1046.730 .0242090
1047.311 .0242001
1047.891 .0241905
1048.471 .0241816
1049.052 .0241735
1049.632 .0241664
1050.211 .0241609
1050.791 .0241560
1051.371 .0241517
1051.950 .0241487
1052.530 .0241455
1053.109 .0241428
1053.688 .0241399
1054.268 .0241367
1054.847 .0241326
1055.426 .0241289
1056.005 .0241246
1056.583 .0241204
1057.162 .0241169
1057.741 .0241139
1058.319 .0241113
1058.898 .0241098
1059.476 .0241091
1060.055 .0241087
1060.633 .0241085
1061.211 .0241080
1061.790 .0241062
1062.368 .0241035
1062.946 .0241001
1063.524 .0240967
1064.102 .0240935
1064.680 .0240919
1065.258 .0240913
1065.836 .0240927
1066.414 .0240955
1066.992 .0241003
1067.570 .0241075
1068.148 .0241159
1068.726 .0241257
1069.304 .0241364
1069.882 .0241481
1070.460 .0241616
1071.038 .0241753
1071.616 .0241910
1072.194 .0242072
1072.772 .0242229
1073.350 .0242374
1073.928 .0242503
1074.506 .0242607
1075.084 .0242684
1075.662 .0242735
1076.240 .0242777
1076.819 .0242801
1077.397 .0242827
1077.976 .0242860
1078.554 .0242898
1079.133 .0242947
1079.711 .0242999
1080.290 .0243045
1080.869 .0243106
1081.448 .0243170
1082.027 .0243257
1082.606 .0243377
1083.185 .0243539
1083.764 .0243735
1084.343 .0243961
1084.923 .0244209
1085.502 .0244454
1086.082 .0244669
1086.662 .0244850
1087.242 .0244975
1087.822 .0245058
1088.402 .0245090
1088.983 .0245089
1089.563 .0245067
1090.144 .0245035
1090.725 .0244986
1091.306 .0244912
1091.887 .0244823
1092.469 .0244726
1093.050 .0244632
1093.632 .0244555
1094.214 .0244506
1094.796 .0244506
1095.379 .0244584
1095.961 .0244746
1096.544 .0244978
1097.127 .0245272
1097.710 .0245605
1098.294 .0245968
1098.877 .0246334
1099.461 .0246694
1100.046 .0247044
1100.630 .0247386
1101.215 .0247740
1101.800 .0248083
1102.385 .0248414
1102.970 .0248733
1103.556 .0249019
1104.142 .0249272
1104.728 .0249472
1105.315 .0249606
1105.902 .0249679
1106.489 .0249733
1107.077 .0249790
1107.664 .0249868
1108.253 .0249988
1108.841 .0250158
1109.430 .0250383
1110.019 .0250656
1110.609 .0250945
1111.198 .0251227
1111.789 .0251522
1112.379 .0251816
1112.970 .0252083
1113.561 .0252340
1114.153 .0252607
1114.745 .0252895
1115.338 .0253204
1115.931 .0253533
1116.524 .0253851
1117.117 .0254208
1117.712 .0254587
1118.306 .0254993
1118.901 .0255436
1119.496 .0255895
1120.092 .0256386
1120.689 .0256902
1121.285 .0257448
1121.882 .0258005
1122.480 .0258565
1123.078 .0259156
1123.677 .0259751
1124.276 .0260389
1124.875 .0261044
1125.476 .0261734
1126.076 .0262459
1126.677 .0263200
1127.279 .0263855
1127.881 .0264442
1128.484 .0264967
1129.087 .0265393
1129.691 .0265786
1130.295 .0266142
1130.900 .0266521
1131.505 .0266962
1132.111 .0267465
1132.718 .0268033
1133.325 .0268649
1133.933 .0269352
1134.541 .0270047
1135.150 .0270728
1135.760 .0271430
1136.370 .0272149
1136.981 .0272938
1137.592 .0273804
1138.204 .0274738
1138.817 .0275741
1139.431 .0276783
1140.045 .0277908
1140.660 .0279148
1141.275 .0280517
1141.891 .0282230
1142.508 .0281600
1143.126 .0284756
1143.744 .0287711
1144.363 .0289789
1144.983 .0297536
