Measurement Sequence started on: 15-12-46-377
Integration time: 28
Scans to Average: 2 
>>>>>Begin Spectral Data<<<<<
432.689 .0000100
433.621 .0000100
434.552 .0000100
435.482 .0000100
436.410 .0000100
437.337 .0000100
438.262 .0266068
439.187 .0564157
440.110 .0935469
441.031 .1354176
441.952 .1760905
442.871 .2081356
443.789 .2257207
444.705 .2268054
445.621 .2138593
446.535 .1921743
447.447 .1675662
448.359 .1299987
449.269 .1112551
450.178 .0993552
451.086 .0909995
451.993 .0846494
452.898 .0796595
453.803 .0756268
454.706 .0723283
455.608 .0695007
456.508 .0670821
457.408 .0649886
458.306 .0631310
459.204 .0614833
460.100 .0600065
460.995 .0586936
461.888 .0575301
462.781 .0564881
463.673 .0555392
464.563 .0546786
465.452 .0538824
466.340 .0531208
467.228 .0524055
468.114 .0517267
468.999 .0510832
469.882 .0504677
470.765 .0498969
471.647 .0493557
472.528 .0488556
473.407 .0483938
474.286 .0479675
475.163 .0475826
476.040 .0472368
476.915 .0469259
477.790 .0466510
478.663 .0464113
479.535 .0462038
480.407 .0460214
481.277 .0458658
482.147 .0457314
483.015 .0456186
483.883 .0455278
484.749 .0454612
485.615 .0454154
486.479 .0453959
487.343 .0454038
488.206 .0454396
489.067 .0454941
489.928 .0455595
490.788 .0456358
491.647 .0457098
492.505 .0457828
493.362 .0458535
494.218 .0459239
495.073 .0460040
495.928 .0461049
496.781 .0462231
497.634 .0463763
498.486 .0465648
499.337 .0467867
500.187 .0470292
501.036 .0473020
501.884 .0475943
502.731 .0479020
503.578 .0482301
504.424 .0485871
505.268 .0489612
506.113 .0493714
506.956 .0498178
507.798 .0503202
508.640 .0508860
509.480 .0515153
510.320 .0522108
511.160 .0529909
511.998 .0538404
512.836 .0547632
513.672 .0557522
514.508 .0568412
515.344 .0580238
516.178 .0593153
517.012 .0607624
517.845 .0623973
518.677 .0642460
519.508 .0663427
520.339 .0687344
521.169 .0715006
521.998 .0746468
522.826 .0781977
523.654 .0822413
524.481 .0867612
525.307 .0918178
526.133 .0973961
526.958 .1035450
527.782 .1102374
528.605 .1172762
529.428 .1245016
530.250 .1314466
531.072 .1378094
531.892 .1432078
532.712 .1472837
533.532 .1499154
534.350 .1509265
535.168 .1502244
535.986 .1479302
536.802 .1442526
537.618 .1394320
538.434 .1336768
539.249 .1273407
540.063 .1206367
540.876 .1138178
541.689 .1071130
542.501 .1007278
543.313 .0948146
544.124 .0894969
544.934 .0846916
545.744 .0803547
546.553 .0764891
547.361 .0730341
548.169 .0699845
548.976 .0672597
549.783 .0648233
550.589 .0626235
551.395 .0606074
552.200 .0587758
553.004 .0571040
553.808 .0555733
554.611 .0541849
555.414 .0529344
556.216 .0518145
557.018 .0508136
557.819 .0499320
558.619 .0491400
559.419 .0484314
560.218 .0477928
561.017 .0472003
561.815 .0466387
562.613 .0460973
563.410 .0455679
564.207 .0450414
565.003 .0445231
565.799 .0440099
566.594 .0434988
567.388 .0429994
568.182 .0424944
568.976 .0419800
569.769 .0414566
570.562 .0409234
571.354 .0403802
572.145 .0398372
572.936 .0393041
573.727 .0387853
574.517 .0382937
575.307 .0378289
576.096 .0373956
576.885 .0369874
577.673 .0366053
578.461 .0362458
579.248 .0359078
580.035 .0355874
580.821 .0352851
581.607 .0349996
582.392 .0347332
583.177 .0344840
583.962 .0342538
584.746 .0340420
585.529 .0338481
586.313 .0336713
587.095 .0335124
587.878 .0333703
588.660 .0332457
589.441 .0331373
590.222 .0330428
591.003 .0329617
591.783 .0328913
592.563 .0328274
593.342 .0327693
594.121 .0327141
594.899 .0326628
595.678 .0326138
596.455 .0325655
597.233 .0325193
598.009 .0324742
598.786 .0324300
599.562 .0323863
600.338 .0323409
601.113 .0322939
601.888 .0322447
602.663 .0321938
603.437 .0321425
604.211 .0320916
604.984 .0320414
605.757 .0319933
606.530 .0319476
607.302 .0319041
608.074 .0318630
608.845 .0318250
609.616 .0317897
610.387 .0317563
611.158 .0317248
611.928 .0316940
612.697 .0316646
613.467 .0316370
614.236 .0316103
615.004 .0315845
615.773 .0315598
616.541 .0315358
617.308 .0315125
618.076 .0314898
618.843 .0314672
619.609 .0314447
620.375 .0314226
621.141 .0314006
621.907 .0313779
622.672 .0313548
623.437 .0313308
624.202 .0313065
624.966 .0312818
625.730 .0312560
626.493 .0312299
627.257 .0312034
628.020 .0311766
628.782 .0311494
629.545 .0311217
630.307 .0310934
631.068 .0310654
631.830 .0310378
632.591 .0310099
633.352 .0309823
634.112 .0309548
634.872 .0309272
635.632 .0309002
636.392 .0308728
637.151 .0308453
637.910 .0308179
638.668 .0307911
639.427 .0307645
640.185 .0307384
640.943 .0307134
641.700 .0306892
642.457 .0306657
643.214 .0306426
643.971 .0306190
644.727 .0305958
645.483 .0305725
646.239 .0305488
646.994 .0305244
647.750 .0304994
648.505 .0304742
649.259 .0304494
650.014 .0304254
650.768 .0304021
651.521 .0303796
652.275 .0303582
653.028 .0303375
653.781 .0303172
654.534 .0302970
655.286 .0302767
656.039 .0302554
656.791 .0302334
657.542 .0302093
658.294 .0301843
659.045 .0301592
659.796 .0301340
660.546 .0301094
661.297 .0300854
662.047 .0300628
662.796 .0300407
663.546 .0300194
664.295 .0299984
665.044 .0299768
665.793 .0299556
666.542 .0299338
667.290 .0299112
668.038 .0298885
668.786 .0298663
669.533 .0298446
670.281 .0298237
671.028 .0298042
671.774 .0297853
672.521 .0297678
673.267 .0297512
674.013 .0297353
674.759 .0297196
675.505 .0297038
676.250 .0296874
676.995 .0296705
677.740 .0296532
678.484 .0296349
679.229 .0296171
679.973 .0295999
680.717 .0295834
681.460 .0295673
682.204 .0295517
682.947 .0295368
683.690 .0295221
684.433 .0295073
685.175 .0294921
685.917 .0294769
686.659 .0294616
687.401 .0294455
688.142 .0294289
688.884 .0294115
689.625 .0293935
690.365 .0293748
691.106 .0293553
691.846 .0293355
692.586 .0293158
693.326 .0292957
694.066 .0292760
694.805 .0292569
695.545 .0292377
696.284 .0292179
697.022 .0291976
697.761 .0291765
698.499 .0291547
699.237 .0291331
699.975 .0291119
700.713 .0290924
701.450 .0290748
702.187 .0290590
702.924 .0290450
703.661 .0290324
704.397 .0290198
705.133 .0290067
705.869 .0289927
706.605 .0289774
707.341 .0289608
708.076 .0289437
708.811 .0289264
709.546 .0289099
710.281 .0288940
711.015 .0288789
711.749 .0288636
712.483 .0288491
713.217 .0288334
713.950 .0288167
714.684 .0287990
715.417 .0287799
716.150 .0287597
716.882 .0287391
717.615 .0287181
718.347 .0286976
719.079 .0286776
719.811 .0286584
720.542 .0286398
721.273 .0286217
722.005 .0286039
722.735 .0285859
723.466 .0285682
724.196 .0285504
724.927 .0285319
725.656 .0285131
726.386 .0284943
727.116 .0284756
727.845 .0284570
728.574 .0284385
729.303 .0284205
730.031 .0284031
730.760 .0283864
731.488 .0283704
732.216 .0283552
732.944 .0283414
733.671 .0283287
734.398 .0283168
735.125 .0283056
735.852 .0282949
736.579 .0282838
737.305 .0282724
738.031 .0282608
738.757 .0282485
739.483 .0282353
740.208 .0282216
740.933 .0282078
741.658 .0281939
742.383 .0281800
743.108 .0281662
743.832 .0281524
744.556 .0281388
745.280 .0281249
746.004 .0281106
746.727 .0280962
747.450 .0280818
748.173 .0280669
748.896 .0280522
749.618 .0280380
750.340 .0280239
751.062 .0280103
751.784 .0279980
752.506 .0279862
753.227 .0279752
753.948 .0279643
754.669 .0279536
755.389 .0279425
756.110 .0279311
756.830 .0279187
757.550 .0279054
758.269 .0278916
758.989 .0278770
759.708 .0278612
760.427 .0278452
761.146 .0278286
761.864 .0278121
762.582 .0277957
763.300 .0277795
764.018 .0277631
764.736 .0277470
765.453 .0277309
766.170 .0277149
766.887 .0276988
767.603 .0276829
768.320 .0276671
769.036 .0276518
769.751 .0276364
770.467 .0276211
771.182 .0276057
771.897 .0275905
772.612 .0275748
773.327 .0275588
774.041 .0275426
774.755 .0275264
775.469 .0275109
776.183 .0274962
776.896 .0274829
777.609 .0274709
778.322 .0274600
779.035 .0274500
779.747 .0274407
780.459 .0274317
781.171 .0274227
781.882 .0274140
782.594 .0274056
783.305 .0273975
784.016 .0273904
784.726 .0273843
785.436 .0273793
786.147 .0273750
786.856 .0273715
787.566 .0273678
788.275 .0273642
788.984 .0273604
789.693 .0273557
790.401 .0273509
791.110 .0273454
791.818 .0273391
792.525 .0273320
793.233 .0273244
793.940 .0273157
794.647 .0273058
795.353 .0272954
796.060 .0272837
796.766 .0272710
797.472 .0272575
798.177 .0272430
798.883 .0272276
799.588 .0272118
800.292 .0271951
800.997 .0271781
801.701 .0271614
802.405 .0271444
803.109 .0271275
803.812 .0271115
804.515 .0270957
805.218 .0270799
805.921 .0270647
806.623 .0270499
807.325 .0270352
808.027 .0270215
808.728 .0270085
809.429 .0269958
810.130 .0269840
810.831 .0269722
811.531 .0269601
812.231 .0269473
812.931 .0269335
813.630 .0269181
814.330 .0269019
815.029 .0268850
815.727 .0268673
816.426 .0268495
817.124 .0268322
817.821 .0268151
818.519 .0267990
819.216 .0267836
819.913 .0267690
820.609 .0267550
821.306 .0267421
822.002 .0267304
822.697 .0267203
823.393 .0267120
824.088 .0267059
824.783 .0267013
825.477 .0266979
826.171 .0266952
826.865 .0266931
827.559 .0266912
828.252 .0266891
828.945 .0266867
829.638 .0266843
830.330 .0266818
831.023 .0266793
831.714 .0266764
832.406 .0266736
833.097 .0266700
833.788 .0266647
834.479 .0266577
835.169 .0266494
835.859 .0266397
836.548 .0266293
837.238 .0266186
837.927 .0266084
838.615 .0265985
839.304 .0265893
839.992 .0265806
840.680 .0265722
841.367 .0265635
842.054 .0265540
842.741 .0265439
843.428 .0265334
844.114 .0265224
844.800 .0265117
845.485 .0265017
846.170 .0264924
846.855 .0264835
847.540 .0264745
848.224 .0264652
848.908 .0264555
849.592 .0264449
850.275 .0264331
850.958 .0264206
851.641 .0264080
852.323 .0263950
853.005 .0263818
853.687 .0263688
854.368 .0263558
855.049 .0263425
855.730 .0263289
856.410 .0263148
857.090 .0263003
857.769 .0262859
858.449 .0262710
859.128 .0262561
859.806 .0262418
860.485 .0262277
861.163 .0262142
861.840 .0262017
862.518 .0261901
863.195 .0261788
863.871 .0261685
864.548 .0261593
865.224 .0261504
865.899 .0261420
866.574 .0261338
867.249 .0261255
867.924 .0261171
868.598 .0261080
869.272 .0260981
869.946 .0260885
870.619 .0260794
871.292 .0260706
871.964 .0260628
872.636 .0260563
873.308 .0260505
873.979 .0260451
874.651 .0260399
875.321 .0260340
875.992 .0260275
876.662 .0260206
877.331 .0260132
878.001 .0260063
878.670 .0260000
879.338 .0259950
880.007 .0259917
880.675 .0259901
881.342 .0259890
882.009 .0259881
882.676 .0259868
883.343 .0259844
884.009 .0259802
884.675 .0259748
885.340 .0259679
886.005 .0259604
886.670 .0259530
887.334 .0259461
887.998 .0259398
888.662 .0259347
889.325 .0259300
889.988 .0259262
890.650 .0259224
891.312 .0259187
891.974 .0259149
892.636 .0259120
893.297 .0259101
893.957 .0259093
894.618 .0259097
895.278 .0259115
895.937 .0259143
896.596 .0259182
897.255 .0259226
897.914 .0259268
898.572 .0259307
899.230 .0259344
899.887 .0259369
900.544 .0259387
901.201 .0259392
901.857 .0259386
902.513 .0259361
903.168 .0259322
903.823 .0259257
904.478 .0259168
905.132 .0259056
905.786 .0258926
906.440 .0258777
907.093 .0258620
907.746 .0258451
908.399 .0258280
909.051 .0258110
909.703 .0257943
910.354 .0257775
911.005 .0257615
911.656 .0257456
912.306 .0257302
912.956 .0257153
913.605 .0257013
914.254 .0256879
914.903 .0256758
915.551 .0256645
916.199 .0256542
916.847 .0256443
917.494 .0256345
918.141 .0256244
918.788 .0256141
919.434 .0256030
920.079 .0255906
920.725 .0255778
921.370 .0255649
922.014 .0255513
922.658 .0255376
923.302 .0255235
923.946 .0255090
924.589 .0254941
925.231 .0254784
925.873 .0254620
926.515 .0254450
927.157 .0254276
927.798 .0254095
928.439 .0253914
929.079 .0253733
929.719 .0253550
930.359 .0253374
930.998 .0253206
931.637 .0253038
932.275 .0252870
932.913 .0252703
933.551 .0252533
934.188 .0252358
934.825 .0252181
935.462 .0251995
936.098 .0251811
936.733 .0251628
937.369 .0251449
938.004 .0251280
938.638 .0251121
939.273 .0250971
939.907 .0250829
940.540 .0250696
941.173 .0250568
941.806 .0250443
942.438 .0250326
943.070 .0250214
943.702 .0250105
944.333 .0250003
944.964 .0249905
945.594 .0249813
946.224 .0249727
946.854 .0249644
947.483 .0249569
948.112 .0249502
948.741 .0249440
949.369 .0249387
949.996 .0249339
950.624 .0249295
951.251 .0249249
951.878 .0249204
952.504 .0249155
953.130 .0249097
953.755 .0249027
954.380 .0248945
955.005 .0248851
955.629 .0248749
956.253 .0248636
956.877 .0248519
957.500 .0248401
958.123 .0248279
958.746 .0248151
959.368 .0248017
959.990 .0247878
960.611 .0247731
961.232 .0247579
961.853 .0247424
962.473 .0247262
963.093 .0247099
963.712 .0246935
964.331 .0246777
964.950 .0246623
965.569 .0246472
966.187 .0246328
966.804 .0246187
967.422 .0246056
968.039 .0245930
968.655 .0245809
969.272 .0245693
969.887 .0245581
970.503 .0245466
971.118 .0245353
971.733 .0245242
972.347 .0245134
972.961 .0245031
973.575 .0244938
974.188 .0244848
974.801 .0244762
975.414 .0244679
976.026 .0244599
976.638 .0244512
977.250 .0244427
977.861 .0244331
978.472 .0244232
979.083 .0244133
979.693 .0244026
980.303 .0243910
980.912 .0243793
981.521 .0243666
982.130 .0243529
982.738 .0243384
983.346 .0243235
983.954 .0243077
984.562 .0242921
985.169 .0242762
985.775 .0242600
986.382 .0242436
986.988 .0242275
987.594 .0242109
988.199 .0241942
988.804 .0241778
989.409 .0241610
990.013 .0241450
990.617 .0241302
991.221 .0241162
991.824 .0241045
992.427 .0240954
993.030 .0240885
993.632 .0240832
994.234 .0240800
994.836 .0240778
995.438 .0240758
996.039 .0240746
996.640 .0240738
997.240 .0240736
997.840 .0240745
998.440 .0240771
999.040 .0240808
999.639 .0240861
1000.238 .0240921
1000.836 .0240974
1001.435 .0241019
1002.033 .0241040
1002.630 .0241028
1003.228 .0240986
1003.825 .0240920
1004.422 .0240838
1005.018 .0240742
1005.614 .0240654
1006.210 .0240571
1006.806 .0240504
1007.401 .0240442
1007.996 .0240384
1008.591 .0240327
1009.186 .0240265
1009.780 .0240194
1010.374 .0240114
1010.967 .0240035
1011.561 .0239961
1012.154 .0239899
1012.746 .0239856
1013.339 .0239833
1013.931 .0239831
1014.523 .0239837
1015.115 .0239854
1015.706 .0239873
1016.298 .0239899
1016.888 .0239920
1017.479 .0239948
1018.069 .0239990
1018.660 .0240037
1019.250 .0240092
1019.839 .0240154
1020.429 .0240221
1021.018 .0240291
1021.607 .0240349
1022.195 .0240406
1022.784 .0240456
1023.372 .0240508
1023.960 .0240557
1024.547 .0240612
1025.135 .0240683
1025.722 .0240766
1026.309 .0240851
1026.896 .0240949
1027.483 .0241050
1028.069 .0241152
1028.655 .0241245
1029.241 .0241339
1029.827 .0241432
1030.412 .0241520
1030.997 .0241610
1031.582 .0241706
1032.167 .0241799
1032.752 .0241895
1033.336 .0241983
1033.921 .0242068
1034.505 .0242152
1035.089 .0242229
1035.672 .0242291
1036.256 .0242346
1036.839 .0242389
1037.422 .0242415
1038.005 .0242429
1038.588 .0242443
1039.171 .0242448
1039.753 .0242457
1040.335 .0242480
1040.918 .0242518
1041.500 .0242571
1042.081 .0242651
1042.663 .0242744
1043.244 .0242855
1043.826 .0242973
1044.407 .0243078
1044.988 .0243180
1045.569 .0243273
1046.150 .0243350
1046.730 .0243409
1047.311 .0243457
1047.891 .0243488
1048.471 .0243496
1049.052 .0243484
1049.632 .0243449
1050.211 .0243396
1050.791 .0243325
1051.371 .0243231
1051.950 .0243131
1052.530 .0243028
1053.109 .0242926
1053.688 .0242823
1054.268 .0242733
1054.847 .0242647
1055.426 .0242580
1056.005 .0242529
1056.583 .0242496
1057.162 .0242489
1057.741 .0242511
1058.319 .0242564
1058.898 .0242656
1059.476 .0242772
1060.055 .0242908
1060.633 .0243055
1061.211 .0243206
1061.790 .0243345
1062.368 .0243472
1062.946 .0243577
1063.524 .0243667
1064.102 .0243741
1064.680 .0243789
1065.258 .0243808
1065.836 .0243812
1066.414 .0243800
1066.992 .0243776
1067.570 .0243753
1068.148 .0243731
1068.726 .0243720
1069.304 .0243735
1069.882 .0243772
1070.460 .0243833
1071.038 .0243936
1071.616 .0244066
1072.194 .0244213
1072.772 .0244375
1073.350 .0244547
1073.928 .0244736
1074.506 .0244939
1075.084 .0245151
1075.662 .0245365
1076.240 .0245580
1076.819 .0245781
1077.397 .0245952
1077.976 .0246097
1078.554 .0246201
1079.133 .0246262
1079.711 .0246298
1080.290 .0246312
1080.869 .0246306
1081.448 .0246295
1082.027 .0246279
1082.606 .0246261
1083.185 .0246241
1083.764 .0246207
1084.343 .0246162
1084.923 .0246112
1085.502 .0246062
1086.082 .0246017
1086.662 .0246005
1087.242 .0246033
1087.822 .0246095
1088.402 .0246194
1088.983 .0246321
1089.563 .0246465
1090.144 .0246620
1090.725 .0246774
1091.306 .0246917
1091.887 .0247060
1092.469 .0247208
1093.050 .0247372
1093.632 .0247563
1094.214 .0247793
1094.796 .0248047
1095.379 .0248324
1095.961 .0248615
1096.544 .0248896
1097.127 .0249170
1097.710 .0249428
1098.294 .0249664
1098.877 .0249892
1099.461 .0250112
1100.046 .0250338
1100.630 .0250569
1101.215 .0250830
1101.800 .0251087
1102.385 .0251354
1102.970 .0251611
1103.556 .0251839
1104.142 .0252032
1104.728 .0252220
1105.315 .0252388
1105.902 .0252557
1106.489 .0252744
1107.077 .0252953
1107.664 .0253192
1108.253 .0253474
1108.841 .0253772
1109.430 .0254096
1110.019 .0254411
1110.609 .0254720
1111.198 .0254995
1111.789 .0255292
1112.379 .0255578
1112.970 .0255866
1113.561 .0256180
1114.153 .0256509
1114.745 .0256832
1115.338 .0257155
1115.931 .0257459
1116.524 .0257735
1117.117 .0257973
1117.712 .0258186
1118.306 .0258360
1118.901 .0258552
1119.496 .0258744
1120.092 .0258977
1120.689 .0259263
1121.285 .0259602
1121.882 .0259963
1122.480 .0260388
1123.078 .0260863
1123.677 .0261366
1124.276 .0261886
1124.875 .0262471
1125.476 .0263085
1126.076 .0263750
1126.677 .0264467
1127.279 .0265228
1127.881 .0266008
1128.484 .0266797
1129.087 .0267538
1129.691 .0268246
1130.295 .0268916
1130.900 .0269538
1131.505 .0270124
1132.111 .0270723
1132.718 .0271310
1133.325 .0271941
1133.933 .0272647
1134.541 .0273469
1135.150 .0274365
1135.760 .0275346
1136.370 .0276415
1136.981 .0277543
1137.592 .0278722
1138.204 .0279973
1138.817 .0281272
1139.431 .0282661
1140.045 .0284138
1140.660 .0285662
1141.275 .0287311
1141.891 .0289273
1142.508 .0290785
1143.126 .0293571
1143.744 .0293514
1144.363 .0297042
1144.983 .0304648
