Measurement Sequence started on: 15-12-46-377
Integration time: 28
Scans to Average: 2 
>>>>>Begin Spectral Data<<<<<
432.689 .0000100
433.621 .0000100
434.552 .0000100
435.482 .0000100
436.410 .0000100
437.337 .0000100
438.262 .0262860
439.187 .0558470
440.110 .0925995
441.031 .1340767
441.952 .1744462
442.871 .2062954
443.789 .2238644
444.705 .2251521
445.621 .2125592
446.535 .1913289
447.447 .1672317
448.359 .1303264
449.269 .1119771
450.178 .1004654
451.086 .0924291
451.993 .0863290
452.898 .0815842
453.803 .0777597
454.706 .0746028
455.608 .0719010
456.508 .0695572
457.408 .0674865
458.306 .0656302
459.204 .0639281
460.100 .0623679
460.995 .0609252
461.888 .0595939
462.781 .0583656
463.673 .0572149
464.563 .0561474
465.452 .0551472
466.340 .0541881
467.228 .0532791
468.114 .0524147
468.999 .0515947
469.882 .0508225
470.765 .0501011
471.647 .0494423
472.528 .0488437
473.407 .0483162
474.286 .0478604
475.163 .0474754
476.040 .0471578
476.915 .0468951
477.790 .0466771
478.663 .0465025
479.535 .0463589
480.407 .0462386
481.277 .0461414
482.147 .0460649
483.015 .0460082
483.883 .0459752
484.749 .0459548
485.615 .0459603
486.479 .0459832
487.343 .0460288
488.206 .0460952
489.067 .0461719
489.928 .0462523
490.788 .0463351
491.647 .0464259
492.505 .0465193
493.362 .0466186
494.218 .0467285
495.073 .0468510
495.928 .0469939
496.781 .0471491
497.634 .0473193
498.486 .0475089
499.337 .0477163
500.187 .0479346
501.036 .0481683
501.884 .0484270
502.731 .0487066
503.578 .0490226
504.424 .0493816
505.268 .0497786
506.113 .0502195
506.956 .0507086
507.798 .0512521
508.640 .0518516
509.480 .0525197
510.320 .0532726
511.160 .0541383
511.998 .0551254
512.836 .0562238
513.672 .0574634
514.508 .0588340
515.344 .0603122
516.178 .0619063
517.012 .0636325
517.845 .0655412
518.677 .0676504
519.508 .0700154
520.339 .0726430
521.169 .0756194
521.998 .0789620
522.826 .0827061
523.654 .0868882
524.481 .0915019
525.307 .0965536
526.133 .1020119
526.958 .1078655
527.782 .1140474
528.605 .1204336
529.428 .1269925
530.250 .1331886
531.072 .1388303
531.892 .1435522
532.712 .1471193
533.532 .1493118
534.350 .1499981
535.168 .1490639
535.986 .1466260
536.802 .1428405
537.618 .1379660
538.434 .1322016
539.249 .1260268
540.063 .1195760
540.876 .1131223
541.689 .1068367
542.501 .1009300
543.313 .0954598
544.124 .0905415
544.934 .0860895
545.744 .0820674
546.553 .0783851
547.361 .0750347
548.169 .0719928
548.976 .0692092
549.783 .0666554
550.589 .0643257
551.395 .0621748
552.200 .0602199
553.004 .0584413
553.808 .0568231
554.611 .0553910
555.414 .0541357
556.216 .0530194
557.018 .0520405
557.819 .0511799
558.619 .0504084
559.419 .0497023
560.218 .0490510
561.017 .0484322
561.815 .0478458
562.613 .0472824
563.410 .0467312
564.207 .0461937
565.003 .0456667
565.799 .0451354
566.594 .0445898
567.388 .0440432
568.182 .0434848
568.976 .0429119
569.769 .0423377
570.562 .0417606
571.354 .0411851
572.145 .0406211
572.936 .0400641
573.727 .0395213
574.517 .0389941
575.307 .0384857
576.096 .0379964
576.885 .0375372
577.673 .0371141
578.461 .0367247
579.248 .0363693
580.035 .0360483
580.821 .0357537
581.607 .0354788
582.392 .0352238
583.177 .0349879
583.962 .0347681
584.746 .0345667
585.529 .0343827
586.313 .0342187
587.095 .0340744
587.878 .0339483
588.660 .0338378
589.441 .0337414
590.222 .0336532
591.003 .0335688
591.783 .0334867
592.563 .0334064
593.342 .0333278
594.121 .0332507
594.899 .0331772
595.678 .0331077
596.455 .0330429
597.233 .0329841
598.009 .0329303
598.786 .0328801
599.562 .0328323
600.338 .0327869
601.113 .0327422
601.888 .0326970
602.663 .0326513
603.437 .0326060
604.211 .0325610
604.984 .0325171
605.757 .0324755
606.530 .0324359
607.302 .0323989
608.074 .0323640
608.845 .0323308
609.616 .0322986
610.387 .0322676
611.158 .0322374
611.928 .0322076
612.697 .0321796
613.467 .0321524
614.236 .0321264
615.004 .0321021
615.773 .0320790
616.541 .0320557
617.308 .0320319
618.076 .0320085
618.843 .0319841
619.609 .0319596
620.375 .0319356
621.141 .0319121
621.907 .0318899
622.672 .0318685
623.437 .0318468
624.202 .0318240
624.966 .0317997
625.730 .0317721
626.493 .0317403
627.257 .0317058
628.020 .0316687
628.782 .0316296
629.545 .0315908
630.307 .0315529
631.068 .0315162
631.830 .0314812
632.591 .0314481
633.352 .0314156
634.112 .0313826
634.872 .0313487
635.632 .0313135
636.392 .0312776
637.151 .0312418
637.910 .0312065
638.668 .0311730
639.427 .0311428
640.185 .0311153
640.943 .0310900
641.700 .0310677
642.457 .0310474
643.214 .0310281
643.971 .0310081
644.727 .0309880
645.483 .0309664
646.239 .0309437
646.994 .0309208
647.750 .0308974
648.505 .0308749
649.259 .0308540
650.014 .0308344
650.768 .0308162
651.521 .0307991
652.275 .0307829
653.028 .0307660
653.781 .0307483
654.534 .0307290
655.286 .0307074
656.039 .0306848
656.791 .0306616
657.542 .0306378
658.294 .0306150
659.045 .0305934
659.796 .0305727
660.546 .0305529
661.297 .0305335
662.047 .0305141
662.796 .0304937
663.546 .0304728
664.295 .0304508
665.044 .0304279
665.793 .0304053
666.542 .0303833
667.290 .0303627
668.038 .0303440
668.786 .0303265
669.533 .0303105
670.281 .0302950
671.028 .0302798
671.774 .0302646
672.521 .0302495
673.267 .0302349
674.013 .0302206
674.759 .0302062
675.505 .0301924
676.250 .0301786
676.995 .0301647
677.740 .0301502
678.484 .0301351
679.229 .0301195
679.973 .0301033
680.717 .0300869
681.460 .0300704
682.204 .0300533
682.947 .0300357
683.690 .0300168
684.433 .0299969
685.175 .0299760
685.917 .0299541
686.659 .0299315
687.401 .0299092
688.142 .0298873
688.884 .0298661
689.625 .0298453
690.365 .0298254
691.106 .0298061
691.846 .0297862
692.586 .0297662
693.326 .0297460
694.066 .0297255
694.805 .0297052
695.545 .0296844
696.284 .0296639
697.022 .0296430
697.761 .0296224
698.499 .0296012
699.237 .0295798
699.975 .0295581
700.713 .0295367
701.450 .0295153
702.187 .0294949
702.924 .0294752
703.661 .0294561
704.397 .0294382
705.133 .0294209
705.869 .0294035
706.605 .0293866
707.341 .0293696
708.076 .0293534
708.811 .0293372
709.546 .0293216
710.281 .0293061
711.015 .0292908
711.749 .0292753
712.483 .0292596
713.217 .0292430
713.950 .0292257
714.684 .0292077
715.417 .0291896
716.150 .0291714
716.882 .0291535
717.615 .0291359
718.347 .0291188
719.079 .0291020
719.811 .0290853
720.542 .0290684
721.273 .0290514
722.005 .0290340
722.735 .0290159
723.466 .0289978
724.196 .0289797
724.927 .0289613
725.656 .0289433
726.386 .0289259
727.116 .0289086
727.845 .0288915
728.574 .0288741
729.303 .0288565
730.031 .0288386
730.760 .0288205
731.488 .0288021
732.216 .0287841
732.944 .0287672
733.671 .0287512
734.398 .0287366
735.125 .0287239
735.852 .0287125
736.579 .0287021
737.305 .0286925
738.031 .0286829
738.757 .0286733
739.483 .0286636
740.208 .0286535
740.933 .0286433
741.658 .0286331
742.383 .0286226
743.108 .0286121
743.832 .0286018
744.556 .0285916
745.280 .0285812
746.004 .0285707
746.727 .0285598
747.450 .0285484
748.173 .0285368
748.896 .0285249
749.618 .0285126
750.340 .0285006
751.062 .0284885
751.784 .0284767
752.506 .0284653
753.227 .0284545
753.948 .0284439
754.669 .0284338
755.389 .0284238
756.110 .0284133
756.830 .0284025
757.550 .0283915
758.269 .0283799
758.989 .0283678
759.708 .0283551
760.427 .0283415
761.146 .0283272
761.864 .0283126
762.582 .0282970
763.300 .0282815
764.018 .0282664
764.736 .0282516
765.453 .0282375
766.170 .0282244
766.887 .0282122
767.603 .0282008
768.320 .0281898
769.036 .0281784
769.751 .0281666
770.467 .0281545
771.182 .0281417
771.897 .0281283
772.612 .0281151
773.327 .0281023
774.041 .0280902
774.755 .0280787
775.469 .0280678
776.183 .0280571
776.896 .0280462
777.609 .0280344
778.322 .0280216
779.035 .0280079
779.747 .0279939
780.459 .0279796
781.171 .0279662
781.882 .0279536
782.594 .0279423
783.305 .0279319
784.016 .0279228
784.726 .0279147
785.436 .0279069
786.147 .0278990
786.856 .0278912
787.566 .0278830
788.275 .0278745
788.984 .0278656
789.693 .0278569
790.401 .0278480
791.110 .0278389
791.818 .0278297
792.525 .0278208
793.233 .0278122
793.940 .0278041
794.647 .0277961
795.353 .0277887
796.060 .0277815
796.766 .0277740
797.472 .0277662
798.177 .0277584
798.883 .0277505
799.588 .0277422
800.292 .0277338
800.997 .0277255
801.701 .0277174
802.405 .0277095
803.109 .0277018
803.812 .0276942
804.515 .0276862
805.218 .0276770
805.921 .0276665
806.623 .0276550
807.325 .0276430
808.027 .0276305
808.728 .0276183
809.429 .0276064
810.130 .0275950
810.831 .0275841
811.531 .0275736
812.231 .0275628
812.931 .0275516
813.630 .0275393
814.330 .0275261
815.029 .0275120
815.727 .0274974
816.426 .0274830
817.124 .0274694
817.821 .0274568
818.519 .0274454
819.216 .0274350
819.913 .0274259
820.609 .0274175
821.306 .0274095
822.002 .0274014
822.697 .0273935
823.393 .0273856
824.088 .0273778
824.783 .0273707
825.477 .0273647
826.171 .0273598
826.865 .0273565
827.559 .0273547
828.252 .0273541
828.945 .0273543
829.638 .0273549
830.330 .0273556
831.023 .0273560
831.714 .0273559
832.406 .0273556
833.097 .0273552
833.788 .0273546
834.479 .0273536
835.169 .0273527
835.859 .0273520
836.548 .0273508
837.238 .0273494
837.927 .0273472
838.615 .0273443
839.304 .0273401
839.992 .0273349
840.680 .0273287
841.367 .0273215
842.054 .0273131
842.741 .0273038
843.428 .0272936
844.114 .0272827
844.800 .0272715
845.485 .0272599
846.170 .0272479
846.855 .0272357
847.540 .0272231
848.224 .0272104
848.908 .0271979
849.592 .0271857
850.275 .0271736
850.958 .0271619
851.641 .0271503
852.323 .0271381
853.005 .0271258
853.687 .0271127
854.368 .0270987
855.049 .0270834
855.730 .0270667
856.410 .0270485
857.090 .0270295
857.769 .0270099
858.449 .0269898
859.128 .0269699
859.806 .0269501
860.485 .0269299
861.163 .0269098
861.840 .0268896
862.518 .0268692
863.195 .0268486
863.871 .0268278
864.548 .0268069
865.224 .0267865
865.899 .0267668
866.574 .0267482
867.249 .0267309
867.924 .0267147
868.598 .0266992
869.272 .0266842
869.946 .0266700
870.619 .0266559
871.292 .0266421
871.964 .0266285
872.636 .0266149
873.308 .0266014
873.979 .0265876
874.651 .0265739
875.321 .0265603
875.992 .0265468
876.662 .0265331
877.331 .0265192
878.001 .0265055
878.670 .0264916
879.338 .0264777
880.007 .0264640
880.675 .0264507
881.342 .0264376
882.009 .0264248
882.676 .0264119
883.343 .0263990
884.009 .0263863
884.675 .0263739
885.340 .0263624
886.005 .0263519
886.670 .0263428
887.334 .0263356
887.998 .0263303
888.662 .0263269
889.325 .0263248
889.988 .0263238
890.650 .0263236
891.312 .0263239
891.974 .0263243
892.636 .0263249
893.297 .0263262
893.957 .0263284
894.618 .0263310
895.278 .0263341
895.937 .0263375
896.596 .0263407
897.255 .0263432
897.914 .0263448
898.572 .0263449
899.230 .0263443
899.887 .0263427
900.544 .0263403
901.201 .0263377
901.857 .0263349
902.513 .0263315
903.168 .0263274
903.823 .0263224
904.478 .0263156
905.132 .0263066
905.786 .0262960
906.440 .0262834
907.093 .0262699
907.746 .0262554
908.399 .0262403
909.051 .0262254
909.703 .0262104
910.354 .0261948
911.005 .0261787
911.656 .0261622
912.306 .0261448
912.956 .0261266
913.605 .0261081
914.254 .0260900
914.903 .0260725
915.551 .0260565
916.199 .0260426
916.847 .0260307
917.494 .0260209
918.141 .0260124
918.788 .0260051
919.434 .0259986
920.079 .0259919
920.725 .0259856
921.370 .0259796
922.014 .0259742
922.658 .0259687
923.302 .0259631
923.946 .0259575
924.589 .0259509
925.231 .0259430
925.873 .0259336
926.515 .0259219
927.157 .0259086
927.798 .0258934
928.439 .0258768
929.079 .0258596
929.719 .0258424
930.359 .0258254
930.998 .0258088
931.637 .0257926
932.275 .0257772
932.913 .0257622
933.551 .0257480
934.188 .0257347
934.825 .0257223
935.462 .0257112
936.098 .0257020
936.733 .0256945
937.369 .0256897
938.004 .0256872
938.638 .0256864
939.273 .0256871
939.907 .0256887
940.540 .0256907
941.173 .0256928
941.806 .0256952
942.438 .0256976
943.070 .0256997
943.702 .0257019
944.333 .0257039
944.964 .0257058
945.594 .0257078
946.224 .0257096
946.854 .0257111
947.483 .0257119
948.112 .0257117
948.741 .0257104
949.369 .0257085
949.996 .0257058
950.624 .0257019
951.251 .0256976
951.878 .0256931
952.504 .0256882
953.130 .0256830
953.755 .0256777
954.380 .0256721
955.005 .0256663
955.629 .0256601
956.253 .0256530
956.877 .0256459
957.500 .0256383
958.123 .0256305
958.746 .0256227
959.368 .0256149
959.990 .0256071
960.611 .0255994
961.232 .0255922
961.853 .0255845
962.473 .0255764
963.093 .0255678
963.712 .0255578
964.331 .0255466
964.950 .0255339
965.569 .0255201
966.187 .0255063
966.804 .0254932
967.422 .0254808
968.039 .0254699
968.655 .0254606
969.272 .0254521
969.887 .0254439
970.503 .0254355
971.118 .0254261
971.733 .0254154
972.347 .0254036
972.961 .0253908
973.575 .0253779
974.188 .0253657
974.801 .0253540
975.414 .0253435
976.026 .0253335
976.638 .0253232
977.250 .0253120
977.861 .0252995
978.472 .0252855
979.083 .0252700
979.693 .0252533
980.303 .0252358
980.912 .0252183
981.521 .0252013
982.130 .0251848
982.738 .0251689
983.346 .0251532
983.954 .0251369
984.562 .0251196
985.169 .0251010
985.775 .0250810
986.382 .0250598
986.988 .0250379
987.594 .0250153
988.199 .0249928
988.804 .0249707
989.409 .0249492
990.013 .0249286
990.617 .0249093
991.221 .0248905
991.824 .0248728
992.427 .0248562
993.030 .0248402
993.632 .0248255
994.234 .0248130
994.836 .0248023
995.438 .0247937
996.039 .0247871
996.640 .0247818
997.240 .0247779
997.840 .0247751
998.440 .0247725
999.040 .0247697
999.639 .0247668
1000.238 .0247626
1000.836 .0247574
1001.435 .0247516
1002.033 .0247452
1002.630 .0247381
1003.228 .0247313
1003.825 .0247244
1004.422 .0247172
1005.018 .0247100
1005.614 .0247028
1006.210 .0246950
1006.806 .0246872
1007.401 .0246788
1007.996 .0246703
1008.591 .0246619
1009.186 .0246545
1009.780 .0246472
1010.374 .0246402
1010.967 .0246334
1011.561 .0246260
1012.154 .0246171
1012.746 .0246074
1013.339 .0245964
1013.931 .0245848
1014.523 .0245734
1015.115 .0245627
1015.706 .0245527
1016.298 .0245447
1016.888 .0245388
1017.479 .0245347
1018.069 .0245324
1018.660 .0245316
1019.250 .0245316
1019.839 .0245329
1020.429 .0245356
1021.018 .0245388
1021.607 .0245434
1022.195 .0245491
1022.784 .0245551
1023.372 .0245617
1023.960 .0245685
1024.547 .0245751
1025.135 .0245818
1025.722 .0245886
1026.309 .0245955
1026.896 .0246023
1027.483 .0246099
1028.069 .0246178
1028.655 .0246263
1029.241 .0246347
1029.827 .0246424
1030.412 .0246498
1030.997 .0246571
1031.582 .0246635
1032.167 .0246696
1032.752 .0246760
1033.336 .0246829
1033.921 .0246904
1034.505 .0246985
1035.089 .0247070
1035.672 .0247155
1036.256 .0247238
1036.839 .0247313
1037.422 .0247373
1038.005 .0247423
1038.588 .0247458
1039.171 .0247479
1039.753 .0247497
1040.335 .0247511
1040.918 .0247523
1041.500 .0247536
1042.081 .0247550
1042.663 .0247562
1043.244 .0247571
1043.826 .0247577
1044.407 .0247576
1044.988 .0247568
1045.569 .0247558
1046.150 .0247540
1046.730 .0247519
1047.311 .0247502
1047.891 .0247490
1048.471 .0247492
1049.052 .0247507
1049.632 .0247538
1050.211 .0247593
1050.791 .0247672
1051.371 .0247776
1051.950 .0247902
1052.530 .0248041
1053.109 .0248193
1053.688 .0248338
1054.268 .0248471
1054.847 .0248585
1055.426 .0248679
1056.005 .0248757
1056.583 .0248819
1057.162 .0248883
1057.741 .0248946
1058.319 .0249018
1058.898 .0249102
1059.476 .0249184
1060.055 .0249261
1060.633 .0249323
1061.211 .0249366
1061.790 .0249395
1062.368 .0249424
1062.946 .0249451
1063.524 .0249495
1064.102 .0249579
1064.680 .0249695
1065.258 .0249843
1065.836 .0250016
1066.414 .0250195
1066.992 .0250366
1067.570 .0250519
1068.148 .0250631
1068.726 .0250723
1069.304 .0250812
1069.882 .0250884
1070.460 .0250956
1071.038 .0251046
1071.616 .0251147
1072.194 .0251249
1072.772 .0251357
1073.350 .0251444
1073.928 .0251501
1074.506 .0251544
1075.084 .0251562
1075.662 .0251567
1076.240 .0251599
1076.819 .0251641
1077.397 .0251697
1077.976 .0251777
1078.554 .0251861
1079.133 .0251932
1079.711 .0252005
1080.290 .0252070
1080.869 .0252115
1081.448 .0252164
1082.027 .0252238
1082.606 .0252332
1083.185 .0252485
1083.764 .0252695
1084.343 .0252936
1084.923 .0253206
1085.502 .0253496
1086.082 .0253759
1086.662 .0254013
1087.242 .0254245
1087.822 .0254457
1088.402 .0254649
1088.983 .0254848
1089.563 .0255041
1090.144 .0255244
1090.725 .0255482
1091.306 .0255723
1091.887 .0255954
1092.469 .0256180
1093.050 .0256369
1093.632 .0256531
1094.214 .0256665
1094.796 .0256785
1095.379 .0256888
1095.961 .0257006
1096.544 .0257140
1097.127 .0257309
1097.710 .0257511
1098.294 .0257769
1098.877 .0258061
1099.461 .0258400
1100.046 .0258756
1100.630 .0259126
1101.215 .0259510
1101.800 .0259908
1102.385 .0260302
1102.970 .0260704
1103.556 .0261088
1104.142 .0261471
1104.728 .0261836
1105.315 .0262210
1105.902 .0262572
1106.489 .0262940
1107.077 .0263289
1107.664 .0263638
1108.253 .0263944
1108.841 .0264227
1109.430 .0264464
1110.019 .0264675
1110.609 .0264838
1111.198 .0264955
1111.789 .0265044
1112.379 .0265139
1112.970 .0265248
1113.561 .0265421
1114.153 .0265658
1114.745 .0265993
1115.338 .0266382
1115.931 .0266861
1116.524 .0267374
1117.117 .0267947
1117.712 .0268528
1118.306 .0269114
1118.901 .0269698
1119.496 .0270281
1120.092 .0270882
1120.689 .0271492
1121.285 .0272126
1121.882 .0272773
1122.480 .0273405
1123.078 .0274051
1123.677 .0274649
1124.276 .0275231
1124.875 .0275760
1125.476 .0276235
1126.076 .0276636
1126.677 .0277008
1127.279 .0277362
1127.881 .0277706
1128.484 .0278082
1129.087 .0278502
1129.691 .0278995
1130.295 .0279563
1130.900 .0280174
1131.505 .0280849
1132.111 .0281557
1132.718 .0282275
1133.325 .0282942
1133.933 .0283615
1134.541 .0284292
1135.150 .0285010
1135.760 .0285805
1136.370 .0286726
1136.981 .0287786
1137.592 .0288962
1138.204 .0290289
1138.817 .0291652
1139.431 .0293113
1140.045 .0294682
1140.660 .0296422
1141.275 .0298368
1141.891 .0300622
1142.508 .0300855
1143.126 .0304665
1143.744 .0309352
1144.363 .0312433
1144.983 .0317328
