Measurement Sequence started on: 15-12-46-377
Integration time: 28
Scans to Average: 2 
>>>>>Begin Spectral Data<<<<<
432.689 .0000100
433.621 .0000100
434.552 .0000100
435.482 .0000100
436.410 .0000100
437.337 .0000100
438.262 .0291361
439.187 .0616543
440.110 .1020712
441.031 .1476688
441.952 .1919152
442.871 .2267345
443.789 .2458114
444.705 .2470047
445.621 .2329840
446.535 .2095618
447.447 .1830669
448.359 .1424010
449.269 .1223903
450.178 .1097542
451.086 .1007878
451.993 .0939120
452.898 .0884191
453.803 .0839051
454.706 .0801449
455.608 .0769443
456.508 .0741775
457.408 .0717750
458.306 .0696541
459.204 .0677486
460.100 .0660235
460.995 .0644468
461.888 .0629954
462.781 .0616634
463.673 .0604241
464.563 .0592875
465.452 .0582438
466.340 .0572839
467.228 .0563995
468.114 .0555922
468.999 .0548515
469.882 .0541701
470.765 .0535593
471.647 .0530140
472.528 .0525248
473.407 .0520945
474.286 .0517150
475.163 .0513815
476.040 .0510942
476.915 .0508439
477.790 .0506183
478.663 .0504205
479.535 .0502418
480.407 .0500811
481.277 .0499328
482.147 .0498062
483.015 .0496967
483.883 .0496079
484.749 .0495436
485.615 .0494981
486.479 .0494716
487.343 .0494653
488.206 .0494723
489.067 .0494883
489.928 .0495038
490.788 .0495223
491.647 .0495413
492.505 .0495747
493.362 .0496243
494.218 .0496905
495.073 .0497814
495.928 .0499043
496.781 .0500517
497.634 .0502303
498.486 .0504371
499.337 .0506705
500.187 .0509285
501.036 .0512109
501.884 .0515145
502.731 .0518432
503.578 .0521982
504.424 .0525866
505.268 .0529991
506.113 .0534481
506.956 .0539285
507.798 .0544639
508.640 .0550695
509.480 .0557410
510.320 .0564891
511.160 .0573263
511.998 .0582578
512.836 .0592912
513.672 .0604370
514.508 .0617069
515.344 .0631060
516.178 .0646696
517.012 .0664373
517.845 .0684472
518.677 .0707514
519.508 .0733807
520.339 .0763670
521.169 .0797960
521.998 .0836736
522.826 .0880456
523.654 .0930135
524.481 .0985848
525.307 .1048069
526.133 .1115773
526.958 .1189066
527.782 .1266488
528.605 .1346126
529.428 .1426844
530.250 .1503089
531.072 .1572287
531.892 .1630536
532.712 .1674687
533.532 .1702795
534.350 .1713044
535.168 .1704188
535.986 .1676753
536.802 .1632693
537.618 .1574391
538.434 .1504396
539.249 .1427699
540.063 .1347234
540.876 .1265986
541.689 .1186708
542.501 .1112146
543.313 .1043607
544.124 .0982913
544.934 .0928788
545.744 .0880984
546.553 .0838889
547.361 .0801828
548.169 .0769293
548.976 .0740247
549.783 .0714336
550.589 .0690806
551.395 .0669019
552.200 .0649115
553.004 .0630730
553.808 .0613817
554.611 .0598360
555.414 .0584337
556.216 .0571424
557.018 .0559874
557.819 .0549186
558.619 .0539387
559.419 .0530251
560.218 .0521660
561.017 .0513502
561.815 .0505725
562.613 .0498234
563.410 .0490950
564.207 .0483934
565.003 .0477282
565.799 .0470859
566.594 .0464692
567.388 .0458862
568.182 .0453342
568.976 .0448075
569.769 .0443042
570.562 .0438079
571.354 .0433209
572.145 .0428319
572.936 .0423399
573.727 .0418458
574.517 .0413535
575.307 .0408721
576.096 .0404024
576.885 .0399555
577.673 .0395376
578.461 .0391472
579.248 .0387862
580.035 .0384499
580.821 .0381328
581.607 .0378272
582.392 .0375362
583.177 .0372565
583.962 .0369878
584.746 .0367371
585.529 .0365067
586.313 .0363013
587.095 .0361191
587.878 .0359612
588.660 .0358222
589.441 .0357010
590.222 .0355908
591.003 .0354878
591.783 .0353919
592.563 .0353018
593.342 .0352162
594.121 .0351340
594.899 .0350580
595.678 .0349870
596.455 .0349199
597.233 .0348586
598.009 .0347993
598.786 .0347443
599.562 .0346901
600.338 .0346372
601.113 .0345843
601.888 .0345321
602.663 .0344789
603.437 .0344249
604.211 .0343708
604.984 .0343163
605.757 .0342621
606.530 .0342089
607.302 .0341579
608.074 .0341087
608.845 .0340622
609.616 .0340187
610.387 .0339769
611.158 .0339374
611.928 .0338984
612.697 .0338599
613.467 .0338215
614.236 .0337836
615.004 .0337467
615.773 .0337112
616.541 .0336787
617.308 .0336491
618.076 .0336215
618.843 .0335957
619.609 .0335718
620.375 .0335487
621.141 .0335265
621.907 .0335029
622.672 .0334780
623.437 .0334521
624.202 .0334248
624.966 .0333956
625.730 .0333661
626.493 .0333368
627.257 .0333074
628.020 .0332776
628.782 .0332480
629.545 .0332179
630.307 .0331874
631.068 .0331569
631.830 .0331256
632.591 .0330933
633.352 .0330603
634.112 .0330254
634.872 .0329907
635.632 .0329563
636.392 .0329221
637.151 .0328883
637.910 .0328559
638.668 .0328244
639.427 .0327922
640.185 .0327601
640.943 .0327282
641.700 .0326960
642.457 .0326639
643.214 .0326318
643.971 .0326000
644.727 .0325698
645.483 .0325413
646.239 .0325138
646.994 .0324878
647.750 .0324632
648.505 .0324393
649.259 .0324172
650.014 .0323974
650.768 .0323798
651.521 .0323646
652.275 .0323524
653.028 .0323411
653.781 .0323297
654.534 .0323178
655.286 .0323036
656.039 .0322862
656.791 .0322655
657.542 .0322405
658.294 .0322123
659.045 .0321831
659.796 .0321533
660.546 .0321240
661.297 .0320960
662.047 .0320690
662.796 .0320418
663.546 .0320143
664.295 .0319859
665.044 .0319560
665.793 .0319251
666.542 .0318941
667.290 .0318635
668.038 .0318350
668.786 .0318091
669.533 .0317862
670.281 .0317665
671.028 .0317490
671.774 .0317324
672.521 .0317161
673.267 .0316993
674.013 .0316818
674.759 .0316624
675.505 .0316419
676.250 .0316196
676.995 .0315963
677.740 .0315722
678.484 .0315476
679.229 .0315235
679.973 .0314997
680.717 .0314765
681.460 .0314537
682.204 .0314306
682.947 .0314071
683.690 .0313828
684.433 .0313575
685.175 .0313306
685.917 .0313022
686.659 .0312727
687.401 .0312427
688.142 .0312129
688.884 .0311836
689.625 .0311543
690.365 .0311256
691.106 .0310975
691.846 .0310688
692.586 .0310399
693.326 .0310106
694.066 .0309808
694.805 .0309508
695.545 .0309209
696.284 .0308911
697.022 .0308621
697.761 .0308348
698.499 .0308083
699.237 .0307825
699.975 .0307578
700.713 .0307335
701.450 .0307101
702.187 .0306876
702.924 .0306660
703.661 .0306455
704.397 .0306259
705.133 .0306066
705.869 .0305872
706.605 .0305679
707.341 .0305483
708.076 .0305279
708.811 .0305073
709.546 .0304856
710.281 .0304636
711.015 .0304415
711.749 .0304191
712.483 .0303965
713.217 .0303737
713.950 .0303505
714.684 .0303269
715.417 .0303032
716.150 .0302793
716.882 .0302557
717.615 .0302331
718.347 .0302111
719.079 .0301899
719.811 .0301699
720.542 .0301517
721.273 .0301349
722.005 .0301201
722.735 .0301069
723.466 .0300955
724.196 .0300855
724.927 .0300765
725.656 .0300681
726.386 .0300598
727.116 .0300516
727.845 .0300428
728.574 .0300336
729.303 .0300244
730.031 .0300154
730.760 .0300071
731.488 .0299997
732.216 .0299932
732.944 .0299872
733.671 .0299817
734.398 .0299763
735.125 .0299702
735.852 .0299639
736.579 .0299573
737.305 .0299507
738.031 .0299450
738.757 .0299405
739.483 .0299368
740.208 .0299344
740.933 .0299325
741.658 .0299304
742.383 .0299275
743.108 .0299235
743.832 .0299178
744.556 .0299105
745.280 .0299016
746.004 .0298912
746.727 .0298799
747.450 .0298683
748.173 .0298563
748.896 .0298442
749.618 .0298322
750.340 .0298197
751.062 .0298071
751.784 .0297939
752.506 .0297800
753.227 .0297654
753.948 .0297501
754.669 .0297344
755.389 .0297181
756.110 .0297016
756.830 .0296852
757.550 .0296690
758.269 .0296531
758.989 .0296365
759.708 .0296193
760.427 .0296005
761.146 .0295799
761.864 .0295570
762.582 .0295323
763.300 .0295060
764.018 .0294788
764.736 .0294511
765.453 .0294240
766.170 .0293978
766.887 .0293730
767.603 .0293493
768.320 .0293269
769.036 .0293052
769.751 .0292834
770.467 .0292613
771.182 .0292394
771.897 .0292175
772.612 .0291960
773.327 .0291753
774.041 .0291560
774.755 .0291377
775.469 .0291206
776.183 .0291042
776.896 .0290885
777.609 .0290732
778.322 .0290576
779.035 .0290416
779.747 .0290253
780.459 .0290085
781.171 .0289919
781.882 .0289757
782.594 .0289603
783.305 .0289457
784.016 .0289320
784.726 .0289190
785.436 .0289063
786.147 .0288936
786.856 .0288805
787.566 .0288668
788.275 .0288525
788.984 .0288375
789.693 .0288220
790.401 .0288069
791.110 .0287919
791.818 .0287775
792.525 .0287638
793.233 .0287507
793.940 .0287380
794.647 .0287256
795.353 .0287131
796.060 .0287003
796.766 .0286877
797.472 .0286752
798.177 .0286626
798.883 .0286506
799.588 .0286388
800.292 .0286277
800.997 .0286172
801.701 .0286073
802.405 .0285979
803.109 .0285888
803.812 .0285805
804.515 .0285722
805.218 .0285640
805.921 .0285558
806.623 .0285476
807.325 .0285398
808.027 .0285323
808.728 .0285247
809.429 .0285173
810.130 .0285105
810.831 .0285046
811.531 .0284991
812.231 .0284941
812.931 .0284894
813.630 .0284847
814.330 .0284801
815.029 .0284754
815.727 .0284707
816.426 .0284668
817.124 .0284636
817.821 .0284615
818.519 .0284604
819.216 .0284610
819.913 .0284630
820.609 .0284666
821.306 .0284712
822.002 .0284770
822.697 .0284834
823.393 .0284911
824.088 .0284999
824.783 .0285094
825.477 .0285193
826.171 .0285294
826.865 .0285391
827.559 .0285482
828.252 .0285563
828.945 .0285631
829.638 .0285683
830.330 .0285728
831.023 .0285758
831.714 .0285778
832.406 .0285793
833.097 .0285810
833.788 .0285822
834.479 .0285833
835.169 .0285841
835.859 .0285848
836.548 .0285853
837.238 .0285856
837.927 .0285855
838.615 .0285850
839.304 .0285843
839.992 .0285834
840.680 .0285823
841.367 .0285818
842.054 .0285814
842.741 .0285814
843.428 .0285814
844.114 .0285812
844.800 .0285798
845.485 .0285769
846.170 .0285723
846.855 .0285654
847.540 .0285560
848.224 .0285443
848.908 .0285305
849.592 .0285145
850.275 .0284970
850.958 .0284782
851.641 .0284579
852.323 .0284369
853.005 .0284149
853.687 .0283914
854.368 .0283665
855.049 .0283409
855.730 .0283142
856.410 .0282867
857.090 .0282588
857.769 .0282303
858.449 .0282018
859.128 .0281741
859.806 .0281473
860.485 .0281222
861.163 .0280992
861.840 .0280781
862.518 .0280584
863.195 .0280399
863.871 .0280217
864.548 .0280034
865.224 .0279845
865.899 .0279649
866.574 .0279446
867.249 .0279234
867.924 .0279023
868.598 .0278816
869.272 .0278615
869.946 .0278422
870.619 .0278231
871.292 .0278038
871.964 .0277833
872.636 .0277613
873.308 .0277375
873.979 .0277119
874.651 .0276851
875.321 .0276570
875.992 .0276284
876.662 .0276007
877.331 .0275735
878.001 .0275474
878.670 .0275224
879.338 .0274985
880.007 .0274747
880.675 .0274510
881.342 .0274269
882.009 .0274024
882.676 .0273776
883.343 .0273529
884.009 .0273284
884.675 .0273045
885.340 .0272815
886.005 .0272593
886.670 .0272384
887.334 .0272191
887.998 .0272006
888.662 .0271837
889.325 .0271677
889.988 .0271529
890.650 .0271386
891.312 .0271253
891.974 .0271134
892.636 .0271022
893.297 .0270919
893.957 .0270824
894.618 .0270736
895.278 .0270658
895.937 .0270584
896.596 .0270517
897.255 .0270454
897.914 .0270394
898.572 .0270329
899.230 .0270260
899.887 .0270184
900.544 .0270104
901.201 .0270019
901.857 .0269932
902.513 .0269838
903.168 .0269737
903.823 .0269634
904.478 .0269525
905.132 .0269409
905.786 .0269290
906.440 .0269163
907.093 .0269031
907.746 .0268891
908.399 .0268747
909.051 .0268599
909.703 .0268449
910.354 .0268298
911.005 .0268146
911.656 .0267996
912.306 .0267847
912.956 .0267702
913.605 .0267567
914.254 .0267441
914.903 .0267326
915.551 .0267221
916.199 .0267129
916.847 .0267052
917.494 .0266989
918.141 .0266942
918.788 .0266910
919.434 .0266892
920.079 .0266883
920.725 .0266883
921.370 .0266890
922.014 .0266904
922.658 .0266920
923.302 .0266938
923.946 .0266952
924.589 .0266959
925.231 .0266956
925.873 .0266940
926.515 .0266917
927.157 .0266884
927.798 .0266840
928.439 .0266785
929.079 .0266723
929.719 .0266658
930.359 .0266584
930.998 .0266506
931.637 .0266425
932.275 .0266338
932.913 .0266247
933.551 .0266149
934.188 .0266051
934.825 .0265962
935.462 .0265881
936.098 .0265811
936.733 .0265762
937.369 .0265731
938.004 .0265716
938.638 .0265716
939.273 .0265731
939.907 .0265753
940.540 .0265782
941.173 .0265820
941.806 .0265870
942.438 .0265936
943.070 .0266017
943.702 .0266109
944.333 .0266209
944.964 .0266312
945.594 .0266410
946.224 .0266503
946.854 .0266594
947.483 .0266675
948.112 .0266755
948.741 .0266833
949.369 .0266912
949.996 .0266987
950.624 .0267062
951.251 .0267131
951.878 .0267187
952.504 .0267229
953.130 .0267253
953.755 .0267266
954.380 .0267271
955.005 .0267271
955.629 .0267271
956.253 .0267273
956.877 .0267273
957.500 .0267269
958.123 .0267259
958.746 .0267236
959.368 .0267201
959.990 .0267156
960.611 .0267103
961.232 .0267051
961.853 .0267001
962.473 .0266964
963.093 .0266935
963.712 .0266911
964.331 .0266885
964.950 .0266853
965.569 .0266819
966.187 .0266777
966.804 .0266730
967.422 .0266689
968.039 .0266652
968.655 .0266624
969.272 .0266601
969.887 .0266577
970.503 .0266551
971.118 .0266518
971.733 .0266473
972.347 .0266414
972.961 .0266344
973.575 .0266266
974.188 .0266178
974.801 .0266081
975.414 .0265976
976.026 .0265852
976.638 .0265717
977.250 .0265564
977.861 .0265389
978.472 .0265196
979.083 .0264987
979.693 .0264768
980.303 .0264542
980.912 .0264309
981.521 .0264073
982.130 .0263835
982.738 .0263600
983.346 .0263361
983.954 .0263121
984.562 .0262887
985.169 .0262658
985.775 .0262434
986.382 .0262221
986.988 .0262008
987.594 .0261806
988.199 .0261608
988.804 .0261411
989.409 .0261216
990.013 .0261019
990.617 .0260824
991.221 .0260635
991.824 .0260452
992.427 .0260276
993.030 .0260108
993.632 .0259958
994.234 .0259816
994.836 .0259680
995.438 .0259546
996.039 .0259407
996.640 .0259261
997.240 .0259107
997.840 .0258942
998.440 .0258773
999.040 .0258609
999.639 .0258449
1000.238 .0258299
1000.836 .0258154
1001.435 .0258011
1002.033 .0257867
1002.630 .0257712
1003.228 .0257547
1003.825 .0257364
1004.422 .0257168
1005.018 .0256966
1005.614 .0256763
1006.210 .0256567
1006.806 .0256379
1007.401 .0256200
1007.996 .0256024
1008.591 .0255847
1009.186 .0255662
1009.780 .0255470
1010.374 .0255270
1010.967 .0255065
1011.561 .0254856
1012.154 .0254644
1012.746 .0254432
1013.339 .0254216
1013.931 .0253997
1014.523 .0253781
1015.115 .0253556
1015.706 .0253338
1016.298 .0253118
1016.888 .0252911
1017.479 .0252716
1018.069 .0252537
1018.660 .0252372
1019.250 .0252221
1019.839 .0252081
1020.429 .0251945
1021.018 .0251814
1021.607 .0251700
1022.195 .0251598
1022.784 .0251515
1023.372 .0251453
1023.960 .0251413
1024.547 .0251387
1025.135 .0251376
1025.722 .0251366
1026.309 .0251362
1026.896 .0251354
1027.483 .0251339
1028.069 .0251323
1028.655 .0251307
1029.241 .0251291
1029.827 .0251279
1030.412 .0251272
1030.997 .0251271
1031.582 .0251267
1032.167 .0251267
1032.752 .0251266
1033.336 .0251264
1033.921 .0251261
1034.505 .0251258
1035.089 .0251259
1035.672 .0251266
1036.256 .0251269
1036.839 .0251276
1037.422 .0251287
1038.005 .0251300
1038.588 .0251315
1039.171 .0251335
1039.753 .0251353
1040.335 .0251376
1040.918 .0251393
1041.500 .0251399
1042.081 .0251390
1042.663 .0251368
1043.244 .0251336
1043.826 .0251291
1044.407 .0251235
1044.988 .0251179
1045.569 .0251122
1046.150 .0251078
1046.730 .0251035
1047.311 .0251005
1047.891 .0250976
1048.471 .0250952
1049.052 .0250934
1049.632 .0250922
1050.211 .0250931
1050.791 .0250961
1051.371 .0251011
1051.950 .0251084
1052.530 .0251175
1053.109 .0251266
1053.688 .0251355
1054.268 .0251445
1054.847 .0251527
1055.426 .0251600
1056.005 .0251670
1056.583 .0251749
1057.162 .0251841
1057.741 .0251955
1058.319 .0252082
1058.898 .0252215
1059.476 .0252342
1060.055 .0252454
1060.633 .0252538
1061.211 .0252597
1061.790 .0252648
1062.368 .0252687
1062.946 .0252735
1063.524 .0252798
1064.102 .0252883
1064.680 .0252983
1065.258 .0253100
1065.836 .0253229
1066.414 .0253355
1066.992 .0253475
1067.570 .0253600
1068.148 .0253722
1068.726 .0253864
1069.304 .0254033
1069.882 .0254217
1070.460 .0254429
1071.038 .0254673
1071.616 .0254921
1072.194 .0255177
1072.772 .0255431
1073.350 .0255688
1073.928 .0255920
1074.506 .0256143
1075.084 .0256343
1075.662 .0256506
1076.240 .0256647
1076.819 .0256756
1077.397 .0256835
1077.976 .0256896
1078.554 .0256945
1079.133 .0256983
1079.711 .0257020
1080.290 .0257070
1080.869 .0257119
1081.448 .0257184
1082.027 .0257273
1082.606 .0257382
1083.185 .0257518
1083.764 .0257709
1084.343 .0257941
1084.923 .0258219
1085.502 .0258548
1086.082 .0258913
1086.662 .0259311
1087.242 .0259721
1087.822 .0260134
1088.402 .0260534
1088.983 .0260918
1089.563 .0261278
1090.144 .0261611
1090.725 .0261945
1091.306 .0262265
1091.887 .0262582
1092.469 .0262916
1093.050 .0263247
1093.632 .0263575
1094.214 .0263888
1094.796 .0264188
1095.379 .0264477
1095.961 .0264755
1096.544 .0265020
1097.127 .0265294
1097.710 .0265585
1098.294 .0265902
1098.877 .0266236
1099.461 .0266614
1100.046 .0267026
1100.630 .0267457
1101.215 .0267913
1101.800 .0268381
1102.385 .0268839
1102.970 .0269295
1103.556 .0269723
1104.142 .0270145
1104.728 .0270547
1105.315 .0270923
1105.902 .0271279
1106.489 .0271623
1107.077 .0271956
1107.664 .0272267
1108.253 .0272567
1108.841 .0272854
1109.430 .0273113
1110.019 .0273336
1110.609 .0273532
1111.198 .0273700
1111.789 .0273861
1112.379 .0274014
1112.970 .0274188
1113.561 .0274400
1114.153 .0274663
1114.745 .0274995
1115.338 .0275417
1115.931 .0275908
1116.524 .0276477
1117.117 .0277081
1117.712 .0277696
1118.306 .0278314
1118.901 .0278951
1119.496 .0279571
1120.092 .0280208
1120.689 .0280847
1121.285 .0281478
1121.882 .0282092
1122.480 .0282698
1123.078 .0283272
1123.677 .0283830
1124.276 .0284370
1124.875 .0284866
1125.476 .0285334
1126.076 .0285829
1126.677 .0286329
1127.279 .0286885
1127.881 .0287519
1128.484 .0288214
1129.087 .0288965
1129.691 .0289790
1130.295 .0290639
1130.900 .0291524
1131.505 .0292450
1132.111 .0293355
1132.718 .0294286
1133.325 .0295259
1133.933 .0296272
1134.541 .0297329
1135.150 .0298441
1135.760 .0299587
1136.370 .0300701
1136.981 .0301801
1137.592 .0302816
1138.204 .0303768
1138.817 .0304683
1139.431 .0305608
1140.045 .0306674
1140.660 .0307721
1141.275 .0308759
1141.891 .0309792
1142.508 .0311849
1143.126 .0315801
1143.744 .0312713
1144.363 .0311563
1144.983 .0312596
