Measurement Sequence started on: 15-12-46-377
Integration time: 28
Scans to Average: 2 
>>>>>Begin Spectral Data<<<<<
432.689 .0000100
433.621 .0000100
434.552 .0000100
435.482 .0000100
436.410 .0000100
437.337 .0000100
438.262 .0279102
439.187 .0589068
440.110 .0974378
441.031 .1408654
441.952 .1829751
442.871 .2159890
443.789 .2339253
444.705 .2347644
445.621 .2210594
446.535 .1984047
447.447 .1728323
448.359 .1337156
449.269 .1144805
450.178 .1022545
451.086 .0935604
451.993 .0868697
452.898 .0815748
453.803 .0772298
454.706 .0736076
455.608 .0705372
456.508 .0678876
457.408 .0656014
458.306 .0636058
459.204 .0618354
460.100 .0602492
460.995 .0588266
461.888 .0575381
462.781 .0563606
463.673 .0552694
464.563 .0542807
465.452 .0533630
466.340 .0524996
467.228 .0517052
468.114 .0509677
468.999 .0502900
469.882 .0496674
470.765 .0490971
471.647 .0485753
472.528 .0481011
473.407 .0476677
474.286 .0472750
475.163 .0469232
476.040 .0466055
476.915 .0463183
477.790 .0460582
478.663 .0458335
479.535 .0456251
480.407 .0454384
481.277 .0452758
482.147 .0451270
483.015 .0449937
483.883 .0448747
484.749 .0447743
485.615 .0446962
486.479 .0446379
487.343 .0446032
488.206 .0445911
489.067 .0445992
489.928 .0446236
490.788 .0446613
491.647 .0447077
492.505 .0447671
493.362 .0448344
494.218 .0449153
495.073 .0450242
495.928 .0451657
496.781 .0453417
497.634 .0455587
498.486 .0458131
499.337 .0461010
500.187 .0464110
501.036 .0467435
501.884 .0470837
502.731 .0474363
503.578 .0477956
504.424 .0481595
505.268 .0485354
506.113 .0489353
506.956 .0493567
507.798 .0498115
508.640 .0503077
509.480 .0508253
510.320 .0513707
511.160 .0519558
511.998 .0525656
512.836 .0532280
513.672 .0539425
514.508 .0547302
515.344 .0556113
516.178 .0566333
517.012 .0578248
517.845 .0592420
518.677 .0609322
519.508 .0629112
520.339 .0651901
521.169 .0678218
521.998 .0707912
522.826 .0741494
523.654 .0779432
524.481 .0821835
525.307 .0868948
526.133 .0920787
526.958 .0976886
527.782 .1036971
528.605 .1099547
529.428 .1163866
530.250 .1225024
531.072 .1281675
531.892 .1329824
532.712 .1367342
533.532 .1393135
534.350 .1405521
535.168 .1403238
535.986 .1387116
536.802 .1358196
537.618 .1318313
538.434 .1268997
539.249 .1214348
540.063 .1155541
540.876 .1095922
541.689 .1036926
542.501 .0980323
543.313 .0927588
544.124 .0879843
544.934 .0836063
545.744 .0795973
546.553 .0759435
547.361 .0726122
548.169 .0696247
548.976 .0669446
549.783 .0645663
550.589 .0624632
551.395 .0605854
552.200 .0589267
553.004 .0574389
553.808 .0560936
554.611 .0548512
555.414 .0537082
556.216 .0526556
557.018 .0516760
557.819 .0507509
558.619 .0498803
559.419 .0490648
560.218 .0482867
561.017 .0475436
561.815 .0468101
562.613 .0460977
563.410 .0453982
564.207 .0447079
565.003 .0440277
565.799 .0433516
566.594 .0426927
567.388 .0420583
568.182 .0414498
568.976 .0408670
569.769 .0403135
570.562 .0397919
571.354 .0392895
572.145 .0388149
572.936 .0383584
573.727 .0379250
574.517 .0375111
575.307 .0371156
576.096 .0367359
576.885 .0363708
577.673 .0360234
578.461 .0356937
579.248 .0353826
580.035 .0350930
580.821 .0348222
581.607 .0345707
582.392 .0343371
583.177 .0341212
583.962 .0339199
584.746 .0337360
585.529 .0335651
586.313 .0334103
587.095 .0332681
587.878 .0331412
588.660 .0330276
589.441 .0329260
590.222 .0328355
591.003 .0327553
591.783 .0326812
592.563 .0326125
593.342 .0325458
594.121 .0324809
594.899 .0324170
595.678 .0323544
596.455 .0322943
597.233 .0322381
598.009 .0321847
598.786 .0321334
599.562 .0320833
600.338 .0320346
601.113 .0319861
601.888 .0319379
602.663 .0318880
603.437 .0318379
604.211 .0317865
604.984 .0317355
605.757 .0316851
606.530 .0316366
607.302 .0315903
608.074 .0315462
608.845 .0315042
609.616 .0314639
610.387 .0314257
611.158 .0313901
611.928 .0313563
612.697 .0313245
613.467 .0312944
614.236 .0312656
615.004 .0312380
615.773 .0312123
616.541 .0311886
617.308 .0311678
618.076 .0311491
618.843 .0311318
619.609 .0311154
620.375 .0310995
621.141 .0310833
621.907 .0310662
622.672 .0310479
623.437 .0310277
624.202 .0310063
624.966 .0309845
625.730 .0309624
626.493 .0309402
627.257 .0309182
628.020 .0308961
628.782 .0308736
629.545 .0308494
630.307 .0308234
631.068 .0307968
631.830 .0307700
632.591 .0307431
633.352 .0307169
634.112 .0306922
634.872 .0306693
635.632 .0306479
636.392 .0306272
637.151 .0306060
637.910 .0305846
638.668 .0305623
639.427 .0305392
640.185 .0305158
640.943 .0304927
641.700 .0304703
642.457 .0304491
643.214 .0304288
643.971 .0304089
644.727 .0303897
645.483 .0303716
646.239 .0303538
646.994 .0303365
647.750 .0303201
648.505 .0303051
649.259 .0302912
650.014 .0302784
650.768 .0302655
651.521 .0302524
652.275 .0302381
653.028 .0302227
653.781 .0302057
654.534 .0301878
655.286 .0301695
656.039 .0301501
656.791 .0301300
657.542 .0301087
658.294 .0300853
659.045 .0300609
659.796 .0300346
660.546 .0300064
661.297 .0299763
662.047 .0299455
662.796 .0299145
663.546 .0298841
664.295 .0298552
665.044 .0298281
665.793 .0298033
666.542 .0297803
667.290 .0297585
668.038 .0297380
668.786 .0297189
669.533 .0297002
670.281 .0296813
671.028 .0296625
671.774 .0296432
672.521 .0296239
673.267 .0296047
674.013 .0295858
674.759 .0295675
675.505 .0295493
676.250 .0295317
676.995 .0295143
677.740 .0294971
678.484 .0294796
679.229 .0294613
679.973 .0294428
680.717 .0294234
681.460 .0294035
682.204 .0293839
682.947 .0293653
683.690 .0293476
684.433 .0293311
685.175 .0293152
685.917 .0292994
686.659 .0292836
687.401 .0292671
688.142 .0292501
688.884 .0292320
689.625 .0292133
690.365 .0291939
691.106 .0291745
691.846 .0291560
692.586 .0291378
693.326 .0291206
694.066 .0291042
694.805 .0290885
695.545 .0290731
696.284 .0290578
697.022 .0290426
697.761 .0290270
698.499 .0290112
699.237 .0289953
699.975 .0289794
700.713 .0289645
701.450 .0289512
702.187 .0289396
702.924 .0289300
703.661 .0289216
704.397 .0289139
705.133 .0289066
705.869 .0288983
706.605 .0288885
707.341 .0288770
708.076 .0288642
708.811 .0288505
709.546 .0288362
710.281 .0288225
711.015 .0288095
711.749 .0287977
712.483 .0287867
713.217 .0287756
713.950 .0287638
714.684 .0287507
715.417 .0287356
716.150 .0287189
716.882 .0287010
717.615 .0286828
718.347 .0286650
719.079 .0286482
719.811 .0286326
720.542 .0286182
721.273 .0286044
722.005 .0285908
722.735 .0285768
723.466 .0285623
724.196 .0285468
724.927 .0285306
725.656 .0285142
726.386 .0284977
727.116 .0284811
727.845 .0284649
728.574 .0284488
729.303 .0284329
730.031 .0284168
730.760 .0284009
731.488 .0283856
732.216 .0283709
732.944 .0283571
733.671 .0283443
734.398 .0283327
735.125 .0283223
735.852 .0283128
736.579 .0283039
737.305 .0282956
738.031 .0282873
738.757 .0282786
739.483 .0282697
740.208 .0282601
740.933 .0282503
741.658 .0282404
742.383 .0282306
743.108 .0282209
743.832 .0282111
744.556 .0282016
745.280 .0281922
746.004 .0281825
746.727 .0281724
747.450 .0281618
748.173 .0281508
748.896 .0281390
749.618 .0281262
750.340 .0281127
751.062 .0280989
751.784 .0280848
752.506 .0280705
753.227 .0280561
753.948 .0280418
754.669 .0280270
755.389 .0280111
756.110 .0279940
756.830 .0279755
757.550 .0279550
758.269 .0279331
758.989 .0279097
759.708 .0278851
760.427 .0278595
761.146 .0278336
761.864 .0278075
762.582 .0277816
763.300 .0277562
764.018 .0277315
764.736 .0277078
765.453 .0276851
766.170 .0276630
766.887 .0276415
767.603 .0276211
768.320 .0276014
769.036 .0275819
769.751 .0275631
770.467 .0275449
771.182 .0275273
771.897 .0275105
772.612 .0274944
773.327 .0274789
774.041 .0274643
774.755 .0274504
775.469 .0274369
776.183 .0274240
776.896 .0274122
777.609 .0274009
778.322 .0273901
779.035 .0273800
779.747 .0273703
780.459 .0273611
781.171 .0273530
781.882 .0273457
782.594 .0273393
783.305 .0273345
784.016 .0273310
784.726 .0273286
785.436 .0273273
786.147 .0273262
786.856 .0273252
787.566 .0273240
788.275 .0273224
788.984 .0273196
789.693 .0273161
790.401 .0273121
791.110 .0273075
791.818 .0273028
792.525 .0272979
793.233 .0272931
793.940 .0272882
794.647 .0272827
795.353 .0272761
796.060 .0272685
796.766 .0272604
797.472 .0272514
798.177 .0272419
798.883 .0272324
799.588 .0272231
800.292 .0272140
800.997 .0272052
801.701 .0271965
802.405 .0271878
803.109 .0271789
803.812 .0271693
804.515 .0271591
805.218 .0271480
805.921 .0271364
806.623 .0271244
807.325 .0271125
808.027 .0271006
808.728 .0270887
809.429 .0270766
810.130 .0270646
810.831 .0270524
811.531 .0270400
812.231 .0270271
812.931 .0270141
813.630 .0270009
814.330 .0269876
815.029 .0269746
815.727 .0269622
816.426 .0269500
817.124 .0269383
817.821 .0269265
818.519 .0269150
819.216 .0269035
819.913 .0268927
820.609 .0268825
821.306 .0268736
822.002 .0268665
822.697 .0268609
823.393 .0268572
824.088 .0268552
824.783 .0268541
825.477 .0268539
826.171 .0268540
826.865 .0268544
827.559 .0268549
828.252 .0268559
828.945 .0268577
829.638 .0268599
830.330 .0268626
831.023 .0268658
831.714 .0268687
832.406 .0268707
833.097 .0268715
833.788 .0268709
834.479 .0268689
835.169 .0268656
835.859 .0268615
836.548 .0268571
837.238 .0268527
837.927 .0268482
838.615 .0268434
839.304 .0268384
839.992 .0268330
840.680 .0268268
841.367 .0268200
842.054 .0268131
842.741 .0268063
843.428 .0268001
844.114 .0267948
844.800 .0267905
845.485 .0267865
846.170 .0267821
846.855 .0267769
847.540 .0267706
848.224 .0267629
848.908 .0267536
849.592 .0267431
850.275 .0267319
850.958 .0267200
851.641 .0267076
852.323 .0266945
853.005 .0266812
853.687 .0266669
854.368 .0266511
855.049 .0266338
855.730 .0266152
856.410 .0265953
857.090 .0265743
857.769 .0265527
858.449 .0265308
859.128 .0265084
859.806 .0264862
860.485 .0264639
861.163 .0264420
861.840 .0264202
862.518 .0263991
863.195 .0263781
863.871 .0263576
864.548 .0263376
865.224 .0263180
865.899 .0262988
866.574 .0262802
867.249 .0262618
867.924 .0262436
868.598 .0262260
869.272 .0262090
869.946 .0261926
870.619 .0261772
871.292 .0261627
871.964 .0261486
872.636 .0261348
873.308 .0261209
873.979 .0261062
874.651 .0260911
875.321 .0260753
875.992 .0260585
876.662 .0260415
877.331 .0260243
878.001 .0260073
878.670 .0259907
879.338 .0259750
880.007 .0259600
880.675 .0259456
881.342 .0259319
882.009 .0259185
882.676 .0259053
883.343 .0258930
884.009 .0258810
884.675 .0258698
885.340 .0258596
886.005 .0258503
886.670 .0258422
887.334 .0258353
887.998 .0258291
888.662 .0258235
889.325 .0258183
889.988 .0258134
890.650 .0258084
891.312 .0258034
891.974 .0257985
892.636 .0257938
893.297 .0257893
893.957 .0257848
894.618 .0257802
895.278 .0257758
895.937 .0257716
896.596 .0257675
897.255 .0257635
897.914 .0257596
898.572 .0257560
899.230 .0257523
899.887 .0257486
900.544 .0257444
901.201 .0257395
901.857 .0257340
902.513 .0257274
903.168 .0257197
903.823 .0257106
904.478 .0257004
905.132 .0256889
905.786 .0256760
906.440 .0256615
907.093 .0256457
907.746 .0256287
908.399 .0256105
909.051 .0255915
909.703 .0255716
910.354 .0255512
911.005 .0255306
911.656 .0255097
912.306 .0254886
912.956 .0254679
913.605 .0254474
914.254 .0254277
914.903 .0254090
915.551 .0253914
916.199 .0253754
916.847 .0253608
917.494 .0253479
918.141 .0253360
918.788 .0253252
919.434 .0253153
920.079 .0253055
920.725 .0252957
921.370 .0252857
922.014 .0252753
922.658 .0252641
923.302 .0252522
923.946 .0252396
924.589 .0252263
925.231 .0252122
925.873 .0251975
926.515 .0251823
927.157 .0251668
927.798 .0251512
928.439 .0251351
929.079 .0251187
929.719 .0251021
930.359 .0250855
930.998 .0250693
931.637 .0250539
932.275 .0250397
932.913 .0250266
933.551 .0250151
934.188 .0250051
934.825 .0249962
935.462 .0249884
936.098 .0249819
936.733 .0249764
937.369 .0249718
938.004 .0249681
938.638 .0249654
939.273 .0249639
939.907 .0249633
940.540 .0249633
941.173 .0249637
941.806 .0249643
942.438 .0249649
943.070 .0249653
943.702 .0249658
944.333 .0249663
944.964 .0249674
945.594 .0249688
946.224 .0249705
946.854 .0249723
947.483 .0249739
948.112 .0249754
948.741 .0249765
949.369 .0249767
949.996 .0249764
950.624 .0249760
951.251 .0249755
951.878 .0249749
952.504 .0249745
953.130 .0249741
953.755 .0249737
954.380 .0249729
955.005 .0249713
955.629 .0249693
956.253 .0249674
956.877 .0249660
957.500 .0249653
958.123 .0249660
958.746 .0249673
959.368 .0249690
959.990 .0249712
960.611 .0249733
961.232 .0249747
961.853 .0249756
962.473 .0249761
963.093 .0249768
963.712 .0249774
964.331 .0249788
964.950 .0249812
965.569 .0249846
966.187 .0249888
966.804 .0249923
967.422 .0249956
968.039 .0249982
968.655 .0249998
969.272 .0250005
969.887 .0250006
970.503 .0250008
971.118 .0250011
971.733 .0250018
972.347 .0250030
972.961 .0250046
973.575 .0250062
974.188 .0250074
974.801 .0250075
975.414 .0250065
976.026 .0250048
976.638 .0250019
977.250 .0249986
977.861 .0249948
978.472 .0249907
979.083 .0249858
979.693 .0249799
980.303 .0249734
980.912 .0249650
981.521 .0249552
982.130 .0249441
982.738 .0249322
983.346 .0249194
983.954 .0249058
984.562 .0248919
985.169 .0248774
985.775 .0248622
986.382 .0248459
986.988 .0248291
987.594 .0248117
988.199 .0247934
988.804 .0247749
989.409 .0247568
990.013 .0247401
990.617 .0247248
991.221 .0247116
991.824 .0247005
992.427 .0246918
993.030 .0246851
993.632 .0246804
994.234 .0246780
994.836 .0246777
995.438 .0246787
996.039 .0246807
996.640 .0246833
997.240 .0246862
997.840 .0246895
998.440 .0246929
999.040 .0246959
999.639 .0246987
1000.238 .0247006
1000.836 .0247015
1001.435 .0247012
1002.033 .0246999
1002.630 .0246970
1003.228 .0246931
1003.825 .0246880
1004.422 .0246820
1005.018 .0246751
1005.614 .0246684
1006.210 .0246616
1006.806 .0246551
1007.401 .0246488
1007.996 .0246429
1008.591 .0246374
1009.186 .0246330
1009.780 .0246289
1010.374 .0246251
1010.967 .0246215
1011.561 .0246181
1012.154 .0246139
1012.746 .0246090
1013.339 .0246030
1013.931 .0245959
1014.523 .0245879
1015.115 .0245793
1015.706 .0245706
1016.298 .0245624
1016.888 .0245547
1017.479 .0245471
1018.069 .0245396
1018.660 .0245316
1019.250 .0245230
1019.839 .0245136
1020.429 .0245038
1021.018 .0244937
1021.607 .0244840
1022.195 .0244756
1022.784 .0244689
1023.372 .0244645
1023.960 .0244628
1024.547 .0244627
1025.135 .0244649
1025.722 .0244677
1026.309 .0244719
1026.896 .0244771
1027.483 .0244836
1028.069 .0244907
1028.655 .0244980
1029.241 .0245051
1029.827 .0245112
1030.412 .0245158
1030.997 .0245192
1031.582 .0245212
1032.167 .0245219
1032.752 .0245219
1033.336 .0245217
1033.921 .0245213
1034.505 .0245215
1035.089 .0245214
1035.672 .0245211
1036.256 .0245195
1036.839 .0245166
1037.422 .0245125
1038.005 .0245085
1038.588 .0245063
1039.171 .0245056
1039.753 .0245081
1040.335 .0245134
1040.918 .0245206
1041.500 .0245278
1042.081 .0245347
1042.663 .0245393
1043.244 .0245408
1043.826 .0245383
1044.407 .0245324
1044.988 .0245247
1045.569 .0245165
1046.150 .0245076
1046.730 .0244989
1047.311 .0244902
1047.891 .0244806
1048.471 .0244684
1049.052 .0244543
1049.632 .0244378
1050.211 .0244201
1050.791 .0244017
1051.371 .0243839
1051.950 .0243670
1052.530 .0243519
1053.109 .0243380
1053.688 .0243259
1054.268 .0243142
1054.847 .0243019
1055.426 .0242889
1056.005 .0242765
1056.583 .0242651
1057.162 .0242546
1057.741 .0242458
1058.319 .0242409
1058.898 .0242386
1059.476 .0242391
1060.055 .0242411
1060.633 .0242450
1061.211 .0242502
1061.790 .0242558
1062.368 .0242609
1062.946 .0242660
1063.524 .0242718
1064.102 .0242785
1064.680 .0242849
1065.258 .0242914
1065.836 .0242972
1066.414 .0243018
1066.992 .0243051
1067.570 .0243066
1068.148 .0243051
1068.726 .0243022
1069.304 .0242990
1069.882 .0242951
1070.460 .0242911
1071.038 .0242877
1071.616 .0242848
1072.194 .0242824
1072.772 .0242800
1073.350 .0242769
1073.928 .0242727
1074.506 .0242692
1075.084 .0242653
1075.662 .0242601
1076.240 .0242555
1076.819 .0242510
1077.397 .0242466
1077.976 .0242427
1078.554 .0242380
1079.133 .0242318
1079.711 .0242249
1080.290 .0242173
1080.869 .0242084
1081.448 .0241990
1082.027 .0241912
1082.606 .0241840
1083.185 .0241782
1083.764 .0241750
1084.343 .0241730
1084.923 .0241731
1085.502 .0241763
1086.082 .0241806
1086.662 .0241879
1087.242 .0241971
1087.822 .0242100
1088.402 .0242271
1088.983 .0242477
1089.563 .0242711
1090.144 .0242957
1090.725 .0243226
1091.306 .0243495
1091.887 .0243748
1092.469 .0244000
1093.050 .0244243
1093.632 .0244471
1094.214 .0244676
1094.796 .0244861
1095.379 .0245033
1095.961 .0245196
1096.544 .0245335
1097.127 .0245463
1097.710 .0245580
1098.294 .0245679
1098.877 .0245775
1099.461 .0245861
1100.046 .0245968
1100.630 .0246087
1101.215 .0246232
1101.800 .0246422
1102.385 .0246660
1102.970 .0246943
1103.556 .0247269
1104.142 .0247645
1104.728 .0248060
1105.315 .0248493
1105.902 .0248936
1106.489 .0249394
1107.077 .0249866
1107.664 .0250333
1108.253 .0250807
1108.841 .0251265
1109.430 .0251731
1110.019 .0252166
1110.609 .0252551
1111.198 .0252891
1111.789 .0253193
1112.379 .0253463
1112.970 .0253684
1113.561 .0253908
1114.153 .0254148
1114.745 .0254406
1115.338 .0254700
1115.931 .0255013
1116.524 .0255358
1117.117 .0255748
1117.712 .0256127
1118.306 .0256496
1118.901 .0256872
1119.496 .0257284
1120.092 .0257715
1120.689 .0258204
1121.285 .0258742
1121.882 .0259327
1122.480 .0259950
1123.078 .0260612
1123.677 .0261275
1124.276 .0261951
1124.875 .0262598
1125.476 .0263219
1126.076 .0263835
1126.677 .0264426
1127.279 .0264990
1127.881 .0265629
1128.484 .0266335
1129.087 .0267088
1129.691 .0267854
1130.295 .0268647
1130.900 .0269462
1131.505 .0270276
1132.111 .0271045
1132.718 .0271751
1133.325 .0272482
1133.933 .0273236
1134.541 .0274020
1135.150 .0274923
1135.760 .0275971
1136.370 .0277134
1136.981 .0278412
1137.592 .0279709
1138.204 .0280944
1138.817 .0282224
1139.431 .0283463
1140.045 .0284696
1140.660 .0285977
1141.275 .0287263
1141.891 .0288657
1142.508 .0289604
1143.126 .0292152
1143.744 .0294195
1144.363 .0294134
1144.983 .0297059
