Measurement Sequence started on: 15-12-46-377
Integration time: 28
Scans to Average: 2 
>>>>>Begin Spectral Data<<<<<
432.689 .0000100
433.621 .0000100
434.552 .0000100
435.482 .0000100
436.410 .0000100
437.337 .0000100
438.262 .0269683
439.187 .0571723
440.110 .0947325
441.031 .1370814
441.952 .1781675
442.871 .2104903
443.789 .2281340
444.705 .2291431
445.621 .2159784
446.535 .1940729
447.447 .1693080
448.359 .1314709
449.269 .1127646
450.178 .1009844
451.086 .0927035
451.993 .0863702
452.898 .0813019
453.803 .0771248
454.706 .0735780
455.608 .0705175
456.508 .0678509
457.408 .0655396
458.306 .0635094
459.204 .0617042
460.100 .0601067
460.995 .0586856
461.888 .0574250
462.781 .0562966
463.673 .0552677
464.563 .0543377
465.452 .0534958
466.340 .0527063
467.228 .0519803
468.114 .0513091
468.999 .0506922
469.882 .0501191
470.765 .0495894
471.647 .0490989
472.528 .0486521
473.407 .0482501
474.286 .0478849
475.163 .0475512
476.040 .0472501
476.915 .0469712
477.790 .0467054
478.663 .0464533
479.535 .0462081
480.407 .0459693
481.277 .0457526
482.147 .0455567
483.015 .0453862
483.883 .0452398
484.749 .0451165
485.615 .0450141
486.479 .0449238
487.343 .0448430
488.206 .0447715
489.067 .0447164
489.928 .0446731
490.788 .0446498
491.647 .0446543
492.505 .0447000
493.362 .0447839
494.218 .0449049
495.073 .0450601
495.928 .0452398
496.781 .0454375
497.634 .0456521
498.486 .0458884
499.337 .0461595
500.187 .0464556
501.036 .0467944
501.884 .0471652
502.731 .0475702
503.578 .0480048
504.424 .0484598
505.268 .0489185
506.113 .0493789
506.956 .0498411
507.798 .0503225
508.640 .0508356
509.480 .0514039
510.320 .0520492
511.160 .0527933
511.998 .0536344
512.836 .0545772
513.672 .0556152
514.508 .0567727
515.344 .0580314
516.178 .0594361
517.012 .0610323
517.845 .0628397
518.677 .0649079
519.508 .0672690
520.339 .0699606
521.169 .0730319
521.998 .0764761
522.826 .0803558
523.654 .0846892
524.481 .0894906
525.307 .0947837
526.133 .1005514
526.958 .1067698
527.782 .1133609
528.605 .1201533
529.428 .1270691
530.250 .1335817
531.072 .1394625
531.892 .1444219
532.712 .1482301
533.532 .1507141
534.350 .1516612
535.168 .1509929
535.986 .1488285
536.802 .1452422
537.618 .1404647
538.434 .1346227
539.249 .1282161
540.063 .1214328
540.876 .1145413
541.689 .1078195
542.501 .1015008
543.313 .0957380
544.124 .0905917
544.934 .0859457
545.744 .0817505
546.553 .0779478
547.361 .0745238
548.169 .0714393
548.976 .0686403
549.783 .0660998
550.589 .0638143
551.395 .0617523
552.200 .0599049
553.004 .0582161
553.808 .0566690
554.611 .0552658
555.414 .0539640
556.216 .0527676
557.018 .0516659
557.819 .0506632
558.619 .0497448
559.419 .0488959
560.218 .0481077
561.017 .0473638
561.815 .0466674
562.613 .0460023
563.410 .0453640
564.207 .0447505
565.003 .0441530
565.799 .0435708
566.594 .0430055
567.388 .0424729
568.182 .0419576
568.976 .0414689
569.769 .0409977
570.562 .0405403
571.354 .0400998
572.145 .0396766
572.936 .0392713
573.727 .0388795
574.517 .0384996
575.307 .0381243
576.096 .0377569
576.885 .0373981
577.673 .0370435
578.461 .0366992
579.248 .0363658
580.035 .0360469
580.821 .0357401
581.607 .0354507
582.392 .0351776
583.177 .0349216
583.962 .0346809
584.746 .0344518
585.529 .0342337
586.313 .0340296
587.095 .0338378
587.878 .0336584
588.660 .0334965
589.441 .0333502
590.222 .0332194
591.003 .0331057
591.783 .0330063
592.563 .0329187
593.342 .0328405
594.121 .0327681
594.899 .0326980
595.678 .0326312
596.455 .0325664
597.233 .0325032
598.009 .0324429
598.786 .0323868
599.562 .0323342
600.338 .0322855
601.113 .0322397
601.888 .0321949
602.663 .0321502
603.437 .0321057
604.211 .0320587
604.984 .0320105
605.757 .0319622
606.530 .0319144
607.302 .0318687
608.074 .0318257
608.845 .0317863
609.616 .0317500
610.387 .0317170
611.158 .0316871
611.928 .0316584
612.697 .0316311
613.467 .0316051
614.236 .0315807
615.004 .0315580
615.773 .0315376
616.541 .0315195
617.308 .0315041
618.076 .0314917
618.843 .0314808
619.609 .0314713
620.375 .0314625
621.141 .0314549
621.907 .0314467
622.672 .0314387
623.437 .0314304
624.202 .0314212
624.966 .0314115
625.730 .0314006
626.493 .0313879
627.257 .0313736
628.020 .0313573
628.782 .0313398
629.545 .0313200
630.307 .0312991
631.068 .0312759
631.830 .0312515
632.591 .0312248
633.352 .0311958
634.112 .0311641
634.872 .0311304
635.632 .0310946
636.392 .0310575
637.151 .0310200
637.910 .0309834
638.668 .0309476
639.427 .0309143
640.185 .0308821
640.943 .0308520
641.700 .0308222
642.457 .0307935
643.214 .0307643
643.971 .0307354
644.727 .0307066
645.483 .0306789
646.239 .0306528
646.994 .0306292
647.750 .0306072
648.505 .0305877
649.259 .0305694
650.014 .0305523
650.768 .0305341
651.521 .0305157
652.275 .0304956
653.028 .0304746
653.781 .0304518
654.534 .0304281
655.286 .0304033
656.039 .0303782
656.791 .0303515
657.542 .0303239
658.294 .0302954
659.045 .0302665
659.796 .0302361
660.546 .0302057
661.297 .0301745
662.047 .0301434
662.796 .0301119
663.546 .0300813
664.295 .0300508
665.044 .0300212
665.793 .0299926
666.542 .0299662
667.290 .0299419
668.038 .0299204
668.786 .0299007
669.533 .0298837
670.281 .0298683
671.028 .0298543
671.774 .0298409
672.521 .0298286
673.267 .0298172
674.013 .0298068
674.759 .0297968
675.505 .0297875
676.250 .0297789
676.995 .0297706
677.740 .0297619
678.484 .0297527
679.229 .0297421
679.973 .0297309
680.717 .0297186
681.460 .0297059
682.204 .0296930
682.947 .0296808
683.690 .0296689
684.433 .0296573
685.175 .0296461
685.917 .0296346
686.659 .0296226
687.401 .0296107
688.142 .0295980
688.884 .0295849
689.625 .0295714
690.365 .0295573
691.106 .0295425
691.846 .0295273
692.586 .0295112
693.326 .0294944
694.066 .0294766
694.805 .0294581
695.545 .0294387
696.284 .0294187
697.022 .0293980
697.761 .0293771
698.499 .0293562
699.237 .0293353
699.975 .0293140
700.713 .0292927
701.450 .0292717
702.187 .0292509
702.924 .0292305
703.661 .0292102
704.397 .0291907
705.133 .0291715
705.869 .0291525
706.605 .0291340
707.341 .0291160
708.076 .0290984
708.811 .0290813
709.546 .0290642
710.281 .0290470
711.015 .0290294
711.749 .0290117
712.483 .0289938
713.217 .0289757
713.950 .0289572
714.684 .0289384
715.417 .0289196
716.150 .0289010
716.882 .0288821
717.615 .0288635
718.347 .0288452
719.079 .0288272
719.811 .0288095
720.542 .0287920
721.273 .0287749
722.005 .0287583
722.735 .0287419
723.466 .0287255
724.196 .0287086
724.927 .0286910
725.656 .0286726
726.386 .0286536
727.116 .0286341
727.845 .0286146
728.574 .0285960
729.303 .0285783
730.031 .0285617
730.760 .0285465
731.488 .0285325
732.216 .0285195
732.944 .0285072
733.671 .0284952
734.398 .0284834
735.125 .0284721
735.852 .0284612
736.579 .0284509
737.305 .0284417
738.031 .0284335
738.757 .0284259
739.483 .0284186
740.208 .0284113
740.933 .0284034
741.658 .0283947
742.383 .0283847
743.108 .0283729
743.832 .0283598
744.556 .0283454
745.280 .0283299
746.004 .0283132
746.727 .0282962
747.450 .0282792
748.173 .0282621
748.896 .0282459
749.618 .0282304
750.340 .0282160
751.062 .0282033
751.784 .0281915
752.506 .0281805
753.227 .0281698
753.948 .0281590
754.669 .0281480
755.389 .0281362
756.110 .0281244
756.830 .0281119
757.550 .0281000
758.269 .0280889
758.989 .0280782
759.708 .0280676
760.427 .0280572
761.146 .0280459
761.864 .0280334
762.582 .0280190
763.300 .0280031
764.018 .0279857
764.736 .0279680
765.453 .0279500
766.170 .0279328
766.887 .0279166
767.603 .0279023
768.320 .0278887
769.036 .0278762
769.751 .0278635
770.467 .0278506
771.182 .0278371
771.897 .0278231
772.612 .0278087
773.327 .0277948
774.041 .0277815
774.755 .0277695
775.469 .0277585
776.183 .0277488
776.896 .0277400
777.609 .0277320
778.322 .0277242
779.035 .0277162
779.747 .0277080
780.459 .0276998
781.171 .0276916
781.882 .0276838
782.594 .0276764
783.305 .0276698
784.016 .0276637
784.726 .0276582
785.436 .0276525
786.147 .0276469
786.856 .0276408
787.566 .0276342
788.275 .0276265
788.984 .0276178
789.693 .0276083
790.401 .0275981
791.110 .0275871
791.818 .0275756
792.525 .0275633
793.233 .0275508
793.940 .0275382
794.647 .0275258
795.353 .0275133
796.060 .0275014
796.766 .0274897
797.472 .0274783
798.177 .0274669
798.883 .0274555
799.588 .0274440
800.292 .0274327
800.997 .0274213
801.701 .0274093
802.405 .0273973
803.109 .0273856
803.812 .0273737
804.515 .0273616
805.218 .0273489
805.921 .0273354
806.623 .0273209
807.325 .0273055
808.027 .0272896
808.728 .0272731
809.429 .0272567
810.130 .0272403
810.831 .0272244
811.531 .0272090
812.231 .0271945
812.931 .0271802
813.630 .0271664
814.330 .0271528
815.029 .0271389
815.727 .0271250
816.426 .0271114
817.124 .0270982
817.821 .0270852
818.519 .0270729
819.216 .0270610
819.913 .0270496
820.609 .0270387
821.306 .0270281
822.002 .0270184
822.697 .0270095
823.393 .0270014
824.088 .0269941
824.783 .0269878
825.477 .0269823
826.171 .0269771
826.865 .0269728
827.559 .0269689
828.252 .0269654
828.945 .0269623
829.638 .0269594
830.330 .0269573
831.023 .0269559
831.714 .0269546
832.406 .0269536
833.097 .0269528
833.788 .0269516
834.479 .0269494
835.169 .0269466
835.859 .0269432
836.548 .0269393
837.238 .0269351
837.927 .0269311
838.615 .0269276
839.304 .0269253
839.992 .0269236
840.680 .0269226
841.367 .0269220
842.054 .0269214
842.741 .0269205
843.428 .0269192
844.114 .0269174
844.800 .0269149
845.485 .0269117
846.170 .0269079
846.855 .0269033
847.540 .0268983
848.224 .0268927
848.908 .0268867
849.592 .0268800
850.275 .0268726
850.958 .0268644
851.641 .0268555
852.323 .0268458
853.005 .0268351
853.687 .0268234
854.368 .0268109
855.049 .0267977
855.730 .0267841
856.410 .0267702
857.090 .0267566
857.769 .0267436
858.449 .0267306
859.128 .0267176
859.806 .0267047
860.485 .0266920
861.163 .0266793
861.840 .0266662
862.518 .0266528
863.195 .0266393
863.871 .0266255
864.548 .0266116
865.224 .0265973
865.899 .0265832
866.574 .0265691
867.249 .0265548
867.924 .0265405
868.598 .0265258
869.272 .0265110
869.946 .0264964
870.619 .0264818
871.292 .0264672
871.964 .0264525
872.636 .0264374
873.308 .0264220
873.979 .0264060
874.651 .0263891
875.321 .0263721
875.992 .0263554
876.662 .0263391
877.331 .0263232
878.001 .0263086
878.670 .0262950
879.338 .0262824
880.007 .0262708
880.675 .0262597
881.342 .0262489
882.009 .0262385
882.676 .0262278
883.343 .0262171
884.009 .0262067
884.675 .0261967
885.340 .0261869
886.005 .0261779
886.670 .0261695
887.334 .0261617
887.998 .0261543
888.662 .0261474
889.325 .0261405
889.988 .0261339
890.650 .0261274
891.312 .0261209
891.974 .0261146
892.636 .0261085
893.297 .0261025
893.957 .0260970
894.618 .0260918
895.278 .0260865
895.937 .0260810
896.596 .0260755
897.255 .0260692
897.914 .0260627
898.572 .0260556
899.230 .0260482
899.887 .0260401
900.544 .0260313
901.201 .0260214
901.857 .0260107
902.513 .0259991
903.168 .0259864
903.823 .0259729
904.478 .0259589
905.132 .0259441
905.786 .0259287
906.440 .0259134
907.093 .0258979
907.746 .0258824
908.399 .0258668
909.051 .0258504
909.703 .0258334
910.354 .0258155
911.005 .0257970
911.656 .0257778
912.306 .0257579
912.956 .0257379
913.605 .0257175
914.254 .0256975
914.903 .0256779
915.551 .0256584
916.199 .0256400
916.847 .0256227
917.494 .0256062
918.141 .0255909
918.788 .0255770
919.434 .0255651
920.079 .0255546
920.725 .0255452
921.370 .0255368
922.014 .0255290
922.658 .0255212
923.302 .0255130
923.946 .0255038
924.589 .0254936
925.231 .0254820
925.873 .0254693
926.515 .0254558
927.157 .0254417
927.798 .0254271
928.439 .0254119
929.079 .0253960
929.719 .0253793
930.359 .0253609
930.998 .0253418
931.637 .0253220
932.275 .0253022
932.913 .0252827
933.551 .0252647
934.188 .0252487
934.825 .0252355
935.462 .0252248
936.098 .0252167
936.733 .0252100
937.369 .0252048
938.004 .0252001
938.638 .0251955
939.273 .0251907
939.907 .0251865
940.540 .0251827
941.173 .0251802
941.806 .0251788
942.438 .0251790
943.070 .0251802
943.702 .0251822
944.333 .0251839
944.964 .0251850
945.594 .0251849
946.224 .0251841
946.854 .0251823
947.483 .0251809
948.112 .0251801
948.741 .0251804
949.369 .0251816
949.996 .0251841
950.624 .0251867
951.251 .0251893
951.878 .0251912
952.504 .0251928
953.130 .0251934
953.755 .0251933
954.380 .0251928
955.005 .0251924
955.629 .0251922
956.253 .0251923
956.877 .0251923
957.500 .0251925
958.123 .0251919
958.746 .0251909
959.368 .0251889
959.990 .0251865
960.611 .0251835
961.232 .0251802
961.853 .0251764
962.473 .0251727
963.093 .0251684
963.712 .0251638
964.331 .0251583
964.950 .0251522
965.569 .0251452
966.187 .0251378
966.804 .0251303
967.422 .0251229
968.039 .0251157
968.655 .0251092
969.272 .0251025
969.887 .0250961
970.503 .0250896
971.118 .0250834
971.733 .0250780
972.347 .0250734
972.961 .0250700
973.575 .0250679
974.188 .0250668
974.801 .0250666
975.414 .0250663
976.026 .0250654
976.638 .0250633
977.250 .0250596
977.861 .0250549
978.472 .0250488
979.083 .0250420
979.693 .0250348
980.303 .0250274
980.912 .0250196
981.521 .0250107
982.130 .0250003
982.738 .0249885
983.346 .0249745
983.954 .0249585
984.562 .0249409
985.169 .0249224
985.775 .0249039
986.382 .0248863
986.988 .0248703
987.594 .0248561
988.199 .0248437
988.804 .0248333
989.409 .0248239
990.013 .0248151
990.617 .0248064
991.221 .0247975
991.824 .0247887
992.427 .0247804
993.030 .0247732
993.632 .0247682
994.234 .0247653
994.836 .0247646
995.438 .0247657
996.039 .0247676
996.640 .0247698
997.240 .0247711
997.840 .0247711
998.440 .0247701
999.040 .0247670
999.639 .0247625
1000.238 .0247571
1000.836 .0247515
1001.435 .0247453
1002.033 .0247389
1002.630 .0247317
1003.228 .0247237
1003.825 .0247148
1004.422 .0247050
1005.018 .0246944
1005.614 .0246840
1006.210 .0246736
1006.806 .0246629
1007.401 .0246525
1007.996 .0246427
1008.591 .0246331
1009.186 .0246245
1009.780 .0246163
1010.374 .0246083
1010.967 .0246012
1011.561 .0245949
1012.154 .0245890
1012.746 .0245835
1013.339 .0245783
1013.931 .0245732
1014.523 .0245677
1015.115 .0245617
1015.706 .0245544
1016.298 .0245468
1016.888 .0245386
1017.479 .0245294
1018.069 .0245195
1018.660 .0245094
1019.250 .0244991
1019.839 .0244894
1020.429 .0244807
1021.018 .0244723
1021.607 .0244649
1022.195 .0244585
1022.784 .0244528
1023.372 .0244477
1023.960 .0244428
1024.547 .0244388
1025.135 .0244356
1025.722 .0244335
1026.309 .0244316
1026.896 .0244309
1027.483 .0244321
1028.069 .0244338
1028.655 .0244356
1029.241 .0244370
1029.827 .0244379
1030.412 .0244379
1030.997 .0244374
1031.582 .0244368
1032.167 .0244364
1032.752 .0244372
1033.336 .0244388
1033.921 .0244414
1034.505 .0244444
1035.089 .0244471
1035.672 .0244490
1036.256 .0244501
1036.839 .0244506
1037.422 .0244490
1038.005 .0244469
1038.588 .0244450
1039.171 .0244436
1039.753 .0244425
1040.335 .0244419
1040.918 .0244415
1041.500 .0244407
1042.081 .0244395
1042.663 .0244371
1043.244 .0244337
1043.826 .0244292
1044.407 .0244236
1044.988 .0244179
1045.569 .0244124
1046.150 .0244080
1046.730 .0244038
1047.311 .0244010
1047.891 .0243991
1048.471 .0243969
1049.052 .0243951
1049.632 .0243931
1050.211 .0243919
1050.791 .0243907
1051.371 .0243895
1051.950 .0243900
1052.530 .0243911
1053.109 .0243939
1053.688 .0243974
1054.268 .0244015
1054.847 .0244054
1055.426 .0244093
1056.005 .0244123
1056.583 .0244154
1057.162 .0244177
1057.741 .0244199
1058.319 .0244222
1058.898 .0244255
1059.476 .0244279
1060.055 .0244293
1060.633 .0244296
1061.211 .0244285
1061.790 .0244246
1062.368 .0244196
1062.946 .0244127
1063.524 .0244062
1064.102 .0244006
1064.680 .0243966
1065.258 .0243938
1065.836 .0243933
1066.414 .0243936
1066.992 .0243950
1067.570 .0243968
1068.148 .0243989
1068.726 .0244000
1069.304 .0244031
1069.882 .0244078
1070.460 .0244151
1071.038 .0244247
1071.616 .0244374
1072.194 .0244521
1072.772 .0244680
1073.350 .0244830
1073.928 .0244971
1074.506 .0245101
1075.084 .0245211
1075.662 .0245305
1076.240 .0245405
1076.819 .0245517
1077.397 .0245657
1077.976 .0245832
1078.554 .0246032
1079.133 .0246242
1079.711 .0246459
1080.290 .0246662
1080.869 .0246847
1081.448 .0247009
1082.027 .0247135
1082.606 .0247245
1083.185 .0247343
1083.764 .0247430
1084.343 .0247508
1084.923 .0247596
1085.502 .0247692
1086.082 .0247787
1086.662 .0247889
1087.242 .0247988
1087.822 .0248078
1088.402 .0248156
1088.983 .0248233
1089.563 .0248307
1090.144 .0248392
1090.725 .0248489
1091.306 .0248604
1091.887 .0248752
1092.469 .0248936
1093.050 .0249167
1093.632 .0249445
1094.214 .0249776
1094.796 .0250150
1095.379 .0250547
1095.961 .0250972
1096.544 .0251389
1097.127 .0251794
1097.710 .0252170
1098.294 .0252515
1098.877 .0252820
1099.461 .0253091
1100.046 .0253342
1100.630 .0253597
1101.215 .0253856
1101.800 .0254128
1102.385 .0254401
1102.970 .0254677
1103.556 .0254936
1104.142 .0255162
1104.728 .0255346
1105.315 .0255495
1105.902 .0255599
1106.489 .0255699
1107.077 .0255807
1107.664 .0255963
1108.253 .0256184
1108.841 .0256486
1109.430 .0256871
1110.019 .0257306
1110.609 .0257781
1111.198 .0258260
1111.789 .0258724
1112.379 .0259162
1112.970 .0259529
1113.561 .0259878
1114.153 .0260221
1114.745 .0260574
1115.338 .0260944
1115.931 .0261331
1116.524 .0261749
1117.117 .0262175
1117.712 .0262599
1118.306 .0262998
1118.901 .0263365
1119.496 .0263712
1120.092 .0264033
1120.689 .0264326
1121.285 .0264628
1121.882 .0264955
1122.480 .0265335
1123.078 .0265772
1123.677 .0266233
1124.276 .0266727
1124.875 .0267250
1125.476 .0267812
1126.076 .0268406
1126.677 .0269012
1127.279 .0269656
1127.881 .0270340
1128.484 .0271078
1129.087 .0271825
1129.691 .0272591
1130.295 .0273382
1130.900 .0274194
1131.505 .0275043
1132.111 .0275912
1132.718 .0276828
1133.325 .0277831
1133.933 .0278875
1134.541 .0279943
1135.150 .0281022
1135.760 .0282081
1136.370 .0283107
1136.981 .0284125
1137.592 .0285109
1138.204 .0286068
1138.817 .0287065
1139.431 .0288080
1140.045 .0289094
1140.660 .0290119
1141.275 .0291281
1141.891 .0292672
1142.508 .0293207
1143.126 .0293979
1143.744 .0294651
1144.363 .0300278
1144.983 .0305486
