Measurement Sequence started on: 15-12-46-377
Integration time: 28
Scans to Average: 2 
>>>>>Begin Spectral Data<<<<<
432.689 .0000100
433.621 .0000100
434.552 .0000100
435.482 .0000100
436.410 .0000100
437.337 .0000100
438.262 .0253979
439.187 .0538358
440.110 .0891097
441.031 .1289344
441.952 .1676205
442.871 .1980768
443.789 .2148439
444.705 .2160444
445.621 .2040141
446.535 .1838003
447.447 .1609269
448.359 .1257216
449.269 .1084941
450.178 .0977720
451.086 .0901956
451.993 .0843949
452.898 .0798007
453.803 .0759943
454.706 .0727983
455.608 .0700430
456.508 .0676540
457.408 .0655512
458.306 .0636805
459.204 .0619723
460.100 .0604326
460.995 .0590280
461.888 .0577240
462.781 .0565009
463.673 .0553454
464.563 .0542634
465.452 .0532533
466.340 .0523035
467.228 .0514378
468.114 .0506454
468.999 .0499385
469.882 .0493011
470.765 .0487374
471.647 .0482442
472.528 .0478108
473.407 .0474384
474.286 .0471363
475.163 .0468854
476.040 .0466915
476.915 .0465406
477.790 .0464297
478.663 .0463496
479.535 .0462868
480.407 .0462348
481.277 .0461975
482.147 .0461679
483.015 .0461435
483.883 .0461228
484.749 .0461159
485.615 .0461138
486.479 .0461140
487.343 .0461251
488.206 .0461429
489.067 .0461567
489.928 .0461772
490.788 .0461964
491.647 .0462244
492.505 .0462678
493.362 .0463332
494.218 .0464255
495.073 .0465511
495.928 .0467092
496.781 .0468898
497.634 .0471013
498.486 .0473386
499.337 .0475873
500.187 .0478603
501.036 .0481563
501.884 .0484697
502.731 .0488067
503.578 .0491821
504.424 .0495926
505.268 .0500343
506.113 .0505071
506.956 .0510015
507.798 .0515263
508.640 .0520929
509.480 .0527018
510.320 .0533685
511.160 .0541291
511.998 .0549877
512.836 .0559540
513.672 .0570459
514.508 .0582664
515.344 .0596124
516.178 .0611003
517.012 .0627505
517.845 .0645845
518.677 .0666576
519.508 .0689999
520.339 .0716634
521.169 .0747420
521.998 .0782558
522.826 .0822603
523.654 .0867849
524.481 .0918748
525.307 .0975068
526.133 .1036528
526.958 .1103024
527.782 .1173994
528.605 .1248352
529.428 .1325049
530.250 .1398898
531.072 .1467578
531.892 .1526988
532.712 .1572792
533.532 .1602930
534.350 .1615266
535.168 .1608035
535.986 .1581776
536.802 .1538106
537.618 .1480452
538.434 .1411450
539.249 .1336884
540.063 .1259068
540.876 .1181452
541.689 .1107318
542.501 .1037538
543.313 .0973809
544.124 .0917219
544.934 .0866576
545.744 .0821020
546.553 .0779769
547.361 .0742934
548.169 .0710134
548.976 .0681076
549.783 .0655511
550.589 .0632963
551.395 .0612835
552.200 .0594811
553.004 .0578156
553.808 .0562815
554.611 .0548818
555.414 .0535818
556.216 .0523885
557.018 .0513167
557.819 .0503576
558.619 .0495003
559.419 .0487348
560.218 .0480609
561.017 .0474438
561.815 .0468618
562.613 .0462931
563.410 .0457222
564.207 .0451560
565.003 .0445860
565.799 .0440183
566.594 .0434636
567.388 .0429328
568.182 .0424170
568.976 .0419148
569.769 .0414332
570.562 .0409653
571.354 .0404980
572.145 .0400290
572.936 .0395604
573.727 .0390980
574.517 .0386420
575.307 .0381966
576.096 .0377625
576.885 .0373528
577.673 .0369645
578.461 .0366004
579.248 .0362620
580.035 .0359520
580.821 .0356685
581.607 .0354085
582.392 .0351700
583.177 .0349507
583.962 .0347491
584.746 .0345679
585.529 .0344008
586.313 .0342467
587.095 .0341036
587.878 .0339708
588.660 .0338466
589.441 .0337310
590.222 .0336205
591.003 .0335174
591.783 .0334210
592.563 .0333309
593.342 .0332452
594.121 .0331634
594.899 .0330858
595.678 .0330109
596.455 .0329390
597.233 .0328689
598.009 .0327993
598.786 .0327321
599.562 .0326659
600.338 .0325993
601.113 .0325330
601.888 .0324680
602.663 .0324039
603.437 .0323422
604.211 .0322823
604.984 .0322245
605.757 .0321699
606.530 .0321189
607.302 .0320699
608.074 .0320240
608.845 .0319814
609.616 .0319410
610.387 .0319030
611.158 .0318683
611.928 .0318355
612.697 .0318050
613.467 .0317767
614.236 .0317506
615.004 .0317254
615.773 .0317017
616.541 .0316781
617.308 .0316553
618.076 .0316332
618.843 .0316107
619.609 .0315887
620.375 .0315677
621.141 .0315473
621.907 .0315276
622.672 .0315083
623.437 .0314895
624.202 .0314706
624.966 .0314522
625.730 .0314335
626.493 .0314147
627.257 .0313951
628.020 .0313752
628.782 .0313550
629.545 .0313344
630.307 .0313131
631.068 .0312915
631.830 .0312695
632.591 .0312472
633.352 .0312246
634.112 .0312016
634.872 .0311784
635.632 .0311553
636.392 .0311316
637.151 .0311077
637.910 .0310835
638.668 .0310594
639.427 .0310363
640.185 .0310153
640.943 .0309956
641.700 .0309782
642.457 .0309639
643.214 .0309512
643.971 .0309395
644.727 .0309284
645.483 .0309167
646.239 .0309037
646.994 .0308887
647.750 .0308711
648.505 .0308522
649.259 .0308329
650.014 .0308135
650.768 .0307943
651.521 .0307769
652.275 .0307604
653.028 .0307440
653.781 .0307278
654.534 .0307106
655.286 .0306915
656.039 .0306711
656.791 .0306489
657.542 .0306253
658.294 .0306011
659.045 .0305773
659.796 .0305542
660.546 .0305325
661.297 .0305116
662.047 .0304909
662.796 .0304697
663.546 .0304482
664.295 .0304247
665.044 .0303996
665.793 .0303738
666.542 .0303470
667.290 .0303194
668.038 .0302923
668.786 .0302659
669.533 .0302409
670.281 .0302168
671.028 .0301939
671.774 .0301710
672.521 .0301487
673.267 .0301261
674.013 .0301032
674.759 .0300794
675.505 .0300560
676.250 .0300322
676.995 .0300089
677.740 .0299860
678.484 .0299634
679.229 .0299413
679.973 .0299194
680.717 .0298972
681.460 .0298748
682.204 .0298520
682.947 .0298295
683.690 .0298070
684.433 .0297853
685.175 .0297639
685.917 .0297433
686.659 .0297236
687.401 .0297046
688.142 .0296861
688.884 .0296680
689.625 .0296496
690.365 .0296314
691.106 .0296130
691.846 .0295941
692.586 .0295751
693.326 .0295560
694.066 .0295364
694.805 .0295165
695.545 .0294959
696.284 .0294747
697.022 .0294530
697.761 .0294313
698.499 .0294088
699.237 .0293863
699.975 .0293644
700.713 .0293428
701.450 .0293217
702.187 .0293015
702.924 .0292815
703.661 .0292626
704.397 .0292445
705.133 .0292274
705.869 .0292113
706.605 .0291967
707.341 .0291831
708.076 .0291704
708.811 .0291584
709.546 .0291464
710.281 .0291339
711.015 .0291214
711.749 .0291081
712.483 .0290941
713.217 .0290791
713.950 .0290636
714.684 .0290472
715.417 .0290305
716.150 .0290129
716.882 .0289951
717.615 .0289772
718.347 .0289593
719.079 .0289415
719.811 .0289240
720.542 .0289068
721.273 .0288901
722.005 .0288735
722.735 .0288572
723.466 .0288410
724.196 .0288254
724.927 .0288098
725.656 .0287946
726.386 .0287801
727.116 .0287665
727.845 .0287538
728.574 .0287418
729.303 .0287304
730.031 .0287192
730.760 .0287083
731.488 .0286973
732.216 .0286866
732.944 .0286767
733.671 .0286676
734.398 .0286594
735.125 .0286526
735.852 .0286472
736.579 .0286428
737.305 .0286395
738.031 .0286369
738.757 .0286344
739.483 .0286313
740.208 .0286275
740.933 .0286231
741.658 .0286183
742.383 .0286129
743.108 .0286070
743.832 .0286007
744.556 .0285943
745.280 .0285874
746.004 .0285807
746.727 .0285740
747.450 .0285672
748.173 .0285602
748.896 .0285527
749.618 .0285450
750.340 .0285370
751.062 .0285290
751.784 .0285211
752.506 .0285129
753.227 .0285043
753.948 .0284952
754.669 .0284857
755.389 .0284755
756.110 .0284643
756.830 .0284520
757.550 .0284387
758.269 .0284239
758.989 .0284078
759.708 .0283911
760.427 .0283734
761.146 .0283549
761.864 .0283356
762.582 .0283155
763.300 .0282948
764.018 .0282740
764.736 .0282532
765.453 .0282332
766.170 .0282142
766.887 .0281961
767.603 .0281793
768.320 .0281638
769.036 .0281495
769.751 .0281358
770.467 .0281225
771.182 .0281097
771.897 .0280970
772.612 .0280848
773.327 .0280731
774.041 .0280620
774.755 .0280517
775.469 .0280419
776.183 .0280325
776.896 .0280232
777.609 .0280138
778.322 .0280037
779.035 .0279927
779.747 .0279806
780.459 .0279679
781.171 .0279545
781.882 .0279410
782.594 .0279276
783.305 .0279142
784.016 .0279014
784.726 .0278888
785.436 .0278763
786.147 .0278637
786.856 .0278508
787.566 .0278374
788.275 .0278235
788.984 .0278094
789.693 .0277948
790.401 .0277799
791.110 .0277647
791.818 .0277492
792.525 .0277334
793.233 .0277178
793.940 .0277018
794.647 .0276859
795.353 .0276697
796.060 .0276527
796.766 .0276351
797.472 .0276167
798.177 .0275975
798.883 .0275780
799.588 .0275580
800.292 .0275383
800.997 .0275191
801.701 .0275008
802.405 .0274832
803.109 .0274661
803.812 .0274497
804.515 .0274331
805.218 .0274157
805.921 .0273973
806.623 .0273779
807.325 .0273577
808.027 .0273369
808.728 .0273158
809.429 .0272947
810.130 .0272736
810.831 .0272524
811.531 .0272311
812.231 .0272088
812.931 .0271857
813.630 .0271612
814.330 .0271357
815.029 .0271103
815.727 .0270847
816.426 .0270600
817.124 .0270369
817.821 .0270154
818.519 .0269956
819.216 .0269774
819.913 .0269610
820.609 .0269459
821.306 .0269321
822.002 .0269200
822.697 .0269097
823.393 .0269016
824.088 .0268953
824.783 .0268901
825.477 .0268863
826.171 .0268834
826.865 .0268808
827.559 .0268786
828.252 .0268769
828.945 .0268758
829.638 .0268752
830.330 .0268753
831.023 .0268765
831.714 .0268781
832.406 .0268801
833.097 .0268813
833.788 .0268814
834.479 .0268800
835.169 .0268775
835.859 .0268747
836.548 .0268720
837.238 .0268702
837.927 .0268698
838.615 .0268706
839.304 .0268729
839.992 .0268758
840.680 .0268783
841.367 .0268799
842.054 .0268806
842.741 .0268794
843.428 .0268776
844.114 .0268755
844.800 .0268743
845.485 .0268738
846.170 .0268744
846.855 .0268753
847.540 .0268759
848.224 .0268762
848.908 .0268753
849.592 .0268727
850.275 .0268692
850.958 .0268643
851.641 .0268592
852.323 .0268539
853.005 .0268488
853.687 .0268435
854.368 .0268385
855.049 .0268327
855.730 .0268262
856.410 .0268189
857.090 .0268115
857.769 .0268033
858.449 .0267954
859.128 .0267881
859.806 .0267814
860.485 .0267755
861.163 .0267709
861.840 .0267662
862.518 .0267619
863.195 .0267575
863.871 .0267526
864.548 .0267475
865.224 .0267426
865.899 .0267375
866.574 .0267331
867.249 .0267295
867.924 .0267266
868.598 .0267239
869.272 .0267224
869.946 .0267211
870.619 .0267197
871.292 .0267185
871.964 .0267173
872.636 .0267159
873.308 .0267148
873.979 .0267135
874.651 .0267120
875.321 .0267104
875.992 .0267085
876.662 .0267058
877.331 .0267028
878.001 .0266992
878.670 .0266950
879.338 .0266902
880.007 .0266857
880.675 .0266811
881.342 .0266765
882.009 .0266724
882.676 .0266687
883.343 .0266655
884.009 .0266626
884.675 .0266598
885.340 .0266572
886.005 .0266550
886.670 .0266537
887.334 .0266533
887.998 .0266540
888.662 .0266561
889.325 .0266590
889.988 .0266624
890.650 .0266663
891.312 .0266696
891.974 .0266725
892.636 .0266746
893.297 .0266757
893.957 .0266757
894.618 .0266748
895.278 .0266735
895.937 .0266718
896.596 .0266699
897.255 .0266675
897.914 .0266640
898.572 .0266600
899.230 .0266545
899.887 .0266474
900.544 .0266388
901.201 .0266284
901.857 .0266168
902.513 .0266042
903.168 .0265907
903.823 .0265763
904.478 .0265617
905.132 .0265463
905.786 .0265302
906.440 .0265127
907.093 .0264940
907.746 .0264735
908.399 .0264518
909.051 .0264287
909.703 .0264038
910.354 .0263782
911.005 .0263522
911.656 .0263262
912.306 .0263001
912.956 .0262742
913.605 .0262486
914.254 .0262234
914.903 .0261987
915.551 .0261739
916.199 .0261496
916.847 .0261260
917.494 .0261027
918.141 .0260800
918.788 .0260577
919.434 .0260361
920.079 .0260145
920.725 .0259935
921.370 .0259722
922.014 .0259504
922.658 .0259281
923.302 .0259057
923.946 .0258821
924.589 .0258577
925.231 .0258316
925.873 .0258043
926.515 .0257758
927.157 .0257460
927.798 .0257147
928.439 .0256822
929.079 .0256491
929.719 .0256153
930.359 .0255806
930.998 .0255463
931.637 .0255119
932.275 .0254784
932.913 .0254453
933.551 .0254130
934.188 .0253816
934.825 .0253515
935.462 .0253226
936.098 .0252950
936.733 .0252687
937.369 .0252438
938.004 .0252204
938.638 .0251982
939.273 .0251779
939.907 .0251587
940.540 .0251406
941.173 .0251236
941.806 .0251075
942.438 .0250924
943.070 .0250776
943.702 .0250633
944.333 .0250491
944.964 .0250348
945.594 .0250205
946.224 .0250058
946.854 .0249914
947.483 .0249777
948.112 .0249640
948.741 .0249505
949.369 .0249373
949.996 .0249240
950.624 .0249109
951.251 .0248980
951.878 .0248852
952.504 .0248721
953.130 .0248589
953.755 .0248455
954.380 .0248318
955.005 .0248179
955.629 .0248034
956.253 .0247887
956.877 .0247737
957.500 .0247584
958.123 .0247430
958.746 .0247279
959.368 .0247131
959.990 .0246983
960.611 .0246834
961.232 .0246678
961.853 .0246524
962.473 .0246372
963.093 .0246219
963.712 .0246069
964.331 .0245924
964.950 .0245785
965.569 .0245656
966.187 .0245540
966.804 .0245435
967.422 .0245342
968.039 .0245261
968.655 .0245180
969.272 .0245098
969.887 .0245019
970.503 .0244943
971.118 .0244869
971.733 .0244801
972.347 .0244739
972.961 .0244682
973.575 .0244639
974.188 .0244601
974.801 .0244566
975.414 .0244528
976.026 .0244483
976.638 .0244424
977.250 .0244356
977.861 .0244280
978.472 .0244196
979.083 .0244107
979.693 .0244019
980.303 .0243920
980.912 .0243816
981.521 .0243701
982.130 .0243583
982.738 .0243459
983.346 .0243330
983.954 .0243195
984.562 .0243068
985.169 .0242946
985.775 .0242833
986.382 .0242730
986.988 .0242640
987.594 .0242553
988.199 .0242473
988.804 .0242394
989.409 .0242324
990.013 .0242264
990.617 .0242218
991.221 .0242180
991.824 .0242168
992.427 .0242171
993.030 .0242187
993.632 .0242218
994.234 .0242265
994.836 .0242319
995.438 .0242382
996.039 .0242455
996.640 .0242534
997.240 .0242624
997.840 .0242728
998.440 .0242839
999.040 .0242963
999.639 .0243091
1000.238 .0243215
1000.836 .0243336
1001.435 .0243451
1002.033 .0243556
1002.630 .0243650
1003.228 .0243741
1003.825 .0243829
1004.422 .0243916
1005.018 .0244007
1005.614 .0244102
1006.210 .0244203
1006.806 .0244315
1007.401 .0244426
1007.996 .0244534
1008.591 .0244643
1009.186 .0244752
1009.780 .0244865
1010.374 .0244983
1010.967 .0245107
1011.561 .0245240
1012.154 .0245380
1012.746 .0245526
1013.339 .0245671
1013.931 .0245809
1014.523 .0245948
1015.115 .0246076
1015.706 .0246194
1016.298 .0246307
1016.888 .0246420
1017.479 .0246538
1018.069 .0246659
1018.660 .0246796
1019.250 .0246942
1019.839 .0247094
1020.429 .0247258
1021.018 .0247425
1021.607 .0247595
1022.195 .0247766
1022.784 .0247938
1023.372 .0248111
1023.960 .0248295
1024.547 .0248483
1025.135 .0248673
1025.722 .0248866
1026.309 .0249062
1026.896 .0249246
1027.483 .0249418
1028.069 .0249582
1028.655 .0249726
1029.241 .0249854
1029.827 .0249976
1030.412 .0250090
1030.997 .0250208
1031.582 .0250330
1032.167 .0250457
1032.752 .0250586
1033.336 .0250731
1033.921 .0250877
1034.505 .0251026
1035.089 .0251179
1035.672 .0251339
1036.256 .0251501
1036.839 .0251671
1037.422 .0251847
1038.005 .0252034
1038.588 .0252230
1039.171 .0252433
1039.753 .0252641
1040.335 .0252853
1040.918 .0253063
1041.500 .0253266
1042.081 .0253453
1042.663 .0253623
1043.244 .0253773
1043.826 .0253899
1044.407 .0254005
1044.988 .0254103
1045.569 .0254182
1046.150 .0254247
1046.730 .0254306
1047.311 .0254360
1047.891 .0254407
1048.471 .0254452
1049.052 .0254486
1049.632 .0254519
1050.211 .0254554
1050.791 .0254583
1051.371 .0254613
1051.950 .0254663
1052.530 .0254725
1053.109 .0254794
1053.688 .0254877
1054.268 .0254973
1054.847 .0255079
1055.426 .0255199
1056.005 .0255316
1056.583 .0255427
1057.162 .0255526
1057.741 .0255603
1058.319 .0255657
1058.898 .0255703
1059.476 .0255726
1060.055 .0255734
1060.633 .0255739
1061.211 .0255749
1061.790 .0255769
1062.368 .0255813
1062.946 .0255883
1063.524 .0255982
1064.102 .0256101
1064.680 .0256229
1065.258 .0256355
1065.836 .0256492
1066.414 .0256612
1066.992 .0256723
1067.570 .0256826
1068.148 .0256920
1068.726 .0257015
1069.304 .0257113
1069.882 .0257211
1070.460 .0257307
1071.038 .0257392
1071.616 .0257447
1072.194 .0257459
1072.772 .0257437
1073.350 .0257373
1073.928 .0257270
1074.506 .0257142
1075.084 .0256986
1075.662 .0256833
1076.240 .0256703
1076.819 .0256588
1077.397 .0256508
1077.976 .0256461
1078.554 .0256434
1079.133 .0256420
1079.711 .0256414
1080.290 .0256417
1080.869 .0256428
1081.448 .0256459
1082.027 .0256502
1082.606 .0256573
1083.185 .0256678
1083.764 .0256808
1084.343 .0256955
1084.923 .0257132
1085.502 .0257290
1086.082 .0257429
1086.662 .0257552
1087.242 .0257636
1087.822 .0257675
1088.402 .0257688
1088.983 .0257686
1089.563 .0257683
1090.144 .0257679
1090.725 .0257686
1091.306 .0257692
1091.887 .0257718
1092.469 .0257728
1093.050 .0257715
1093.632 .0257692
1094.214 .0257664
1094.796 .0257616
1095.379 .0257564
1095.961 .0257539
1096.544 .0257541
1097.127 .0257573
1097.710 .0257641
1098.294 .0257738
1098.877 .0257850
1099.461 .0257942
1100.046 .0258011
1100.630 .0258031
1101.215 .0258012
1101.800 .0257947
1102.385 .0257839
1102.970 .0257721
1103.556 .0257619
1104.142 .0257545
1104.728 .0257531
1105.315 .0257613
1105.902 .0257765
1106.489 .0257966
1107.077 .0258205
1107.664 .0258459
1108.253 .0258707
1108.841 .0258942
1109.430 .0259180
1110.019 .0259407
1110.609 .0259664
1111.198 .0259950
1111.789 .0260277
1112.379 .0260655
1112.970 .0261043
1113.561 .0261425
1114.153 .0261772
1114.745 .0262067
1115.338 .0262304
1115.931 .0262490
1116.524 .0262665
1117.117 .0262852
1117.712 .0263065
1118.306 .0263311
1118.901 .0263609
1119.496 .0263962
1120.092 .0264377
1120.689 .0264828
1121.285 .0265280
1121.882 .0265745
1122.480 .0266238
1123.078 .0266759
1123.677 .0267260
1124.276 .0267766
1124.875 .0268271
1125.476 .0268740
1126.076 .0269173
1126.677 .0269563
1127.279 .0269907
1127.881 .0270266
1128.484 .0270577
1129.087 .0270831
1129.691 .0271063
1130.295 .0271313
1130.900 .0271596
1131.505 .0271961
1132.111 .0272417
1132.718 .0272957
1133.325 .0273600
1133.933 .0274354
1134.541 .0275197
1135.150 .0276097
1135.760 .0277060
1136.370 .0278057
1136.981 .0279083
1137.592 .0280161
1138.204 .0281320
1138.817 .0282628
1139.431 .0283998
1140.045 .0285449
1140.660 .0286936
1141.275 .0288371
1141.891 .0289824
1142.508 .0290884
1143.126 .0292895
1143.744 .0293937
1144.363 .0294128
1144.983 .0296610
