Measurement Sequence started on: 15-12-46-377
Integration time: 28
Scans to Average: 2 
>>>>>Begin Spectral Data<<<<<
432.689 .0000100
433.621 .0000100
434.552 .0000100
435.482 .0000100
436.410 .0000100
437.337 .0000100
438.262 .0293992
439.187 .0622603
440.110 .1030871
441.031 .1490949
441.952 .1937334
442.871 .2287942
443.789 .2479053
444.705 .2488934
445.621 .2344679
446.535 .2104908
447.447 .1833690
448.359 .1419391
449.269 .1213346
450.178 .1082307
451.086 .0989104
451.993 .0917194
452.898 .0860188
453.803 .0813555
454.706 .0775073
455.608 .0742531
456.508 .0714859
457.408 .0691119
458.306 .0670345
459.204 .0651822
460.100 .0635250
460.995 .0620352
461.888 .0606927
462.781 .0594645
463.673 .0583416
464.563 .0573053
465.452 .0563502
466.340 .0554422
467.228 .0545920
468.114 .0537923
468.999 .0530426
469.882 .0523341
470.765 .0516698
471.647 .0510600
472.528 .0504987
473.407 .0499952
474.286 .0495554
475.163 .0491726
476.040 .0488430
476.915 .0485555
477.790 .0483138
478.663 .0481087
479.535 .0479354
480.407 .0477934
481.277 .0476832
482.147 .0476060
483.015 .0475526
483.883 .0475259
484.749 .0475172
485.615 .0475280
486.479 .0475365
487.343 .0475489
488.206 .0475618
489.067 .0475649
489.928 .0475541
490.788 .0475375
491.647 .0475154
492.505 .0474906
493.362 .0474721
494.218 .0474682
495.073 .0474855
495.928 .0475282
496.781 .0475883
497.634 .0476793
498.486 .0478002
499.337 .0479519
500.187 .0481251
501.036 .0483316
501.884 .0485663
502.731 .0488264
503.578 .0491219
504.424 .0494521
505.268 .0498187
506.113 .0502367
506.956 .0506981
507.798 .0512097
508.640 .0517737
509.480 .0523916
510.320 .0530860
511.160 .0538697
511.998 .0547377
512.836 .0557037
513.672 .0567757
514.508 .0579674
515.344 .0592720
516.178 .0607074
517.012 .0623017
517.845 .0640869
518.677 .0661109
519.508 .0683886
520.339 .0709717
521.169 .0739547
521.998 .0773525
522.826 .0812259
523.654 .0855953
524.481 .0904521
525.307 .0958313
526.133 .1017094
526.958 .1080101
527.782 .1147139
528.605 .1216851
529.428 .1288223
530.250 .1356557
531.072 .1420113
531.892 .1475688
532.712 .1520183
533.532 .1552032
534.350 .1568452
535.168 .1567608
535.986 .1549929
536.802 .1515782
537.618 .1467586
538.434 .1407428
539.249 .1339835
540.063 .1267589
540.876 .1193979
541.689 .1122183
542.501 .1054237
543.313 .0991981
544.124 .0936261
544.934 .0886055
545.744 .0840779
546.553 .0799871
547.361 .0763127
548.169 .0730512
548.976 .0701049
549.783 .0674940
550.589 .0651744
551.395 .0630646
552.200 .0611649
553.004 .0594424
553.808 .0578737
554.611 .0564567
555.414 .0551808
556.216 .0540259
557.018 .0529944
557.819 .0520836
558.619 .0512612
559.419 .0505103
560.218 .0498265
561.017 .0491790
561.815 .0485416
562.613 .0479124
563.410 .0472698
564.207 .0466272
565.003 .0459961
565.799 .0453731
566.594 .0447527
567.388 .0441611
568.182 .0435961
568.976 .0430491
569.769 .0425222
570.562 .0420171
571.354 .0415265
572.145 .0410522
572.936 .0405860
573.727 .0401284
574.517 .0396732
575.307 .0392336
576.096 .0388022
576.885 .0383888
577.673 .0379934
578.461 .0376216
579.248 .0372722
580.035 .0369485
580.821 .0366437
581.607 .0363547
582.392 .0360791
583.177 .0358191
583.962 .0355709
584.746 .0353348
585.529 .0351107
586.313 .0349044
587.095 .0347136
587.878 .0345413
588.660 .0343853
589.441 .0342487
590.222 .0341279
591.003 .0340227
591.783 .0339289
592.563 .0338443
593.342 .0337689
594.121 .0336968
594.899 .0336283
595.678 .0335640
596.455 .0335027
597.233 .0334467
598.009 .0333957
598.786 .0333513
599.562 .0333102
600.338 .0332730
601.113 .0332381
601.888 .0332029
602.663 .0331676
603.437 .0331320
604.211 .0330964
604.984 .0330618
605.757 .0330292
606.530 .0329984
607.302 .0329709
608.074 .0329465
608.845 .0329238
609.616 .0329024
610.387 .0328804
611.158 .0328579
611.928 .0328336
612.697 .0328083
613.467 .0327817
614.236 .0327540
615.004 .0327270
615.773 .0327001
616.541 .0326737
617.308 .0326480
618.076 .0326230
618.843 .0325988
619.609 .0325748
620.375 .0325506
621.141 .0325257
621.907 .0324999
622.672 .0324733
623.437 .0324458
624.202 .0324171
624.966 .0323882
625.730 .0323591
626.493 .0323309
627.257 .0323036
628.020 .0322769
628.782 .0322506
629.545 .0322240
630.307 .0321959
631.068 .0321660
631.830 .0321340
632.591 .0320999
633.352 .0320643
634.112 .0320278
634.872 .0319909
635.632 .0319537
636.392 .0319173
637.151 .0318821
637.910 .0318474
638.668 .0318141
639.427 .0317815
640.185 .0317498
640.943 .0317199
641.700 .0316915
642.457 .0316643
643.214 .0316378
643.971 .0316112
644.727 .0315841
645.483 .0315566
646.239 .0315288
646.994 .0315008
647.750 .0314733
648.505 .0314472
649.259 .0314220
650.014 .0313976
650.768 .0313741
651.521 .0313508
652.275 .0313271
653.028 .0313025
653.781 .0312768
654.534 .0312509
655.286 .0312257
656.039 .0312021
656.791 .0311813
657.542 .0311627
658.294 .0311471
659.045 .0311336
659.796 .0311211
660.546 .0311089
661.297 .0310970
662.047 .0310845
662.796 .0310715
663.546 .0310591
664.295 .0310473
665.044 .0310368
665.793 .0310288
666.542 .0310213
667.290 .0310148
668.038 .0310081
668.786 .0310002
669.533 .0309896
670.281 .0309776
671.028 .0309632
671.774 .0309471
672.521 .0309311
673.267 .0309156
674.013 .0309010
674.759 .0308888
675.505 .0308780
676.250 .0308682
676.995 .0308595
677.740 .0308505
678.484 .0308403
679.229 .0308298
679.973 .0308182
680.717 .0308056
681.460 .0307924
682.204 .0307789
682.947 .0307645
683.690 .0307499
684.433 .0307351
685.175 .0307190
685.917 .0307024
686.659 .0306852
687.401 .0306664
688.142 .0306468
688.884 .0306261
689.625 .0306037
690.365 .0305801
691.106 .0305553
691.846 .0305296
692.586 .0305034
693.326 .0304777
694.066 .0304528
694.805 .0304290
695.545 .0304062
696.284 .0303841
697.022 .0303616
697.761 .0303393
698.499 .0303156
699.237 .0302906
699.975 .0302644
700.713 .0302379
701.450 .0302112
702.187 .0301851
702.924 .0301599
703.661 .0301357
704.397 .0301119
705.133 .0300886
705.869 .0300644
706.605 .0300399
707.341 .0300151
708.076 .0299903
708.811 .0299654
709.546 .0299415
710.281 .0299183
711.015 .0298967
711.749 .0298758
712.483 .0298559
713.217 .0298360
713.950 .0298159
714.684 .0297950
715.417 .0297731
716.150 .0297506
716.882 .0297275
717.615 .0297039
718.347 .0296805
719.079 .0296568
719.811 .0296335
720.542 .0296106
721.273 .0295883
722.005 .0295668
722.735 .0295460
723.466 .0295262
724.196 .0295075
724.927 .0294896
725.656 .0294726
726.386 .0294564
727.116 .0294411
727.845 .0294265
728.574 .0294123
729.303 .0293989
730.031 .0293864
730.760 .0293749
731.488 .0293644
732.216 .0293553
732.944 .0293477
733.671 .0293413
734.398 .0293360
735.125 .0293312
735.852 .0293266
736.579 .0293221
737.305 .0293173
738.031 .0293127
738.757 .0293076
739.483 .0293023
740.208 .0292967
740.933 .0292914
741.658 .0292864
742.383 .0292813
743.108 .0292765
743.832 .0292719
744.556 .0292676
745.280 .0292632
746.004 .0292592
746.727 .0292554
747.450 .0292520
748.173 .0292484
748.896 .0292454
749.618 .0292428
750.340 .0292409
751.062 .0292401
751.784 .0292404
752.506 .0292416
753.227 .0292438
753.948 .0292466
754.669 .0292501
755.389 .0292537
756.110 .0292572
756.830 .0292597
757.550 .0292610
758.269 .0292610
758.989 .0292596
759.708 .0292567
760.427 .0292526
761.146 .0292470
761.864 .0292399
762.582 .0292317
763.300 .0292223
764.018 .0292119
764.736 .0292011
765.453 .0291897
766.170 .0291778
766.887 .0291652
767.603 .0291522
768.320 .0291384
769.036 .0291238
769.751 .0291084
770.467 .0290915
771.182 .0290739
771.897 .0290553
772.612 .0290361
773.327 .0290171
774.041 .0289982
774.755 .0289792
775.469 .0289603
776.183 .0289412
776.896 .0289210
777.609 .0288999
778.322 .0288774
779.035 .0288538
779.747 .0288294
780.459 .0288043
781.171 .0287789
781.882 .0287541
782.594 .0287299
783.305 .0287060
784.016 .0286830
784.726 .0286605
785.436 .0286374
786.147 .0286140
786.856 .0285901
787.566 .0285654
788.275 .0285405
788.984 .0285157
789.693 .0284907
790.401 .0284659
791.110 .0284408
791.818 .0284153
792.525 .0283894
793.233 .0283631
793.940 .0283361
794.647 .0283090
795.353 .0282822
796.060 .0282557
796.766 .0282297
797.472 .0282048
798.177 .0281810
798.883 .0281582
799.588 .0281364
800.292 .0281157
800.997 .0280961
801.701 .0280777
802.405 .0280607
803.109 .0280456
803.812 .0280322
804.515 .0280203
805.218 .0280094
805.921 .0279994
806.623 .0279896
807.325 .0279793
808.027 .0279682
808.728 .0279561
809.429 .0279429
810.130 .0279286
810.831 .0279132
811.531 .0278970
812.231 .0278800
812.931 .0278621
813.630 .0278434
814.330 .0278243
815.029 .0278052
815.727 .0277862
816.426 .0277686
817.124 .0277523
817.821 .0277376
818.519 .0277250
819.216 .0277146
819.913 .0277061
820.609 .0276992
821.306 .0276941
822.002 .0276904
822.697 .0276886
823.393 .0276887
824.088 .0276906
824.783 .0276941
825.477 .0276993
826.171 .0277055
826.865 .0277129
827.559 .0277210
828.252 .0277295
828.945 .0277380
829.638 .0277462
830.330 .0277539
831.023 .0277611
831.714 .0277678
832.406 .0277745
833.097 .0277805
833.788 .0277855
834.479 .0277896
835.169 .0277930
835.859 .0277959
836.548 .0277987
837.238 .0278016
837.927 .0278045
838.615 .0278076
839.304 .0278108
839.992 .0278143
840.680 .0278182
841.367 .0278228
842.054 .0278276
842.741 .0278332
843.428 .0278398
844.114 .0278473
844.800 .0278560
845.485 .0278656
846.170 .0278752
846.855 .0278844
847.540 .0278929
848.224 .0279008
848.908 .0279082
849.592 .0279154
850.275 .0279224
850.958 .0279295
851.641 .0279367
852.323 .0279434
853.005 .0279497
853.687 .0279550
854.368 .0279591
855.049 .0279617
855.730 .0279629
856.410 .0279628
857.090 .0279619
857.769 .0279606
858.449 .0279587
859.128 .0279564
859.806 .0279533
860.485 .0279491
861.163 .0279439
861.840 .0279370
862.518 .0279284
863.195 .0279183
863.871 .0279066
864.548 .0278937
865.224 .0278803
865.899 .0278666
866.574 .0278525
867.249 .0278382
867.924 .0278238
868.598 .0278092
869.272 .0277944
869.946 .0277796
870.619 .0277645
871.292 .0277492
871.964 .0277336
872.636 .0277173
873.308 .0277003
873.979 .0276826
874.651 .0276635
875.321 .0276430
875.992 .0276212
876.662 .0275979
877.331 .0275733
878.001 .0275478
878.670 .0275215
879.338 .0274944
880.007 .0274672
880.675 .0274402
881.342 .0274130
882.009 .0273860
882.676 .0273588
883.343 .0273309
884.009 .0273024
884.675 .0272731
885.340 .0272427
886.005 .0272113
886.670 .0271797
887.334 .0271475
887.998 .0271152
888.662 .0270831
889.325 .0270513
889.988 .0270196
890.650 .0269885
891.312 .0269571
891.974 .0269256
892.636 .0268947
893.297 .0268642
893.957 .0268339
894.618 .0268044
895.278 .0267762
895.937 .0267492
896.596 .0267236
897.255 .0266999
897.914 .0266774
898.572 .0266568
899.230 .0266370
899.887 .0266177
900.544 .0265984
901.201 .0265789
901.857 .0265582
902.513 .0265367
903.168 .0265138
903.823 .0264895
904.478 .0264635
905.132 .0264365
905.786 .0264082
906.440 .0263786
907.093 .0263481
907.746 .0263168
908.399 .0262845
909.051 .0262520
909.703 .0262189
910.354 .0261860
911.005 .0261537
911.656 .0261226
912.306 .0260927
912.956 .0260647
913.605 .0260385
914.254 .0260144
914.903 .0259923
915.551 .0259725
916.199 .0259547
916.847 .0259392
917.494 .0259255
918.141 .0259135
918.788 .0259029
919.434 .0258944
920.079 .0258870
920.725 .0258808
921.370 .0258755
922.014 .0258711
922.658 .0258667
923.302 .0258621
923.946 .0258571
924.589 .0258514
925.231 .0258447
925.873 .0258367
926.515 .0258270
927.157 .0258168
927.798 .0258057
928.439 .0257943
929.079 .0257832
929.719 .0257725
930.359 .0257621
930.998 .0257524
931.637 .0257436
932.275 .0257359
932.913 .0257287
933.551 .0257223
934.188 .0257167
934.825 .0257120
935.462 .0257085
936.098 .0257064
936.733 .0257058
937.369 .0257072
938.004 .0257095
938.638 .0257126
939.273 .0257162
939.907 .0257200
940.540 .0257237
941.173 .0257272
941.806 .0257307
942.438 .0257342
943.070 .0257375
943.702 .0257415
944.333 .0257457
944.964 .0257502
945.594 .0257552
946.224 .0257602
946.854 .0257659
947.483 .0257723
948.112 .0257794
948.741 .0257875
949.369 .0257967
949.996 .0258071
950.624 .0258174
951.251 .0258279
951.878 .0258387
952.504 .0258488
953.130 .0258583
953.755 .0258672
954.380 .0258752
955.005 .0258831
955.629 .0258911
956.253 .0258986
956.877 .0259064
957.500 .0259147
958.123 .0259227
958.746 .0259303
959.368 .0259376
959.990 .0259447
960.611 .0259509
961.232 .0259572
961.853 .0259637
962.473 .0259704
963.093 .0259776
963.712 .0259855
964.331 .0259935
964.950 .0260020
965.569 .0260107
966.187 .0260195
966.804 .0260291
967.422 .0260396
968.039 .0260502
968.655 .0260616
969.272 .0260737
969.887 .0260864
970.503 .0260992
971.118 .0261127
971.733 .0261261
972.347 .0261392
972.961 .0261522
973.575 .0261647
974.188 .0261766
974.801 .0261878
975.414 .0261976
976.026 .0262060
976.638 .0262130
977.250 .0262179
977.861 .0262210
978.472 .0262224
979.083 .0262222
979.693 .0262199
980.303 .0262154
980.912 .0262091
981.521 .0262012
982.130 .0261922
982.738 .0261828
983.346 .0261732
983.954 .0261646
984.562 .0261567
985.169 .0261498
985.775 .0261441
986.382 .0261389
986.988 .0261336
987.594 .0261281
988.199 .0261216
988.804 .0261147
989.409 .0261071
990.013 .0261001
990.617 .0260937
991.221 .0260879
991.824 .0260827
992.427 .0260776
993.030 .0260727
993.632 .0260671
994.234 .0260604
994.836 .0260530
995.438 .0260450
996.039 .0260363
996.640 .0260273
997.240 .0260185
997.840 .0260104
998.440 .0260029
999.040 .0259956
999.639 .0259880
1000.238 .0259801
1000.836 .0259716
1001.435 .0259623
1002.033 .0259522
1002.630 .0259417
1003.228 .0259305
1003.825 .0259190
1004.422 .0259071
1005.018 .0258949
1005.614 .0258823
1006.210 .0258696
1006.806 .0258561
1007.401 .0258416
1007.996 .0258261
1008.591 .0258099
1009.186 .0257930
1009.780 .0257751
1010.374 .0257559
1010.967 .0257354
1011.561 .0257137
1012.154 .0256906
1012.746 .0256659
1013.339 .0256400
1013.931 .0256129
1014.523 .0255849
1015.115 .0255555
1015.706 .0255256
1016.298 .0254950
1016.888 .0254642
1017.479 .0254335
1018.069 .0254027
1018.660 .0253724
1019.250 .0253428
1019.839 .0253148
1020.429 .0252885
1021.018 .0252643
1021.607 .0252426
1022.195 .0252233
1022.784 .0252067
1023.372 .0251927
1023.960 .0251814
1024.547 .0251722
1025.135 .0251646
1025.722 .0251577
1026.309 .0251509
1026.896 .0251441
1027.483 .0251369
1028.069 .0251300
1028.655 .0251221
1029.241 .0251141
1029.827 .0251057
1030.412 .0250964
1030.997 .0250859
1031.582 .0250737
1032.167 .0250593
1032.752 .0250430
1033.336 .0250247
1033.921 .0250046
1034.505 .0249834
1035.089 .0249633
1035.672 .0249444
1036.256 .0249273
1036.839 .0249124
1037.422 .0248998
1038.005 .0248884
1038.588 .0248777
1039.171 .0248655
1039.753 .0248522
1040.335 .0248379
1040.918 .0248225
1041.500 .0248067
1042.081 .0247912
1042.663 .0247768
1043.244 .0247640
1043.826 .0247518
1044.407 .0247397
1044.988 .0247265
1045.569 .0247113
1046.150 .0246930
1046.730 .0246719
1047.311 .0246485
1047.891 .0246240
1048.471 .0246006
1049.052 .0245798
1049.632 .0245625
1050.211 .0245496
1050.791 .0245408
1051.371 .0245354
1051.950 .0245337
1052.530 .0245331
1053.109 .0245318
1053.688 .0245296
1054.268 .0245256
1054.847 .0245198
1055.426 .0245124
1056.005 .0245052
1056.583 .0244984
1057.162 .0244925
1057.741 .0244877
1058.319 .0244837
1058.898 .0244819
1059.476 .0244812
1060.055 .0244805
1060.633 .0244804
1061.211 .0244812
1061.790 .0244826
1062.368 .0244846
1062.946 .0244885
1063.524 .0244952
1064.102 .0245037
1064.680 .0245134
1065.258 .0245238
1065.836 .0245344
1066.414 .0245447
1066.992 .0245538
1067.570 .0245624
1068.148 .0245709
1068.726 .0245796
1069.304 .0245898
1069.882 .0246019
1070.460 .0246161
1071.038 .0246312
1071.616 .0246460
1072.194 .0246601
1072.772 .0246736
1073.350 .0246850
1073.928 .0246972
1074.506 .0247119
1075.084 .0247290
1075.662 .0247492
1076.240 .0247730
1076.819 .0247990
1077.397 .0248252
1077.976 .0248499
1078.554 .0248706
1079.133 .0248858
1079.711 .0248969
1080.290 .0249036
1080.869 .0249087
1081.448 .0249141
1082.027 .0249214
1082.606 .0249298
1083.185 .0249428
1083.764 .0249588
1084.343 .0249761
1084.923 .0249963
1085.502 .0250187
1086.082 .0250430
1086.662 .0250708
1087.242 .0251024
1087.822 .0251383
1088.402 .0251775
1088.983 .0252199
1089.563 .0252625
1090.144 .0253041
1090.725 .0253439
1091.306 .0253796
1091.887 .0254115
1092.469 .0254410
1093.050 .0254666
1093.632 .0254912
1094.214 .0255159
1094.796 .0255418
1095.379 .0255691
1095.961 .0255987
1096.544 .0256290
1097.127 .0256592
1097.710 .0256898
1098.294 .0257209
1098.877 .0257516
1099.461 .0257827
1100.046 .0258159
1100.630 .0258499
1101.215 .0258851
1101.800 .0259202
1102.385 .0259549
1102.970 .0259904
1103.556 .0260223
1104.142 .0260507
1104.728 .0260771
1105.315 .0261018
1105.902 .0261267
1106.489 .0261512
1107.077 .0261781
1107.664 .0262064
1108.253 .0262372
1108.841 .0262673
1109.430 .0262979
1110.019 .0263276
1110.609 .0263574
1111.198 .0263891
1111.789 .0264263
1112.379 .0264673
1112.970 .0265131
1113.561 .0265637
1114.153 .0266171
1114.745 .0266699
1115.338 .0267217
1115.931 .0267697
1116.524 .0268169
1117.117 .0268643
1117.712 .0269124
1118.306 .0269652
1118.901 .0270267
1119.496 .0270929
1120.092 .0271652
1120.689 .0272402
1121.285 .0273136
1121.882 .0273829
1122.480 .0274466
1123.078 .0275066
1123.677 .0275626
1124.276 .0276210
1124.875 .0276815
1125.476 .0277477
1126.076 .0278227
1126.677 .0279032
1127.279 .0279867
1127.881 .0280715
1128.484 .0281517
1129.087 .0282260
1129.691 .0282949
1130.295 .0283576
1130.900 .0284170
1131.505 .0284786
1132.111 .0285462
1132.718 .0286219
1133.325 .0287051
1133.933 .0287955
1134.541 .0288908
1135.150 .0289902
1135.760 .0290904
1136.370 .0291812
1136.981 .0292698
1137.592 .0293508
1138.204 .0294262
1138.817 .0294985
1139.431 .0295723
1140.045 .0296486
1140.660 .0297293
1141.275 .0298239
1141.891 .0298874
1142.508 .0300718
1143.126 .0300924
1143.744 .0301295
1144.363 .0305167
1144.983 .0295131
