Measurement Sequence started on: 15-12-46-377
Integration time: 28
Scans to Average: 2 
>>>>>Begin Spectral Data<<<<<
432.689 .0000100
433.621 .0000100
434.552 .0000100
435.482 .0000100
436.410 .0000100
437.337 .0000100
438.262 .0277484
439.187 .0587252
440.110 .0973197
441.031 .1407932
441.952 .1830128
442.871 .2162134
443.789 .2343926
444.705 .2354929
445.621 .2220538
446.535 .1996330
447.447 .1742588
448.359 .1354331
449.269 .1163203
450.178 .1042555
451.086 .0958441
451.993 .0894377
452.898 .0844112
453.803 .0803101
454.706 .0768988
455.608 .0739800
456.508 .0714419
457.408 .0692203
458.306 .0672103
459.204 .0653867
460.100 .0637218
460.995 .0622116
461.888 .0608340
462.781 .0595859
463.673 .0584352
464.563 .0573900
465.452 .0564244
466.340 .0555062
467.228 .0546472
468.114 .0538337
468.999 .0530643
469.882 .0523371
470.765 .0516566
471.647 .0510335
472.528 .0504630
473.407 .0499623
474.286 .0495212
475.163 .0491289
476.040 .0487811
476.915 .0484663
477.790 .0481811
478.663 .0479166
479.535 .0476702
480.407 .0474492
481.277 .0472566
482.147 .0470922
483.015 .0469567
483.883 .0468528
484.749 .0467757
485.615 .0467235
486.479 .0466912
487.343 .0466712
488.206 .0466679
489.067 .0466743
489.928 .0467004
490.788 .0467488
491.647 .0468215
492.505 .0469159
493.362 .0470360
494.218 .0471780
495.073 .0473414
495.928 .0475340
496.781 .0477548
497.634 .0480062
498.486 .0482875
499.337 .0486053
500.187 .0489492
501.036 .0493175
501.884 .0497130
502.731 .0501279
503.578 .0505702
504.424 .0510375
505.268 .0515241
506.113 .0520486
506.956 .0526196
507.798 .0532419
508.640 .0539179
509.480 .0546614
510.320 .0554674
511.160 .0563405
511.998 .0572863
512.836 .0583199
513.672 .0594364
514.508 .0606805
515.344 .0620444
516.178 .0635652
517.012 .0652809
517.845 .0672060
518.677 .0693683
519.508 .0718050
520.339 .0745565
521.169 .0776496
521.998 .0811149
522.826 .0849872
523.654 .0893129
524.481 .0940982
525.307 .0993659
526.133 .1051222
526.958 .1113274
527.782 .1179849
528.605 .1248661
529.428 .1319608
530.250 .1387828
531.072 .1450861
531.892 .1505884
532.712 .1549232
533.532 .1578919
534.350 .1592386
535.168 .1588605
535.986 .1568266
536.802 .1532299
537.618 .1483362
538.434 .1422923
539.249 .1356361
540.063 .1285728
540.876 .1213605
541.689 .1142978
542.501 .1076045
543.313 .1014005
544.124 .0957663
544.934 .0906583
545.744 .0860237
546.553 .0818788
547.361 .0781684
548.169 .0748661
548.976 .0719122
549.783 .0692882
550.589 .0669356
551.395 .0647945
552.200 .0628768
553.004 .0611244
553.808 .0595214
554.611 .0580744
555.414 .0567516
556.216 .0555382
557.018 .0544375
557.819 .0534356
558.619 .0525064
559.419 .0516494
560.218 .0508466
561.017 .0500851
561.815 .0493505
562.613 .0486475
563.410 .0479570
564.207 .0472830
565.003 .0466191
565.799 .0459628
566.594 .0453203
567.388 .0447099
568.182 .0441220
568.976 .0435522
569.769 .0430073
570.562 .0424850
571.354 .0419697
572.145 .0414660
572.936 .0409654
573.727 .0404723
574.517 .0399869
575.307 .0395140
576.096 .0390530
576.885 .0386146
577.673 .0382020
578.461 .0378103
579.248 .0374382
580.035 .0370908
580.821 .0367590
581.607 .0364462
582.392 .0361540
583.177 .0358812
583.962 .0356292
584.746 .0354030
585.529 .0351960
586.313 .0350089
587.095 .0348394
587.878 .0346857
588.660 .0345453
589.441 .0344161
590.222 .0342954
591.003 .0341862
591.783 .0340881
592.563 .0339987
593.342 .0339169
594.121 .0338414
594.899 .0337705
595.678 .0337026
596.455 .0336371
597.233 .0335726
598.009 .0335092
598.786 .0334489
599.562 .0333910
600.338 .0333375
601.113 .0332879
601.888 .0332420
602.663 .0331997
603.437 .0331595
604.211 .0331196
604.984 .0330797
605.757 .0330404
606.530 .0330016
607.302 .0329638
608.074 .0329277
608.845 .0328935
609.616 .0328606
610.387 .0328280
611.158 .0327949
611.928 .0327609
612.697 .0327261
613.467 .0326898
614.236 .0326539
615.004 .0326193
615.773 .0325864
616.541 .0325556
617.308 .0325275
618.076 .0325024
618.843 .0324796
619.609 .0324583
620.375 .0324378
621.141 .0324174
621.907 .0323978
622.672 .0323789
623.437 .0323615
624.202 .0323454
624.966 .0323307
625.730 .0323165
626.493 .0323020
627.257 .0322861
628.020 .0322679
628.782 .0322473
629.545 .0322248
630.307 .0321998
631.068 .0321727
631.830 .0321444
632.591 .0321153
633.352 .0320855
634.112 .0320544
634.872 .0320213
635.632 .0319862
636.392 .0319490
637.151 .0319111
637.910 .0318724
638.668 .0318340
639.427 .0317969
640.185 .0317612
640.943 .0317274
641.700 .0316947
642.457 .0316631
643.214 .0316324
643.971 .0316012
644.727 .0315701
645.483 .0315386
646.239 .0315081
646.994 .0314789
647.750 .0314518
648.505 .0314273
649.259 .0314060
650.014 .0313869
650.768 .0313694
651.521 .0313530
652.275 .0313369
653.028 .0313199
653.781 .0313016
654.534 .0312832
655.286 .0312643
656.039 .0312449
656.791 .0312256
657.542 .0312055
658.294 .0311857
659.045 .0311648
659.796 .0311429
660.546 .0311196
661.297 .0310959
662.047 .0310709
662.796 .0310448
663.546 .0310188
664.295 .0309928
665.044 .0309666
665.793 .0309416
666.542 .0309173
667.290 .0308935
668.038 .0308702
668.786 .0308478
669.533 .0308260
670.281 .0308051
671.028 .0307844
671.774 .0307642
672.521 .0307449
673.267 .0307263
674.013 .0307076
674.759 .0306886
675.505 .0306695
676.250 .0306496
676.995 .0306290
677.740 .0306084
678.484 .0305874
679.229 .0305668
679.973 .0305460
680.717 .0305254
681.460 .0305044
682.204 .0304829
682.947 .0304603
683.690 .0304368
684.433 .0304122
685.175 .0303868
685.917 .0303607
686.659 .0303350
687.401 .0303100
688.142 .0302859
688.884 .0302625
689.625 .0302400
690.365 .0302176
691.106 .0301957
691.846 .0301733
692.586 .0301512
693.326 .0301293
694.066 .0301076
694.805 .0300865
695.545 .0300665
696.284 .0300468
697.022 .0300276
697.761 .0300088
698.499 .0299899
699.237 .0299701
699.975 .0299500
700.713 .0299294
701.450 .0299083
702.187 .0298875
702.924 .0298670
703.661 .0298458
704.397 .0298250
705.133 .0298042
705.869 .0297830
706.605 .0297626
707.341 .0297428
708.076 .0297229
708.811 .0297043
709.546 .0296867
710.281 .0296699
711.015 .0296537
711.749 .0296383
712.483 .0296228
713.217 .0296071
713.950 .0295913
714.684 .0295748
715.417 .0295579
716.150 .0295412
716.882 .0295238
717.615 .0295059
718.347 .0294874
719.079 .0294681
719.811 .0294480
720.542 .0294279
721.273 .0294070
722.005 .0293856
722.735 .0293638
723.466 .0293420
724.196 .0293199
724.927 .0292978
725.656 .0292760
726.386 .0292546
727.116 .0292337
727.845 .0292132
728.574 .0291933
729.303 .0291748
730.031 .0291577
730.760 .0291420
731.488 .0291273
732.216 .0291140
732.944 .0291019
733.671 .0290911
734.398 .0290815
735.125 .0290736
735.852 .0290670
736.579 .0290619
737.305 .0290579
738.031 .0290546
738.757 .0290515
739.483 .0290478
740.208 .0290431
740.933 .0290371
741.658 .0290293
742.383 .0290200
743.108 .0290096
743.832 .0289987
744.556 .0289875
745.280 .0289760
746.004 .0289641
746.727 .0289519
747.450 .0289389
748.173 .0289249
748.896 .0289104
749.618 .0288955
750.340 .0288806
751.062 .0288657
751.784 .0288518
752.506 .0288384
753.227 .0288259
753.948 .0288145
754.669 .0288035
755.389 .0287926
756.110 .0287810
756.830 .0287687
757.550 .0287556
758.269 .0287417
758.989 .0287267
759.708 .0287107
760.427 .0286946
761.146 .0286778
761.864 .0286603
762.582 .0286424
763.300 .0286242
764.018 .0286056
764.736 .0285869
765.453 .0285683
766.170 .0285497
766.887 .0285314
767.603 .0285136
768.320 .0284961
769.036 .0284789
769.751 .0284619
770.467 .0284453
771.182 .0284290
771.897 .0284128
772.612 .0283965
773.327 .0283810
774.041 .0283661
774.755 .0283521
775.469 .0283392
776.183 .0283275
776.896 .0283171
777.609 .0283076
778.322 .0282987
779.035 .0282899
779.747 .0282814
780.459 .0282729
781.171 .0282641
781.882 .0282557
782.594 .0282481
783.305 .0282417
784.016 .0282369
784.726 .0282333
785.436 .0282303
786.147 .0282275
786.856 .0282243
787.566 .0282201
788.275 .0282147
788.984 .0282083
789.693 .0282007
790.401 .0281926
791.110 .0281845
791.818 .0281764
792.525 .0281687
793.233 .0281615
793.940 .0281539
794.647 .0281459
795.353 .0281365
796.060 .0281258
796.766 .0281140
797.472 .0281010
798.177 .0280871
798.883 .0280731
799.588 .0280591
800.292 .0280459
800.997 .0280330
801.701 .0280203
802.405 .0280074
803.109 .0279944
803.812 .0279811
804.515 .0279673
805.218 .0279532
805.921 .0279395
806.623 .0279258
807.325 .0279127
808.027 .0278998
808.728 .0278868
809.429 .0278733
810.130 .0278592
810.831 .0278440
811.531 .0278274
812.231 .0278093
812.931 .0277905
813.630 .0277706
814.330 .0277504
815.029 .0277297
815.727 .0277088
816.426 .0276880
817.124 .0276672
817.821 .0276462
818.519 .0276253
819.216 .0276048
819.913 .0275848
820.609 .0275657
821.306 .0275479
822.002 .0275320
822.697 .0275179
823.393 .0275058
824.088 .0274953
824.783 .0274860
825.477 .0274780
826.171 .0274706
826.865 .0274642
827.559 .0274593
828.252 .0274556
828.945 .0274531
829.638 .0274520
830.330 .0274518
831.023 .0274519
831.714 .0274522
832.406 .0274523
833.097 .0274514
833.788 .0274496
834.479 .0274469
835.169 .0274435
835.859 .0274401
836.548 .0274366
837.238 .0274330
837.927 .0274295
838.615 .0274256
839.304 .0274207
839.992 .0274148
840.680 .0274083
841.367 .0274007
842.054 .0273926
842.741 .0273843
843.428 .0273763
844.114 .0273690
844.800 .0273625
845.485 .0273566
846.170 .0273510
846.855 .0273455
847.540 .0273397
848.224 .0273333
848.908 .0273267
849.592 .0273197
850.275 .0273126
850.958 .0273052
851.641 .0272976
852.323 .0272894
853.005 .0272809
853.687 .0272716
854.368 .0272614
855.049 .0272504
855.730 .0272381
856.410 .0272248
857.090 .0272105
857.769 .0271955
858.449 .0271800
859.128 .0271640
859.806 .0271484
860.485 .0271331
861.163 .0271186
861.840 .0271045
862.518 .0270908
863.195 .0270769
863.871 .0270627
864.548 .0270476
865.224 .0270318
865.899 .0270151
866.574 .0269977
867.249 .0269803
867.924 .0269635
868.598 .0269473
869.272 .0269326
869.946 .0269191
870.619 .0269072
871.292 .0268964
871.964 .0268867
872.636 .0268775
873.308 .0268690
873.979 .0268612
874.651 .0268539
875.321 .0268476
875.992 .0268430
876.662 .0268401
877.331 .0268391
878.001 .0268401
878.670 .0268424
879.338 .0268456
880.007 .0268492
880.675 .0268526
881.342 .0268552
882.009 .0268567
882.676 .0268573
883.343 .0268571
884.009 .0268562
884.675 .0268553
885.340 .0268544
886.005 .0268542
886.670 .0268544
887.334 .0268552
887.998 .0268562
888.662 .0268574
889.325 .0268584
889.988 .0268593
890.650 .0268599
891.312 .0268602
891.974 .0268602
892.636 .0268604
893.297 .0268609
893.957 .0268619
894.618 .0268634
895.278 .0268658
895.937 .0268685
896.596 .0268717
897.255 .0268751
897.914 .0268779
898.572 .0268796
899.230 .0268800
899.887 .0268786
900.544 .0268756
901.201 .0268708
901.857 .0268643
902.513 .0268568
903.168 .0268484
903.823 .0268387
904.478 .0268277
905.132 .0268150
905.786 .0268007
906.440 .0267838
907.093 .0267649
907.746 .0267440
908.399 .0267218
909.051 .0266993
909.703 .0266766
910.354 .0266542
911.005 .0266322
911.656 .0266105
912.306 .0265891
912.956 .0265675
913.605 .0265457
914.254 .0265234
914.903 .0265012
915.551 .0264797
916.199 .0264589
916.847 .0264394
917.494 .0264215
918.141 .0264048
918.788 .0263889
919.434 .0263734
920.079 .0263577
920.725 .0263418
921.370 .0263257
922.014 .0263094
922.658 .0262930
923.302 .0262770
923.946 .0262617
924.589 .0262465
925.231 .0262313
925.873 .0262159
926.515 .0261995
927.157 .0261820
927.798 .0261627
928.439 .0261416
929.079 .0261191
929.719 .0260952
930.359 .0260698
930.998 .0260432
931.637 .0260159
932.275 .0259877
932.913 .0259586
933.551 .0259293
934.188 .0258999
934.825 .0258702
935.462 .0258411
936.098 .0258130
936.733 .0257863
937.369 .0257611
938.004 .0257378
938.638 .0257163
939.273 .0256969
939.907 .0256789
940.540 .0256624
941.173 .0256476
941.806 .0256350
942.438 .0256236
943.070 .0256139
943.702 .0256059
944.333 .0255995
944.964 .0255940
945.594 .0255892
946.224 .0255848
946.854 .0255810
947.483 .0255769
948.112 .0255726
948.741 .0255681
949.369 .0255635
949.996 .0255582
950.624 .0255527
951.251 .0255463
951.878 .0255390
952.504 .0255305
953.130 .0255209
953.755 .0255099
954.380 .0254983
955.005 .0254859
955.629 .0254729
956.253 .0254603
956.877 .0254477
957.500 .0254348
958.123 .0254225
958.746 .0254100
959.368 .0253974
959.990 .0253847
960.611 .0253716
961.232 .0253583
961.853 .0253455
962.473 .0253340
963.093 .0253230
963.712 .0253134
964.331 .0253051
964.950 .0252973
965.569 .0252901
966.187 .0252833
966.804 .0252759
967.422 .0252687
968.039 .0252608
968.655 .0252516
969.272 .0252416
969.887 .0252308
970.503 .0252190
971.118 .0252072
971.733 .0251948
972.347 .0251824
972.961 .0251690
973.575 .0251559
974.188 .0251421
974.801 .0251280
975.414 .0251136
976.026 .0250978
976.638 .0250814
977.250 .0250650
977.861 .0250481
978.472 .0250319
979.083 .0250162
979.693 .0250015
980.303 .0249867
980.912 .0249722
981.521 .0249572
982.130 .0249423
982.738 .0249275
983.346 .0249124
983.954 .0248968
984.562 .0248816
985.169 .0248665
985.775 .0248516
986.382 .0248371
986.988 .0248230
987.594 .0248087
988.199 .0247952
988.804 .0247823
989.409 .0247706
990.013 .0247606
990.617 .0247528
991.221 .0247465
991.824 .0247424
992.427 .0247400
993.030 .0247388
993.632 .0247396
994.234 .0247420
994.836 .0247458
995.438 .0247506
996.039 .0247564
996.640 .0247625
997.240 .0247686
997.840 .0247747
998.440 .0247796
999.040 .0247832
999.639 .0247862
1000.238 .0247876
1000.836 .0247882
1001.435 .0247888
1002.033 .0247897
1002.630 .0247903
1003.228 .0247903
1003.825 .0247895
1004.422 .0247877
1005.018 .0247850
1005.614 .0247814
1006.210 .0247771
1006.806 .0247737
1007.401 .0247716
1007.996 .0247703
1008.591 .0247708
1009.186 .0247737
1009.780 .0247778
1010.374 .0247824
1010.967 .0247873
1011.561 .0247917
1012.154 .0247951
1012.746 .0247978
1013.339 .0248001
1013.931 .0248021
1014.523 .0248046
1015.115 .0248081
1015.706 .0248129
1016.298 .0248200
1016.888 .0248292
1017.479 .0248400
1018.069 .0248528
1018.660 .0248665
1019.250 .0248801
1019.839 .0248939
1020.429 .0249077
1021.018 .0249211
1021.607 .0249341
1022.195 .0249482
1022.784 .0249631
1023.372 .0249788
1023.960 .0249953
1024.547 .0250126
1025.135 .0250300
1025.722 .0250468
1026.309 .0250617
1026.896 .0250753
1027.483 .0250877
1028.069 .0250987
1028.655 .0251087
1029.241 .0251191
1029.827 .0251298
1030.412 .0251413
1030.997 .0251534
1031.582 .0251669
1032.167 .0251804
1032.752 .0251947
1033.336 .0252096
1033.921 .0252253
1034.505 .0252413
1035.089 .0252570
1035.672 .0252724
1036.256 .0252879
1036.839 .0253020
1037.422 .0253145
1038.005 .0253260
1038.588 .0253377
1039.171 .0253482
1039.753 .0253587
1040.335 .0253699
1040.918 .0253820
1041.500 .0253942
1042.081 .0254058
1042.663 .0254169
1043.244 .0254271
1043.826 .0254360
1044.407 .0254427
1044.988 .0254473
1045.569 .0254508
1046.150 .0254518
1046.730 .0254517
1047.311 .0254510
1047.891 .0254497
1048.471 .0254483
1049.052 .0254471
1049.632 .0254465
1050.211 .0254462
1050.791 .0254462
1051.371 .0254460
1051.950 .0254458
1052.530 .0254454
1053.109 .0254445
1053.688 .0254435
1054.268 .0254437
1054.847 .0254451
1055.426 .0254482
1056.005 .0254535
1056.583 .0254605
1057.162 .0254691
1057.741 .0254794
1058.319 .0254904
1058.898 .0255024
1059.476 .0255137
1060.055 .0255240
1060.633 .0255335
1061.211 .0255420
1061.790 .0255499
1062.368 .0255582
1062.946 .0255667
1063.524 .0255759
1064.102 .0255866
1064.680 .0255991
1065.258 .0256120
1065.836 .0256268
1066.414 .0256414
1066.992 .0256554
1067.570 .0256685
1068.148 .0256786
1068.726 .0256859
1069.304 .0256925
1069.882 .0256971
1070.460 .0256996
1071.038 .0257006
1071.616 .0257025
1072.194 .0257033
1072.772 .0257047
1073.350 .0257066
1073.928 .0257081
1074.506 .0257101
1075.084 .0257119
1075.662 .0257113
1076.240 .0257108
1076.819 .0257090
1077.397 .0257059
1077.976 .0257025
1078.554 .0256989
1079.133 .0256950
1079.711 .0256920
1080.290 .0256927
1080.869 .0256966
1081.448 .0257011
1082.027 .0257065
1082.606 .0257109
1083.185 .0257146
1083.764 .0257159
1084.343 .0257127
1084.923 .0257078
1085.502 .0257038
1086.082 .0257020
1086.662 .0257038
1087.242 .0257113
1087.822 .0257252
1088.402 .0257448
1088.983 .0257677
1089.563 .0257914
1090.144 .0258132
1090.725 .0258335
1091.306 .0258505
1091.887 .0258634
1092.469 .0258762
1093.050 .0258890
1093.632 .0259036
1094.214 .0259212
1094.796 .0259400
1095.379 .0259595
1095.961 .0259773
1096.544 .0259951
1097.127 .0260083
1097.710 .0260189
1098.294 .0260269
1098.877 .0260328
1099.461 .0260405
1100.046 .0260484
1100.630 .0260577
1101.215 .0260671
1101.800 .0260780
1102.385 .0260883
1102.970 .0260970
1103.556 .0261056
1104.142 .0261131
1104.728 .0261224
1105.315 .0261314
1105.902 .0261394
1106.489 .0261480
1107.077 .0261568
1107.664 .0261654
1108.253 .0261730
1108.841 .0261814
1109.430 .0261910
1110.019 .0262048
1110.609 .0262213
1111.198 .0262431
1111.789 .0262695
1112.379 .0262998
1112.970 .0263310
1113.561 .0263650
1114.153 .0264044
1114.745 .0264467
1115.338 .0264943
1115.931 .0265472
1116.524 .0266023
1117.117 .0266614
1117.712 .0267206
1118.306 .0267793
1118.901 .0268355
1119.496 .0268867
1120.092 .0269316
1120.689 .0269722
1121.285 .0270103
1121.882 .0270448
1122.480 .0270767
1123.078 .0271087
1123.677 .0271384
1124.276 .0271651
1124.875 .0271928
1125.476 .0272190
1126.076 .0272459
1126.677 .0272711
1127.279 .0272944
1127.881 .0273164
1128.484 .0273372
1129.087 .0273512
1129.691 .0273649
1130.295 .0273781
1130.900 .0273916
1131.505 .0274086
1132.111 .0274356
1132.718 .0274728
1133.325 .0275220
1133.933 .0275813
1134.541 .0276489
1135.150 .0277227
1135.760 .0278033
1136.370 .0278844
1136.981 .0279719
1137.592 .0280659
1138.204 .0281677
1138.817 .0282820
1139.431 .0284122
1140.045 .0285569
1140.660 .0287182
1141.275 .0288928
1141.891 .0290753
1142.508 .0292910
1143.126 .0294461
1143.744 .0296920
1144.363 .0298813
1144.983 .0300094
