Measurement Sequence started on: 15-12-46-377
Integration time: 28
Scans to Average: 2 
>>>>>Begin Spectral Data<<<<<
432.689 .0000100
433.621 .0000100
434.552 .0000100
435.482 .0000100
436.410 .0000100
437.337 .0000100
438.262 .0274347
439.187 .0582622
440.110 .0966508
441.031 .1400838
441.952 .1823691
442.871 .2158050
443.789 .2343601
444.705 .2358841
445.621 .2228576
446.535 .2007105
447.447 .1754548
448.359 .1367612
449.269 .1173860
450.178 .1051268
451.086 .0964796
451.993 .0899649
452.898 .0849124
453.803 .0808400
454.706 .0774982
455.608 .0746380
456.508 .0721569
457.408 .0699776
458.306 .0680264
459.204 .0662755
460.100 .0646774
460.995 .0632348
461.888 .0619267
462.781 .0607084
463.673 .0595676
464.563 .0585070
465.452 .0574961
466.340 .0565395
467.228 .0556402
468.114 .0547898
468.999 .0540131
469.882 .0532938
470.765 .0526430
471.647 .0520508
472.528 .0515160
473.407 .0510339
474.286 .0505937
475.163 .0502032
476.040 .0498581
476.915 .0495556
477.790 .0493023
478.663 .0490862
479.535 .0489134
480.407 .0487766
481.277 .0486625
482.147 .0485687
483.015 .0484849
483.883 .0484075
484.749 .0483427
485.615 .0482875
486.479 .0482454
487.343 .0482267
488.206 .0482268
489.067 .0482494
489.928 .0482912
490.788 .0483572
491.647 .0484403
492.505 .0485469
493.362 .0486835
494.218 .0488390
495.073 .0490223
495.928 .0492443
496.781 .0494804
497.634 .0497524
498.486 .0500426
499.337 .0503458
500.187 .0506612
501.036 .0509992
501.884 .0513524
502.731 .0517206
503.578 .0521115
504.424 .0525226
505.268 .0529306
506.113 .0533581
506.956 .0537877
507.798 .0542301
508.640 .0547057
509.480 .0552168
510.320 .0557941
511.160 .0564764
511.998 .0572684
512.836 .0582044
513.672 .0593062
514.508 .0605787
515.344 .0620119
516.178 .0636306
517.012 .0654602
517.845 .0675100
518.677 .0698449
519.508 .0724908
520.339 .0755033
521.169 .0789540
521.998 .0828655
522.826 .0872666
523.654 .0921914
524.481 .0975817
525.307 .1034778
526.133 .1098273
526.958 .1165564
527.782 .1235754
528.605 .1307808
529.428 .1380285
530.250 .1448377
531.072 .1509757
531.892 .1560997
532.712 .1598502
533.532 .1620734
534.350 .1624828
535.168 .1610315
535.986 .1578600
536.802 .1531072
537.618 .1471015
538.434 .1401591
539.249 .1327805
540.063 .1251827
540.876 .1176898
541.689 .1105468
542.501 .1038817
543.313 .0978279
544.124 .0923948
544.934 .0875154
545.744 .0831450
546.553 .0792065
547.361 .0756875
548.169 .0725714
548.976 .0697927
549.783 .0672976
550.589 .0650747
551.395 .0630436
552.200 .0612047
553.004 .0595448
553.808 .0580247
554.611 .0566576
555.414 .0554194
556.216 .0542922
557.018 .0532682
557.819 .0523482
558.619 .0515107
559.419 .0507434
560.218 .0500523
561.017 .0494175
561.815 .0488242
562.613 .0482643
563.410 .0477275
564.207 .0472032
565.003 .0466922
565.799 .0461801
566.594 .0456590
567.388 .0451474
568.182 .0446332
568.976 .0441230
569.769 .0436224
570.562 .0431292
571.354 .0426346
572.145 .0421433
572.936 .0416554
573.727 .0411683
574.517 .0406842
575.307 .0402097
576.096 .0397508
576.885 .0393150
577.673 .0389058
578.461 .0385261
579.248 .0381774
580.035 .0378567
580.821 .0375534
581.607 .0372647
582.392 .0369885
583.177 .0367226
583.962 .0364668
584.746 .0362287
585.529 .0360073
586.313 .0358058
587.095 .0356246
587.878 .0354637
588.660 .0353214
589.441 .0351942
590.222 .0350762
591.003 .0349688
591.783 .0348686
592.563 .0347722
593.342 .0346795
594.121 .0345909
594.899 .0345073
595.678 .0344276
596.455 .0343540
597.233 .0342872
598.009 .0342246
598.786 .0341671
599.562 .0341124
600.338 .0340594
601.113 .0340086
601.888 .0339581
602.663 .0339074
603.437 .0338577
604.211 .0338086
604.984 .0337609
605.757 .0337156
606.530 .0336743
607.302 .0336370
608.074 .0336033
608.845 .0335737
609.616 .0335464
610.387 .0335212
611.158 .0334982
611.928 .0334765
612.697 .0334564
613.467 .0334375
614.236 .0334193
615.004 .0334018
615.773 .0333849
616.541 .0333686
617.308 .0333522
618.076 .0333353
618.843 .0333177
619.609 .0332984
620.375 .0332774
621.141 .0332542
621.907 .0332290
622.672 .0332018
623.437 .0331729
624.202 .0331422
624.966 .0331102
625.730 .0330768
626.493 .0330428
627.257 .0330088
628.020 .0329749
628.782 .0329413
629.545 .0329080
630.307 .0328745
631.068 .0328407
631.830 .0328063
632.591 .0327717
633.352 .0327370
634.112 .0327024
634.872 .0326674
635.632 .0326322
636.392 .0325967
637.151 .0325609
637.910 .0325240
638.668 .0324865
639.427 .0324486
640.185 .0324097
640.943 .0323701
641.700 .0323309
642.457 .0322930
643.214 .0322566
643.971 .0322210
644.727 .0321870
645.483 .0321542
646.239 .0321217
646.994 .0320896
647.750 .0320583
648.505 .0320282
649.259 .0319996
650.014 .0319722
650.768 .0319464
651.521 .0319223
652.275 .0318995
653.028 .0318766
653.781 .0318534
654.534 .0318297
655.286 .0318045
656.039 .0317777
656.791 .0317508
657.542 .0317238
658.294 .0316972
659.045 .0316722
659.796 .0316483
660.546 .0316249
661.297 .0316022
662.047 .0315794
662.796 .0315558
663.546 .0315324
664.295 .0315087
665.044 .0314850
665.793 .0314629
666.542 .0314425
667.290 .0314233
668.038 .0314056
668.786 .0313892
669.533 .0313731
670.281 .0313565
671.028 .0313395
671.774 .0313216
672.521 .0313035
673.267 .0312856
674.013 .0312675
674.759 .0312495
675.505 .0312320
676.250 .0312141
676.995 .0311959
677.740 .0311769
678.484 .0311567
679.229 .0311355
679.973 .0311139
680.717 .0310916
681.460 .0310697
682.204 .0310484
682.947 .0310284
683.690 .0310094
684.433 .0309915
685.175 .0309743
685.917 .0309579
686.659 .0309420
687.401 .0309262
688.142 .0309105
688.884 .0308947
689.625 .0308787
690.365 .0308626
691.106 .0308467
691.846 .0308312
692.586 .0308158
693.326 .0308008
694.066 .0307860
694.805 .0307714
695.545 .0307563
696.284 .0307401
697.022 .0307225
697.761 .0307039
698.499 .0306840
699.237 .0306631
699.975 .0306416
700.713 .0306204
701.450 .0305995
702.187 .0305794
702.924 .0305600
703.661 .0305410
704.397 .0305222
705.133 .0305035
705.869 .0304843
706.605 .0304650
707.341 .0304454
708.076 .0304264
708.811 .0304079
709.546 .0303898
710.281 .0303719
711.015 .0303540
711.749 .0303360
712.483 .0303181
713.217 .0302996
713.950 .0302810
714.684 .0302620
715.417 .0302423
716.150 .0302222
716.882 .0302012
717.615 .0301794
718.347 .0301565
719.079 .0301323
719.811 .0301067
720.542 .0300803
721.273 .0300533
722.005 .0300264
722.735 .0300003
723.466 .0299752
724.196 .0299502
724.927 .0299254
725.656 .0299004
726.386 .0298754
727.116 .0298507
727.845 .0298265
728.574 .0298030
729.303 .0297816
730.031 .0297623
730.760 .0297458
731.488 .0297313
732.216 .0297195
732.944 .0297093
733.671 .0297001
734.398 .0296914
735.125 .0296824
735.852 .0296733
736.579 .0296647
737.305 .0296563
738.031 .0296483
738.757 .0296403
739.483 .0296323
740.208 .0296233
740.933 .0296136
741.658 .0296023
742.383 .0295893
743.108 .0295751
743.832 .0295602
744.556 .0295446
745.280 .0295290
746.004 .0295138
746.727 .0294994
747.450 .0294855
748.173 .0294716
748.896 .0294576
749.618 .0294439
750.340 .0294305
751.062 .0294176
751.784 .0294053
752.506 .0293942
753.227 .0293844
753.948 .0293757
754.669 .0293677
755.389 .0293597
756.110 .0293515
756.830 .0293425
757.550 .0293325
758.269 .0293215
758.989 .0293096
759.708 .0292972
760.427 .0292847
761.146 .0292724
761.864 .0292602
762.582 .0292482
763.300 .0292365
764.018 .0292247
764.736 .0292128
765.453 .0292007
766.170 .0291881
766.887 .0291755
767.603 .0291628
768.320 .0291501
769.036 .0291374
769.751 .0291252
770.467 .0291129
771.182 .0291010
771.897 .0290893
772.612 .0290778
773.327 .0290665
774.041 .0290556
774.755 .0290447
775.469 .0290337
776.183 .0290232
776.896 .0290129
777.609 .0290028
778.322 .0289934
779.035 .0289842
779.747 .0289756
780.459 .0289674
781.171 .0289598
781.882 .0289526
782.594 .0289461
783.305 .0289400
784.016 .0289344
784.726 .0289294
785.436 .0289244
786.147 .0289192
786.856 .0289137
787.566 .0289078
788.275 .0289010
788.984 .0288934
789.693 .0288854
790.401 .0288770
791.110 .0288682
791.818 .0288594
792.525 .0288503
793.233 .0288412
793.940 .0288314
794.647 .0288208
795.353 .0288091
796.060 .0287968
796.766 .0287837
797.472 .0287699
798.177 .0287562
798.883 .0287429
799.588 .0287299
800.292 .0287176
800.997 .0287058
801.701 .0286937
802.405 .0286814
803.109 .0286685
803.812 .0286543
804.515 .0286393
805.218 .0286228
805.921 .0286053
806.623 .0285873
807.325 .0285691
808.027 .0285506
808.728 .0285325
809.429 .0285144
810.130 .0284961
810.831 .0284775
811.531 .0284585
812.231 .0284388
812.931 .0284187
813.630 .0283983
814.330 .0283778
815.029 .0283577
815.727 .0283389
816.426 .0283211
817.124 .0283051
817.821 .0282906
818.519 .0282777
819.216 .0282662
819.913 .0282558
820.609 .0282460
821.306 .0282373
822.002 .0282293
822.697 .0282221
823.393 .0282156
824.088 .0282101
824.783 .0282051
825.477 .0282001
826.171 .0281949
826.865 .0281889
827.559 .0281819
828.252 .0281740
828.945 .0281649
829.638 .0281550
830.330 .0281447
831.023 .0281340
831.714 .0281226
832.406 .0281111
833.097 .0280993
833.788 .0280865
834.479 .0280733
835.169 .0280602
835.859 .0280475
836.548 .0280352
837.238 .0280246
837.927 .0280148
838.615 .0280064
839.304 .0279996
839.992 .0279940
840.680 .0279893
841.367 .0279860
842.054 .0279837
842.741 .0279819
843.428 .0279814
844.114 .0279816
844.800 .0279818
845.485 .0279824
846.170 .0279819
846.855 .0279798
847.540 .0279759
848.224 .0279704
848.908 .0279629
849.592 .0279541
850.275 .0279443
850.958 .0279330
851.641 .0279208
852.323 .0279076
853.005 .0278929
853.687 .0278770
854.368 .0278598
855.049 .0278413
855.730 .0278221
856.410 .0278033
857.090 .0277850
857.769 .0277687
858.449 .0277544
859.128 .0277423
859.806 .0277318
860.485 .0277228
861.163 .0277149
861.840 .0277077
862.518 .0277014
863.195 .0276952
863.871 .0276894
864.548 .0276839
865.224 .0276785
865.899 .0276736
866.574 .0276689
867.249 .0276643
867.924 .0276593
868.598 .0276534
869.272 .0276463
869.946 .0276377
870.619 .0276275
871.292 .0276163
871.964 .0276040
872.636 .0275910
873.308 .0275777
873.979 .0275643
874.651 .0275515
875.321 .0275392
875.992 .0275275
876.662 .0275161
877.331 .0275049
878.001 .0274939
878.670 .0274828
879.338 .0274724
880.007 .0274627
880.675 .0274535
881.342 .0274453
882.009 .0274375
882.676 .0274303
883.343 .0274236
884.009 .0274173
884.675 .0274107
885.340 .0274039
886.005 .0273963
886.670 .0273884
887.334 .0273802
887.998 .0273721
888.662 .0273643
889.325 .0273571
889.988 .0273507
890.650 .0273445
891.312 .0273386
891.974 .0273327
892.636 .0273265
893.297 .0273201
893.957 .0273129
894.618 .0273053
895.278 .0272974
895.937 .0272896
896.596 .0272818
897.255 .0272744
897.914 .0272677
898.572 .0272610
899.230 .0272545
899.887 .0272476
900.544 .0272403
901.201 .0272326
901.857 .0272237
902.513 .0272136
903.168 .0272027
903.823 .0271904
904.478 .0271765
905.132 .0271613
905.786 .0271452
906.440 .0271278
907.093 .0271095
907.746 .0270905
908.399 .0270709
909.051 .0270507
909.703 .0270299
910.354 .0270085
911.005 .0269868
911.656 .0269645
912.306 .0269413
912.956 .0269182
913.605 .0268954
914.254 .0268734
914.903 .0268527
915.551 .0268346
916.199 .0268192
916.847 .0268058
917.494 .0267943
918.141 .0267848
918.788 .0267760
919.434 .0267674
920.079 .0267583
920.725 .0267486
921.370 .0267378
922.014 .0267261
922.658 .0267128
923.302 .0266983
923.946 .0266827
924.589 .0266654
925.231 .0266462
925.873 .0266258
926.515 .0266038
927.157 .0265802
927.798 .0265557
928.439 .0265303
929.079 .0265041
929.719 .0264778
930.359 .0264509
930.998 .0264237
931.637 .0263968
932.275 .0263704
932.913 .0263447
933.551 .0263207
934.188 .0262985
934.825 .0262780
935.462 .0262595
936.098 .0262429
936.733 .0262279
937.369 .0262146
938.004 .0262027
938.638 .0261918
939.273 .0261822
939.907 .0261737
940.540 .0261661
941.173 .0261600
941.806 .0261553
942.438 .0261516
943.070 .0261483
943.702 .0261456
944.333 .0261427
944.964 .0261396
945.594 .0261362
946.224 .0261323
946.854 .0261282
947.483 .0261243
948.112 .0261196
948.741 .0261147
949.369 .0261096
949.996 .0261040
950.624 .0260978
951.251 .0260911
951.878 .0260838
952.504 .0260758
953.130 .0260674
953.755 .0260583
954.380 .0260483
955.005 .0260378
955.629 .0260263
956.253 .0260137
956.877 .0260008
957.500 .0259877
958.123 .0259745
958.746 .0259616
959.368 .0259495
959.990 .0259381
960.611 .0259270
961.232 .0259166
961.853 .0259065
962.473 .0258967
963.093 .0258873
963.712 .0258779
964.331 .0258691
964.950 .0258611
965.569 .0258539
966.187 .0258476
966.804 .0258428
967.422 .0258396
968.039 .0258376
968.655 .0258366
969.272 .0258365
969.887 .0258366
970.503 .0258368
971.118 .0258372
971.733 .0258376
972.347 .0258381
972.961 .0258394
973.575 .0258409
974.188 .0258429
974.801 .0258456
975.414 .0258485
976.026 .0258511
976.638 .0258536
977.250 .0258553
977.861 .0258554
978.472 .0258542
979.083 .0258513
979.693 .0258462
980.303 .0258393
980.912 .0258308
981.521 .0258205
982.130 .0258092
982.738 .0257977
983.346 .0257858
983.954 .0257743
984.562 .0257632
985.169 .0257520
985.775 .0257407
986.382 .0257292
986.988 .0257174
987.594 .0257050
988.199 .0256928
988.804 .0256813
989.409 .0256709
990.013 .0256624
990.617 .0256558
991.221 .0256510
991.824 .0256481
992.427 .0256463
993.030 .0256447
993.632 .0256439
994.234 .0256432
994.836 .0256426
995.438 .0256422
996.039 .0256422
996.640 .0256434
997.240 .0256458
997.840 .0256498
998.440 .0256550
999.040 .0256612
999.639 .0256682
1000.238 .0256750
1000.836 .0256818
1001.435 .0256881
1002.033 .0256940
1002.630 .0256993
1003.228 .0257045
1003.825 .0257099
1004.422 .0257161
1005.018 .0257228
1005.614 .0257303
1006.210 .0257386
1006.806 .0257469
1007.401 .0257550
1007.996 .0257620
1008.591 .0257685
1009.186 .0257744
1009.780 .0257792
1010.374 .0257834
1010.967 .0257862
1011.561 .0257891
1012.154 .0257908
1012.746 .0257915
1013.339 .0257914
1013.931 .0257903
1014.523 .0257884
1015.115 .0257858
1015.706 .0257828
1016.298 .0257802
1016.888 .0257781
1017.479 .0257770
1018.069 .0257764
1018.660 .0257765
1019.250 .0257768
1019.839 .0257774
1020.429 .0257781
1021.018 .0257790
1021.607 .0257793
1022.195 .0257798
1022.784 .0257807
1023.372 .0257818
1023.960 .0257836
1024.547 .0257862
1025.135 .0257900
1025.722 .0257948
1026.309 .0258000
1026.896 .0258061
1027.483 .0258121
1028.069 .0258184
1028.655 .0258238
1029.241 .0258283
1029.827 .0258320
1030.412 .0258350
1030.997 .0258381
1031.582 .0258417
1032.167 .0258465
1032.752 .0258523
1033.336 .0258590
1033.921 .0258673
1034.505 .0258755
1035.089 .0258832
1035.672 .0258898
1036.256 .0258949
1036.839 .0258975
1037.422 .0258984
1038.005 .0258976
1038.588 .0258965
1039.171 .0258955
1039.753 .0258948
1040.335 .0258943
1040.918 .0258945
1041.500 .0258949
1042.081 .0258943
1042.663 .0258935
1043.244 .0258920
1043.826 .0258883
1044.407 .0258838
1044.988 .0258785
1045.569 .0258725
1046.150 .0258659
1046.730 .0258596
1047.311 .0258532
1047.891 .0258468
1048.471 .0258403
1049.052 .0258331
1049.632 .0258255
1050.211 .0258186
1050.791 .0258111
1051.371 .0258035
1051.950 .0257983
1052.530 .0257932
1053.109 .0257890
1053.688 .0257849
1054.268 .0257808
1054.847 .0257768
1055.426 .0257724
1056.005 .0257672
1056.583 .0257617
1057.162 .0257565
1057.741 .0257525
1058.319 .0257492
1058.898 .0257480
1059.476 .0257476
1060.055 .0257477
1060.633 .0257478
1061.211 .0257471
1061.790 .0257442
1062.368 .0257417
1062.946 .0257382
1063.524 .0257348
1064.102 .0257310
1064.680 .0257267
1065.258 .0257220
1065.836 .0257172
1066.414 .0257110
1066.992 .0257030
1067.570 .0256935
1068.148 .0256828
1068.726 .0256700
1069.304 .0256570
1069.882 .0256442
1070.460 .0256316
1071.038 .0256206
1071.616 .0256094
1072.194 .0255961
1072.772 .0255814
1073.350 .0255645
1073.928 .0255451
1074.506 .0255242
1075.084 .0255024
1075.662 .0254817
1076.240 .0254644
1076.819 .0254510
1077.397 .0254417
1077.976 .0254367
1078.554 .0254353
1079.133 .0254357
1079.711 .0254363
1080.290 .0254359
1080.869 .0254329
1081.448 .0254291
1082.027 .0254246
1082.606 .0254204
1083.185 .0254180
1083.764 .0254185
1084.343 .0254218
1084.923 .0254274
1085.502 .0254343
1086.082 .0254412
1086.662 .0254488
1087.242 .0254565
1087.822 .0254636
1088.402 .0254709
1088.983 .0254800
1089.563 .0254899
1090.144 .0255015
1090.725 .0255155
1091.306 .0255299
1091.887 .0255450
1092.469 .0255597
1093.050 .0255735
1093.632 .0255855
1094.214 .0255973
1094.796 .0256087
1095.379 .0256185
1095.961 .0256283
1096.544 .0256365
1097.127 .0256433
1097.710 .0256511
1098.294 .0256597
1098.877 .0256685
1099.461 .0256772
1100.046 .0256874
1100.630 .0256960
1101.215 .0257053
1101.800 .0257149
1102.385 .0257249
1102.970 .0257367
1103.556 .0257516
1104.142 .0257682
1104.728 .0257897
1105.315 .0258152
1105.902 .0258430
1106.489 .0258709
1107.077 .0258966
1107.664 .0259189
1108.253 .0259371
1108.841 .0259524
1109.430 .0259678
1110.019 .0259835
1110.609 .0260040
1111.198 .0260280
1111.789 .0260590
1112.379 .0260975
1112.970 .0261415
1113.561 .0261888
1114.153 .0262374
1114.745 .0262865
1115.338 .0263357
1115.931 .0263831
1116.524 .0264294
1117.117 .0264757
1117.712 .0265222
1118.306 .0265708
1118.901 .0266208
1119.496 .0266718
1120.092 .0267265
1120.689 .0267827
1121.285 .0268385
1121.882 .0268923
1122.480 .0269432
1123.078 .0269893
1123.677 .0270312
1124.276 .0270687
1124.875 .0271006
1125.476 .0271313
1126.076 .0271651
1126.677 .0272054
1127.279 .0272537
1127.881 .0273123
1128.484 .0273760
1129.087 .0274478
1129.691 .0275255
1130.295 .0276017
1130.900 .0276750
1131.505 .0277460
1132.111 .0278114
1132.718 .0278772
1133.325 .0279434
1133.933 .0280166
1134.541 .0281022
1135.150 .0282030
1135.760 .0283145
1136.370 .0284381
1136.981 .0285711
1137.592 .0287062
1138.204 .0288404
1138.817 .0289685
1139.431 .0290913
1140.045 .0292195
1140.660 .0293481
1141.275 .0294736
1141.891 .0295991
1142.508 .0297252
1143.126 .0301188
1143.744 .0301300
1144.363 .0300209
1144.983 .0300434
