Measurement Sequence started on: 15-12-46-377
Integration time: 28
Scans to Average: 2 
>>>>>Begin Spectral Data<<<<<
432.689 .0000100
433.621 .0000100
434.552 .0000100
435.482 .0000100
436.410 .0000100
437.337 .0000100
438.262 .0291235
439.187 .0617754
440.110 .1024103
441.031 .1482981
441.952 .1928641
442.871 .2279984
443.789 .2473432
444.705 .2486453
445.621 .2346258
446.535 .2110787
447.447 .1843431
448.359 .1434152
449.269 .1230578
450.178 .1101475
451.086 .1009872
451.993 .0939743
452.898 .0883556
453.803 .0837105
454.706 .0798415
455.608 .0764828
456.508 .0735871
457.408 .0711104
458.306 .0689384
459.204 .0670178
460.100 .0653282
460.995 .0638058
461.888 .0624287
462.781 .0611795
463.673 .0600134
464.563 .0589475
465.452 .0579625
466.340 .0570385
467.228 .0561886
468.114 .0554158
468.999 .0547176
469.882 .0540644
470.765 .0534761
471.647 .0529280
472.528 .0524076
473.407 .0519238
474.286 .0514788
475.163 .0510806
476.040 .0507408
476.915 .0504471
477.790 .0502010
478.663 .0499978
479.535 .0498296
480.407 .0496907
481.277 .0495741
482.147 .0494767
483.015 .0493930
483.883 .0493219
484.749 .0492693
485.615 .0492332
486.479 .0492165
487.343 .0492238
488.206 .0492487
489.067 .0492839
489.928 .0493252
490.788 .0493711
491.647 .0494234
492.505 .0494817
493.362 .0495471
494.218 .0496188
495.073 .0497035
495.928 .0498105
496.781 .0499309
497.634 .0500846
498.486 .0502705
499.337 .0504873
500.187 .0507394
501.036 .0510256
501.884 .0513305
502.731 .0516585
503.578 .0520088
504.424 .0523663
505.268 .0527347
506.113 .0531237
506.956 .0535298
507.798 .0539845
508.640 .0545003
509.480 .0550780
510.320 .0557381
511.160 .0565063
511.998 .0573632
512.836 .0583131
513.672 .0593793
514.508 .0605518
515.344 .0618428
516.178 .0633205
517.012 .0649830
517.845 .0668734
518.677 .0690517
519.508 .0715162
520.339 .0743057
521.169 .0774870
521.998 .0810340
522.826 .0849857
523.654 .0893949
524.481 .0942465
525.307 .0995450
526.133 .1052686
526.958 .1114537
527.782 .1179917
528.605 .1247302
529.428 .1316241
530.250 .1381193
531.072 .1441204
531.892 .1492621
532.712 .1532524
533.532 .1559328
534.350 .1571165
535.168 .1566984
535.986 .1546371
536.802 .1510677
537.618 .1462167
538.434 .1402172
539.249 .1336164
540.063 .1265494
540.876 .1193574
541.689 .1123603
542.501 .1057661
543.313 .0996864
544.124 .0942292
544.934 .0893158
545.744 .0848828
546.553 .0808468
547.361 .0771887
548.169 .0738948
548.976 .0709357
549.783 .0683309
550.589 .0660202
551.395 .0639673
552.200 .0621713
553.004 .0605697
553.808 .0591366
554.611 .0578598
555.414 .0567068
556.216 .0556421
557.018 .0546645
557.819 .0537684
558.619 .0529367
559.419 .0521704
560.218 .0514724
561.017 .0508258
561.815 .0502056
562.613 .0495965
563.410 .0489789
564.207 .0483571
565.003 .0477263
565.799 .0470834
566.594 .0464303
567.388 .0457914
568.182 .0451585
568.976 .0445390
569.769 .0439459
570.562 .0433788
571.354 .0428337
572.145 .0423083
572.936 .0417984
573.727 .0413030
574.517 .0408205
575.307 .0403544
576.096 .0399061
576.885 .0394835
577.673 .0390817
578.461 .0387028
579.248 .0383491
580.035 .0380169
580.821 .0377016
581.607 .0374020
582.392 .0371150
583.177 .0368416
583.962 .0365843
584.746 .0363460
585.529 .0361264
586.313 .0359266
587.095 .0357464
587.878 .0355838
588.660 .0354384
589.441 .0353058
590.222 .0351819
591.003 .0350679
591.783 .0349619
592.563 .0348618
593.342 .0347691
594.121 .0346832
594.899 .0346042
595.678 .0345302
596.455 .0344603
597.233 .0343945
598.009 .0343316
598.786 .0342699
599.562 .0342080
600.338 .0341457
601.113 .0340837
601.888 .0340200
602.663 .0339554
603.437 .0338916
604.211 .0338294
604.984 .0337692
605.757 .0337108
606.530 .0336547
607.302 .0336013
608.074 .0335496
608.845 .0334998
609.616 .0334515
610.387 .0334048
611.158 .0333600
611.928 .0333173
612.697 .0332780
613.467 .0332421
614.236 .0332098
615.004 .0331812
615.773 .0331557
616.541 .0331324
617.308 .0331107
618.076 .0330900
618.843 .0330706
619.609 .0330526
620.375 .0330360
621.141 .0330214
621.907 .0330093
622.672 .0329993
623.437 .0329908
624.202 .0329828
624.966 .0329747
625.730 .0329654
626.493 .0329542
627.257 .0329418
628.020 .0329282
628.782 .0329142
629.545 .0328998
630.307 .0328842
631.068 .0328682
631.830 .0328511
632.591 .0328317
633.352 .0328102
634.112 .0327860
634.872 .0327587
635.632 .0327287
636.392 .0326963
637.151 .0326623
637.910 .0326275
638.668 .0325923
639.427 .0325569
640.185 .0325209
640.943 .0324846
641.700 .0324474
642.457 .0324099
643.214 .0323728
643.971 .0323350
644.727 .0322979
645.483 .0322622
646.239 .0322274
646.994 .0321935
647.750 .0321611
648.505 .0321298
649.259 .0320994
650.014 .0320691
650.768 .0320381
651.521 .0320067
652.275 .0319755
653.028 .0319436
653.781 .0319115
654.534 .0318793
655.286 .0318463
656.039 .0318124
656.791 .0317779
657.542 .0317427
658.294 .0317072
659.045 .0316722
659.796 .0316377
660.546 .0316040
661.297 .0315707
662.047 .0315374
662.796 .0315040
663.546 .0314707
664.295 .0314367
665.044 .0314017
665.793 .0313667
666.542 .0313318
667.290 .0312983
668.038 .0312664
668.786 .0312366
669.533 .0312089
670.281 .0311824
671.028 .0311566
671.774 .0311311
672.521 .0311060
673.267 .0310822
674.013 .0310593
674.759 .0310383
675.505 .0310194
676.250 .0310032
676.995 .0309892
677.740 .0309774
678.484 .0309668
679.229 .0309570
679.973 .0309471
680.717 .0309368
681.460 .0309260
682.204 .0309149
682.947 .0309040
683.690 .0308937
684.433 .0308833
685.175 .0308727
685.917 .0308609
686.659 .0308482
687.401 .0308339
688.142 .0308179
688.884 .0308003
689.625 .0307814
690.365 .0307619
691.106 .0307419
691.846 .0307217
692.586 .0307025
693.326 .0306839
694.066 .0306658
694.805 .0306478
695.545 .0306294
696.284 .0306104
697.022 .0305907
697.761 .0305708
698.499 .0305503
699.237 .0305304
699.975 .0305117
700.713 .0304943
701.450 .0304788
702.187 .0304652
702.924 .0304528
703.661 .0304411
704.397 .0304294
705.133 .0304169
705.869 .0304031
706.605 .0303891
707.341 .0303751
708.076 .0303614
708.811 .0303484
709.546 .0303361
710.281 .0303242
711.015 .0303128
711.749 .0303007
712.483 .0302872
713.217 .0302720
713.950 .0302546
714.684 .0302349
715.417 .0302131
716.150 .0301905
716.882 .0301673
717.615 .0301436
718.347 .0301197
719.079 .0300952
719.811 .0300702
720.542 .0300451
721.273 .0300193
722.005 .0299935
722.735 .0299672
723.466 .0299406
724.196 .0299134
724.927 .0298861
725.656 .0298585
726.386 .0298305
727.116 .0298025
727.845 .0297748
728.574 .0297468
729.303 .0297197
730.031 .0296933
730.760 .0296681
731.488 .0296438
732.216 .0296204
732.944 .0295976
733.671 .0295756
734.398 .0295542
735.125 .0295336
735.852 .0295140
736.579 .0294954
737.305 .0294773
738.031 .0294602
738.757 .0294439
739.483 .0294278
740.208 .0294120
740.933 .0293962
741.658 .0293803
742.383 .0293641
743.108 .0293479
743.832 .0293319
744.556 .0293162
745.280 .0293009
746.004 .0292855
746.727 .0292699
747.450 .0292545
748.173 .0292384
748.896 .0292220
749.618 .0292049
750.340 .0291873
751.062 .0291692
751.784 .0291510
752.506 .0291326
753.227 .0291141
753.948 .0290956
754.669 .0290777
755.389 .0290595
756.110 .0290412
756.830 .0290225
757.550 .0290037
758.269 .0289848
758.989 .0289656
759.708 .0289457
760.427 .0289263
761.146 .0289070
761.864 .0288884
762.582 .0288704
763.300 .0288537
764.018 .0288376
764.736 .0288225
765.453 .0288082
766.170 .0287941
766.887 .0287801
767.603 .0287667
768.320 .0287533
769.036 .0287401
769.751 .0287270
770.467 .0287141
771.182 .0287020
771.897 .0286909
772.612 .0286807
773.327 .0286718
774.041 .0286647
774.755 .0286592
775.469 .0286554
776.183 .0286536
776.896 .0286532
777.609 .0286542
778.322 .0286566
779.035 .0286597
779.747 .0286634
780.459 .0286678
781.171 .0286728
781.882 .0286782
782.594 .0286844
783.305 .0286908
784.016 .0286978
784.726 .0287052
785.436 .0287124
786.147 .0287191
786.856 .0287254
787.566 .0287306
788.275 .0287345
788.984 .0287374
789.693 .0287390
790.401 .0287393
791.110 .0287386
791.818 .0287369
792.525 .0287345
793.233 .0287318
793.940 .0287284
794.647 .0287242
795.353 .0287197
796.060 .0287143
796.766 .0287079
797.472 .0287009
798.177 .0286931
798.883 .0286845
799.588 .0286754
800.292 .0286661
800.997 .0286566
801.701 .0286476
802.405 .0286390
803.109 .0286309
803.812 .0286232
804.515 .0286156
805.218 .0286074
805.921 .0285988
806.623 .0285893
807.325 .0285787
808.027 .0285671
808.728 .0285545
809.429 .0285406
810.130 .0285258
810.831 .0285098
811.531 .0284927
812.231 .0284742
812.931 .0284543
813.630 .0284326
814.330 .0284092
815.029 .0283847
815.727 .0283589
816.426 .0283327
817.124 .0283064
817.821 .0282800
818.519 .0282537
819.216 .0282280
819.913 .0282030
820.609 .0281789
821.306 .0281559
822.002 .0281342
822.697 .0281140
823.393 .0280958
824.088 .0280790
824.783 .0280637
825.477 .0280500
826.171 .0280381
826.865 .0280268
827.559 .0280164
828.252 .0280066
828.945 .0279969
829.638 .0279871
830.330 .0279771
831.023 .0279666
831.714 .0279556
832.406 .0279441
833.097 .0279318
833.788 .0279190
834.479 .0279059
835.169 .0278924
835.859 .0278789
836.548 .0278656
837.238 .0278521
837.927 .0278380
838.615 .0278239
839.304 .0278095
839.992 .0277945
840.680 .0277794
841.367 .0277643
842.054 .0277497
842.741 .0277353
843.428 .0277217
844.114 .0277087
844.800 .0276964
845.485 .0276840
846.170 .0276708
846.855 .0276566
847.540 .0276411
848.224 .0276240
848.908 .0276061
849.592 .0275873
850.275 .0275679
850.958 .0275477
851.641 .0275277
852.323 .0275071
853.005 .0274862
853.687 .0274644
854.368 .0274416
855.049 .0274175
855.730 .0273921
856.410 .0273650
857.090 .0273372
857.769 .0273093
858.449 .0272814
859.128 .0272541
859.806 .0272280
860.485 .0272032
861.163 .0271799
861.840 .0271579
862.518 .0271368
863.195 .0271160
863.871 .0270956
864.548 .0270755
865.224 .0270560
865.899 .0270375
866.574 .0270199
867.249 .0270041
867.924 .0269902
868.598 .0269783
869.272 .0269681
869.946 .0269594
870.619 .0269521
871.292 .0269453
871.964 .0269387
872.636 .0269326
873.308 .0269267
873.979 .0269216
874.651 .0269177
875.321 .0269148
875.992 .0269133
876.662 .0269134
877.331 .0269146
878.001 .0269168
878.670 .0269195
879.338 .0269223
880.007 .0269250
880.675 .0269278
881.342 .0269306
882.009 .0269335
882.676 .0269372
883.343 .0269413
884.009 .0269456
884.675 .0269503
885.340 .0269549
886.005 .0269594
886.670 .0269641
887.334 .0269688
887.998 .0269739
888.662 .0269800
889.325 .0269871
889.988 .0269956
890.650 .0270059
891.312 .0270174
891.974 .0270302
892.636 .0270435
893.297 .0270573
893.957 .0270707
894.618 .0270839
895.278 .0270968
895.937 .0271096
896.596 .0271227
897.255 .0271358
897.914 .0271483
898.572 .0271610
899.230 .0271727
899.887 .0271834
900.544 .0271927
901.201 .0271999
901.857 .0272047
902.513 .0272072
903.168 .0272070
903.823 .0272047
904.478 .0272009
905.132 .0271956
905.786 .0271888
906.440 .0271811
907.093 .0271720
907.746 .0271620
908.399 .0271511
909.051 .0271398
909.703 .0271276
910.354 .0271154
911.005 .0271033
911.656 .0270914
912.306 .0270804
912.956 .0270703
913.605 .0270610
914.254 .0270527
914.903 .0270450
915.551 .0270377
916.199 .0270309
916.847 .0270248
917.494 .0270187
918.141 .0270131
918.788 .0270077
919.434 .0270025
920.079 .0269968
920.725 .0269906
921.370 .0269835
922.014 .0269753
922.658 .0269656
923.302 .0269543
923.946 .0269416
924.589 .0269277
925.231 .0269123
925.873 .0268958
926.515 .0268782
927.157 .0268599
927.798 .0268403
928.439 .0268198
929.079 .0267979
929.719 .0267751
930.359 .0267513
930.998 .0267268
931.637 .0267022
932.275 .0266775
932.913 .0266528
933.551 .0266283
934.188 .0266037
934.825 .0265791
935.462 .0265543
936.098 .0265299
936.733 .0265063
937.369 .0264835
938.004 .0264622
938.638 .0264425
939.273 .0264246
939.907 .0264085
940.540 .0263938
941.173 .0263801
941.806 .0263673
942.438 .0263548
943.070 .0263422
943.702 .0263295
944.333 .0263169
944.964 .0263046
945.594 .0262921
946.224 .0262798
946.854 .0262677
947.483 .0262554
948.112 .0262427
948.741 .0262292
949.369 .0262153
949.996 .0262003
950.624 .0261842
951.251 .0261669
951.878 .0261491
952.504 .0261306
953.130 .0261114
953.755 .0260921
954.380 .0260726
955.005 .0260530
955.629 .0260328
956.253 .0260131
956.877 .0259936
957.500 .0259748
958.123 .0259564
958.746 .0259380
959.368 .0259198
959.990 .0259010
960.611 .0258813
961.232 .0258604
961.853 .0258388
962.473 .0258164
963.093 .0257929
963.712 .0257695
964.331 .0257461
964.950 .0257230
965.569 .0257001
966.187 .0256781
966.804 .0256560
967.422 .0256341
968.039 .0256121
968.655 .0255897
969.272 .0255669
969.887 .0255433
970.503 .0255191
971.118 .0254944
971.733 .0254693
972.347 .0254437
972.961 .0254174
973.575 .0253916
974.188 .0253659
974.801 .0253401
975.414 .0253141
976.026 .0252886
976.638 .0252630
977.250 .0252373
977.861 .0252116
978.472 .0251858
979.083 .0251600
979.693 .0251343
980.303 .0251079
980.912 .0250819
981.521 .0250566
982.130 .0250322
982.738 .0250088
983.346 .0249867
983.954 .0249651
984.562 .0249443
985.169 .0249236
985.775 .0249028
986.382 .0248811
986.988 .0248596
987.594 .0248378
988.199 .0248164
988.804 .0247959
989.409 .0247766
990.013 .0247585
990.617 .0247425
991.221 .0247275
991.824 .0247140
992.427 .0247017
993.030 .0246910
993.632 .0246812
994.234 .0246728
994.836 .0246650
995.438 .0246579
996.039 .0246511
996.640 .0246443
997.240 .0246375
997.840 .0246311
998.440 .0246253
999.040 .0246201
999.639 .0246163
1000.238 .0246144
1000.836 .0246140
1001.435 .0246150
1002.033 .0246172
1002.630 .0246204
1003.228 .0246242
1003.825 .0246283
1004.422 .0246327
1005.018 .0246376
1005.614 .0246434
1006.210 .0246499
1006.806 .0246576
1007.401 .0246659
1007.996 .0246747
1008.591 .0246832
1009.186 .0246910
1009.780 .0246983
1010.374 .0247044
1010.967 .0247095
1011.561 .0247142
1012.154 .0247186
1012.746 .0247230
1013.339 .0247276
1013.931 .0247332
1014.523 .0247403
1015.115 .0247485
1015.706 .0247583
1016.298 .0247693
1016.888 .0247820
1017.479 .0247963
1018.069 .0248115
1018.660 .0248280
1019.250 .0248454
1019.839 .0248624
1020.429 .0248803
1021.018 .0248985
1021.607 .0249171
1022.195 .0249361
1022.784 .0249555
1023.372 .0249755
1023.960 .0249963
1024.547 .0250169
1025.135 .0250380
1025.722 .0250591
1026.309 .0250813
1026.896 .0251033
1027.483 .0251256
1028.069 .0251490
1028.655 .0251724
1029.241 .0251961
1029.827 .0252196
1030.412 .0252430
1030.997 .0252667
1031.582 .0252899
1032.167 .0253136
1032.752 .0253380
1033.336 .0253632
1033.921 .0253892
1034.505 .0254157
1035.089 .0254421
1035.672 .0254673
1036.256 .0254905
1036.839 .0255118
1037.422 .0255309
1038.005 .0255488
1038.588 .0255662
1039.171 .0255834
1039.753 .0256019
1040.335 .0256208
1040.918 .0256406
1041.500 .0256608
1042.081 .0256802
1042.663 .0256983
1043.244 .0257150
1043.826 .0257307
1044.407 .0257450
1044.988 .0257583
1045.569 .0257720
1046.150 .0257854
1046.730 .0257989
1047.311 .0258119
1047.891 .0258237
1048.471 .0258343
1049.052 .0258433
1049.632 .0258509
1050.211 .0258578
1050.791 .0258633
1051.371 .0258690
1051.950 .0258751
1052.530 .0258816
1053.109 .0258880
1053.688 .0258944
1054.268 .0259016
1054.847 .0259095
1055.426 .0259178
1056.005 .0259273
1056.583 .0259387
1057.162 .0259527
1057.741 .0259688
1058.319 .0259863
1058.898 .0260064
1059.476 .0260269
1060.055 .0260474
1060.633 .0260676
1061.211 .0260861
1061.790 .0261032
1062.368 .0261183
1062.946 .0261324
1063.524 .0261447
1064.102 .0261551
1064.680 .0261647
1065.258 .0261723
1065.836 .0261801
1066.414 .0261859
1066.992 .0261902
1067.570 .0261928
1068.148 .0261933
1068.726 .0261915
1069.304 .0261879
1069.882 .0261838
1070.460 .0261791
1071.038 .0261738
1071.616 .0261688
1072.194 .0261646
1072.772 .0261620
1073.350 .0261609
1073.928 .0261625
1074.506 .0261656
1075.084 .0261710
1075.662 .0261756
1076.240 .0261818
1076.819 .0261880
1077.397 .0261940
1077.976 .0262010
1078.554 .0262077
1079.133 .0262165
1079.711 .0262274
1080.290 .0262410
1080.869 .0262585
1081.448 .0262784
1082.027 .0263000
1082.606 .0263191
1083.185 .0263375
1083.764 .0263537
1084.343 .0263667
1084.923 .0263773
1085.502 .0263878
1086.082 .0263979
1086.662 .0264081
1087.242 .0264192
1087.822 .0264320
1088.402 .0264461
1088.983 .0264597
1089.563 .0264694
1090.144 .0264755
1090.725 .0264785
1091.306 .0264775
1091.887 .0264729
1092.469 .0264681
1093.050 .0264626
1093.632 .0264567
1094.214 .0264529
1094.796 .0264530
1095.379 .0264551
1095.961 .0264609
1096.544 .0264688
1097.127 .0264769
1097.710 .0264852
1098.294 .0264930
1098.877 .0265000
1099.461 .0265088
1100.046 .0265189
1100.630 .0265292
1101.215 .0265431
1101.800 .0265613
1102.385 .0265824
1102.970 .0266057
1103.556 .0266312
1104.142 .0266580
1104.728 .0266836
1105.315 .0267082
1105.902 .0267305
1106.489 .0267534
1107.077 .0267777
1107.664 .0268014
1108.253 .0268268
1108.841 .0268536
1109.430 .0268818
1110.019 .0269109
1110.609 .0269406
1111.198 .0269700
1111.789 .0269995
1112.379 .0270276
1112.970 .0270557
1113.561 .0270830
1114.153 .0271094
1114.745 .0271353
1115.338 .0271615
1115.931 .0271876
1116.524 .0272111
1117.117 .0272345
1117.712 .0272596
1118.306 .0272864
1118.901 .0273178
1119.496 .0273500
1120.092 .0273870
1120.689 .0274287
1121.285 .0274742
1121.882 .0275195
1122.480 .0275691
1123.078 .0276214
1123.677 .0276762
1124.276 .0277327
1124.875 .0277926
1125.476 .0278550
1126.076 .0279212
1126.677 .0279913
1127.279 .0280597
1127.881 .0281268
1128.484 .0281919
1129.087 .0282469
1129.691 .0282967
1130.295 .0283391
1130.900 .0283727
1131.505 .0283993
1132.111 .0284266
1132.718 .0284559
1133.325 .0284898
1133.933 .0285308
1134.541 .0285817
1135.150 .0286438
1135.760 .0287164
1136.370 .0287945
1136.981 .0288787
1137.592 .0289715
1138.204 .0290692
1138.817 .0291785
1139.431 .0293049
1140.045 .0294523
1140.660 .0296123
1141.275 .0297836
1141.891 .0299424
1142.508 .0302946
1143.126 .0305675
1143.744 .0304381
1144.363 .0306108
1144.983 .0302071
