Measurement Sequence started on: 15-12-46-377
Integration time: 28
Scans to Average: 2 
>>>>>Begin Spectral Data<<<<<
432.689 .0000100
433.621 .0000100
434.552 .0000100
435.482 .0000100
436.410 .0000100
437.337 .0000100
438.262 .0263869
439.187 .0559919
440.110 .0927915
441.031 .1342809
441.952 .1745454
442.871 .2062365
443.789 .2235955
444.705 .2246321
445.621 .2117801
446.535 .1903150
447.447 .1660264
448.359 .1289042
449.269 .1104275
450.178 .0987445
451.086 .0904820
451.993 .0841414
452.898 .0790720
453.803 .0748994
454.706 .0714183
455.608 .0684438
456.508 .0658786
457.408 .0636435
458.306 .0616747
459.204 .0599126
460.100 .0583296
460.995 .0569022
461.888 .0556115
462.781 .0544388
463.673 .0533703
464.563 .0524062
465.452 .0515167
466.340 .0506920
467.228 .0499334
468.114 .0492320
468.999 .0485947
469.882 .0480066
470.765 .0474672
471.647 .0469764
472.528 .0465318
473.407 .0461291
474.286 .0457744
475.163 .0454552
476.040 .0451696
476.915 .0449099
477.790 .0446798
478.663 .0444615
479.535 .0442624
480.407 .0440821
481.277 .0439154
482.147 .0437628
483.015 .0436285
483.883 .0435075
484.749 .0434093
485.615 .0433341
486.479 .0432723
487.343 .0432327
488.206 .0432194
489.067 .0432177
489.928 .0432289
490.788 .0432522
491.647 .0432885
492.505 .0433291
493.362 .0433855
494.218 .0434533
495.073 .0435344
495.928 .0436444
496.781 .0437705
497.634 .0439171
498.486 .0440977
499.337 .0443013
500.187 .0445310
501.036 .0447940
501.884 .0450782
502.731 .0453786
503.578 .0457055
504.424 .0460577
505.268 .0464283
506.113 .0468304
506.956 .0472610
507.798 .0477241
508.640 .0482358
509.480 .0488089
510.320 .0494478
511.160 .0501849
511.998 .0510121
512.836 .0519182
513.672 .0529210
514.508 .0540050
515.344 .0551628
516.178 .0564434
517.012 .0578637
517.845 .0594510
518.677 .0612632
519.508 .0633349
520.339 .0656816
521.169 .0683746
521.998 .0714288
522.826 .0748375
523.654 .0785954
524.481 .0826872
525.307 .0871175
526.133 .0919130
526.958 .0970471
527.782 .1025231
528.605 .1082751
529.428 .1142661
530.250 .1200340
531.072 .1254091
531.892 .1300934
532.712 .1337932
533.532 .1362933
534.350 .1374223
535.168 .1370608
535.986 .1353276
536.802 .1323217
537.618 .1283010
538.434 .1234309
539.249 .1181293
540.063 .1124955
540.876 .1067658
541.689 .1011430
542.501 .0957502
543.313 .0906819
544.124 .0860361
544.934 .0817557
545.744 .0778146
546.553 .0741887
547.361 .0709037
548.169 .0679457
548.976 .0652842
549.783 .0628970
550.589 .0607598
551.395 .0588310
552.200 .0570946
553.004 .0555199
553.808 .0540791
554.611 .0527733
555.414 .0515728
556.216 .0504686
557.018 .0494636
557.819 .0485409
558.619 .0476784
559.419 .0468812
560.218 .0461526
561.017 .0454790
561.815 .0448525
562.613 .0442738
563.410 .0437158
564.207 .0431778
565.003 .0426405
565.799 .0420942
566.594 .0415340
567.388 .0409727
568.182 .0403988
568.976 .0398250
569.769 .0392685
570.562 .0387390
571.354 .0382353
572.145 .0377699
572.936 .0373356
573.727 .0369218
574.517 .0365216
575.307 .0361348
576.096 .0357558
576.885 .0353883
577.673 .0350364
578.461 .0347056
579.248 .0344006
580.035 .0341252
580.821 .0338797
581.607 .0336602
582.392 .0334620
583.177 .0332793
583.962 .0331069
584.746 .0329441
585.529 .0327867
586.313 .0326356
587.095 .0324920
587.878 .0323583
588.660 .0322334
589.441 .0321183
590.222 .0320127
591.003 .0319177
591.783 .0318309
592.563 .0317507
593.342 .0316777
594.121 .0316103
594.899 .0315462
595.678 .0314861
596.455 .0314294
597.233 .0313747
598.009 .0313218
598.786 .0312713
599.562 .0312238
600.338 .0311791
601.113 .0311383
601.888 .0311007
602.663 .0310655
603.437 .0310323
604.211 .0309987
604.984 .0309648
605.757 .0309305
606.530 .0308941
607.302 .0308559
608.074 .0308172
608.845 .0307788
609.616 .0307404
610.387 .0307043
611.158 .0306710
611.928 .0306404
612.697 .0306119
613.467 .0305854
614.236 .0305599
615.004 .0305348
615.773 .0305094
616.541 .0304843
617.308 .0304600
618.076 .0304366
618.843 .0304143
619.609 .0303940
620.375 .0303753
621.141 .0303585
621.907 .0303426
622.672 .0303276
623.437 .0303124
624.202 .0302972
624.966 .0302815
625.730 .0302659
626.493 .0302500
627.257 .0302333
628.020 .0302168
628.782 .0302003
629.545 .0301829
630.307 .0301643
631.068 .0301456
631.830 .0301260
632.591 .0301058
633.352 .0300856
634.112 .0300651
634.872 .0300454
635.632 .0300272
636.392 .0300096
637.151 .0299936
637.910 .0299789
638.668 .0299650
639.427 .0299520
640.185 .0299404
640.943 .0299288
641.700 .0299175
642.457 .0299068
643.214 .0298956
643.971 .0298821
644.727 .0298678
645.483 .0298520
646.239 .0298355
646.994 .0298190
647.750 .0298023
648.505 .0297866
649.259 .0297725
650.014 .0297584
650.768 .0297440
651.521 .0297291
652.275 .0297125
653.028 .0296934
653.781 .0296724
654.534 .0296502
655.286 .0296277
656.039 .0296068
656.791 .0295879
657.542 .0295716
658.294 .0295584
659.045 .0295468
659.796 .0295359
660.546 .0295247
661.297 .0295119
662.047 .0294973
662.796 .0294799
663.546 .0294602
664.295 .0294389
665.044 .0294171
665.793 .0293950
666.542 .0293736
667.290 .0293534
668.038 .0293334
668.786 .0293136
669.533 .0292935
670.281 .0292728
671.028 .0292512
671.774 .0292291
672.521 .0292066
673.267 .0291844
674.013 .0291632
674.759 .0291430
675.505 .0291248
676.250 .0291085
676.995 .0290937
677.740 .0290805
678.484 .0290683
679.229 .0290570
679.973 .0290451
680.717 .0290329
681.460 .0290199
682.204 .0290063
682.947 .0289918
683.690 .0289768
684.433 .0289616
685.175 .0289461
685.917 .0289304
686.659 .0289147
687.401 .0288988
688.142 .0288833
688.884 .0288676
689.625 .0288517
690.365 .0288354
691.106 .0288187
691.846 .0288015
692.586 .0287843
693.326 .0287677
694.066 .0287517
694.805 .0287365
695.545 .0287225
696.284 .0287094
697.022 .0286972
697.761 .0286864
698.499 .0286765
699.237 .0286674
699.975 .0286586
700.713 .0286504
701.450 .0286430
702.187 .0286364
702.924 .0286301
703.661 .0286239
704.397 .0286175
705.133 .0286110
705.869 .0286035
706.605 .0285953
707.341 .0285867
708.076 .0285779
708.811 .0285687
709.546 .0285589
710.281 .0285482
711.015 .0285373
711.749 .0285253
712.483 .0285127
713.217 .0284990
713.950 .0284846
714.684 .0284693
715.417 .0284533
716.150 .0284371
716.882 .0284203
717.615 .0284032
718.347 .0283862
719.079 .0283688
719.811 .0283514
720.542 .0283337
721.273 .0283165
722.005 .0282995
722.735 .0282828
723.466 .0282657
724.196 .0282480
724.927 .0282292
725.656 .0282090
726.386 .0281869
727.116 .0281633
727.845 .0281386
728.574 .0281136
729.303 .0280894
730.031 .0280665
730.760 .0280449
731.488 .0280251
732.216 .0280064
732.944 .0279881
733.671 .0279698
734.398 .0279506
735.125 .0279308
735.852 .0279102
736.579 .0278892
737.305 .0278685
738.031 .0278489
738.757 .0278306
739.483 .0278133
740.208 .0277973
740.933 .0277818
741.658 .0277661
742.383 .0277499
743.108 .0277326
743.832 .0277141
744.556 .0276947
745.280 .0276743
746.004 .0276530
746.727 .0276320
747.450 .0276114
748.173 .0275911
748.896 .0275716
749.618 .0275528
750.340 .0275347
751.062 .0275171
751.784 .0275002
752.506 .0274838
753.227 .0274685
753.948 .0274542
754.669 .0274409
755.389 .0274289
756.110 .0274181
756.830 .0274082
757.550 .0273992
758.269 .0273908
758.989 .0273826
759.708 .0273740
760.427 .0273652
761.146 .0273561
761.864 .0273469
762.582 .0273368
763.300 .0273261
764.018 .0273147
764.736 .0273027
765.453 .0272897
766.170 .0272760
766.887 .0272623
767.603 .0272494
768.320 .0272374
769.036 .0272267
769.751 .0272176
770.467 .0272104
771.182 .0272050
771.897 .0272008
772.612 .0271973
773.327 .0271945
774.041 .0271921
774.755 .0271897
775.469 .0271876
776.183 .0271855
776.896 .0271833
777.609 .0271806
778.322 .0271773
779.035 .0271723
779.747 .0271656
780.459 .0271569
781.171 .0271465
781.882 .0271347
782.594 .0271218
783.305 .0271086
784.016 .0270961
784.726 .0270848
785.436 .0270746
786.147 .0270651
786.856 .0270566
787.566 .0270484
788.275 .0270404
788.984 .0270324
789.693 .0270244
790.401 .0270167
791.110 .0270093
791.818 .0270025
792.525 .0269964
793.233 .0269910
793.940 .0269860
794.647 .0269809
795.353 .0269751
796.060 .0269685
796.766 .0269600
797.472 .0269497
798.177 .0269372
798.883 .0269231
799.588 .0269074
800.292 .0268908
800.997 .0268736
801.701 .0268564
802.405 .0268393
803.109 .0268228
803.812 .0268064
804.515 .0267901
805.218 .0267735
805.921 .0267565
806.623 .0267387
807.325 .0267200
808.027 .0267004
808.728 .0266804
809.429 .0266596
810.130 .0266385
810.831 .0266172
811.531 .0265959
812.231 .0265748
812.931 .0265540
813.630 .0265331
814.330 .0265124
815.029 .0264917
815.727 .0264710
816.426 .0264500
817.124 .0264285
817.821 .0264060
818.519 .0263827
819.216 .0263590
819.913 .0263346
820.609 .0263101
821.306 .0262858
822.002 .0262622
822.697 .0262394
823.393 .0262179
824.088 .0261972
824.783 .0261775
825.477 .0261585
826.171 .0261396
826.865 .0261208
827.559 .0261021
828.252 .0260837
828.945 .0260657
829.638 .0260483
830.330 .0260312
831.023 .0260141
831.714 .0259972
832.406 .0259801
833.097 .0259627
833.788 .0259442
834.479 .0259251
835.169 .0259053
835.859 .0258853
836.548 .0258648
837.238 .0258444
837.927 .0258240
838.615 .0258035
839.304 .0257831
839.992 .0257626
840.680 .0257421
841.367 .0257220
842.054 .0257030
842.741 .0256857
843.428 .0256705
844.114 .0256582
844.800 .0256485
845.485 .0256415
846.170 .0256362
846.855 .0256319
847.540 .0256283
848.224 .0256250
848.908 .0256220
849.592 .0256189
850.275 .0256162
850.958 .0256142
851.641 .0256127
852.323 .0256119
853.005 .0256113
853.687 .0256106
854.368 .0256092
855.049 .0256072
855.730 .0256036
856.410 .0255990
857.090 .0255936
857.769 .0255878
858.449 .0255818
859.128 .0255765
859.806 .0255715
860.485 .0255675
861.163 .0255643
861.840 .0255618
862.518 .0255600
863.195 .0255585
863.871 .0255570
864.548 .0255556
865.224 .0255543
865.899 .0255534
866.574 .0255531
867.249 .0255538
867.924 .0255557
868.598 .0255583
869.272 .0255618
869.946 .0255661
870.619 .0255707
871.292 .0255751
871.964 .0255786
872.636 .0255812
873.308 .0255823
873.979 .0255819
874.651 .0255809
875.321 .0255789
875.992 .0255772
876.662 .0255755
877.331 .0255742
878.001 .0255733
878.670 .0255727
879.338 .0255718
880.007 .0255703
880.675 .0255683
881.342 .0255652
882.009 .0255613
882.676 .0255574
883.343 .0255533
884.009 .0255496
884.675 .0255464
885.340 .0255439
886.005 .0255415
886.670 .0255399
887.334 .0255381
887.998 .0255357
888.662 .0255328
889.325 .0255290
889.988 .0255243
890.650 .0255189
891.312 .0255132
891.974 .0255070
892.636 .0255006
893.297 .0254941
893.957 .0254867
894.618 .0254791
895.278 .0254713
895.937 .0254630
896.596 .0254538
897.255 .0254442
897.914 .0254338
898.572 .0254230
899.230 .0254122
899.887 .0254011
900.544 .0253894
901.201 .0253774
901.857 .0253649
902.513 .0253517
903.168 .0253378
903.823 .0253231
904.478 .0253072
905.132 .0252901
905.786 .0252717
906.440 .0252518
907.093 .0252312
907.746 .0252100
908.399 .0251879
909.051 .0251648
909.703 .0251407
910.354 .0251158
911.005 .0250903
911.656 .0250642
912.306 .0250376
912.956 .0250110
913.605 .0249849
914.254 .0249592
914.903 .0249341
915.551 .0249102
916.199 .0248874
916.847 .0248653
917.494 .0248434
918.141 .0248216
918.788 .0247998
919.434 .0247785
920.079 .0247573
920.725 .0247364
921.370 .0247163
922.014 .0246966
922.658 .0246770
923.302 .0246573
923.946 .0246371
924.589 .0246160
925.231 .0245941
925.873 .0245716
926.515 .0245483
927.157 .0245246
927.798 .0245010
928.439 .0244775
929.079 .0244541
929.719 .0244307
930.359 .0244067
930.998 .0243824
931.637 .0243574
932.275 .0243311
932.913 .0243040
933.551 .0242761
934.188 .0242479
934.825 .0242195
935.462 .0241914
936.098 .0241641
936.733 .0241376
937.369 .0241122
938.004 .0240874
938.638 .0240629
939.273 .0240388
939.907 .0240145
940.540 .0239900
941.173 .0239659
941.806 .0239426
942.438 .0239204
943.070 .0238996
943.702 .0238801
944.333 .0238619
944.964 .0238442
945.594 .0238267
946.224 .0238089
946.854 .0237905
947.483 .0237719
948.112 .0237529
948.741 .0237341
949.369 .0237158
949.996 .0236984
950.624 .0236820
951.251 .0236664
951.878 .0236516
952.504 .0236365
953.130 .0236213
953.755 .0236062
954.380 .0235912
955.005 .0235767
955.629 .0235639
956.253 .0235527
956.877 .0235436
957.500 .0235360
958.123 .0235293
958.746 .0235229
959.368 .0235165
959.990 .0235095
960.611 .0235021
961.232 .0234948
961.853 .0234881
962.473 .0234823
963.093 .0234778
963.712 .0234738
964.331 .0234703
964.950 .0234670
965.569 .0234635
966.187 .0234596
966.804 .0234556
967.422 .0234517
968.039 .0234486
968.655 .0234467
969.272 .0234459
969.887 .0234467
970.503 .0234486
971.118 .0234511
971.733 .0234535
972.347 .0234558
972.961 .0234574
973.575 .0234585
974.188 .0234591
974.801 .0234594
975.414 .0234593
976.026 .0234593
976.638 .0234594
977.250 .0234598
977.861 .0234608
978.472 .0234623
979.083 .0234644
979.693 .0234670
980.303 .0234699
980.912 .0234736
981.521 .0234777
982.130 .0234827
982.738 .0234887
983.346 .0234953
983.954 .0235028
984.562 .0235114
985.169 .0235206
985.775 .0235305
986.382 .0235411
986.988 .0235519
987.594 .0235624
988.199 .0235727
988.804 .0235827
989.409 .0235923
990.013 .0236021
990.617 .0236118
991.221 .0236209
991.824 .0236304
992.427 .0236403
993.030 .0236504
993.632 .0236615
994.234 .0236741
994.836 .0236879
995.438 .0237027
996.039 .0237181
996.640 .0237335
997.240 .0237489
997.840 .0237642
998.440 .0237788
999.040 .0237924
999.639 .0238054
1000.238 .0238174
1000.836 .0238286
1001.435 .0238397
1002.033 .0238501
1002.630 .0238600
1003.228 .0238696
1003.825 .0238789
1004.422 .0238876
1005.018 .0238960
1005.614 .0239042
1006.210 .0239121
1006.806 .0239199
1007.401 .0239270
1007.996 .0239331
1008.591 .0239391
1009.186 .0239448
1009.780 .0239502
1010.374 .0239554
1010.967 .0239608
1011.561 .0239666
1012.154 .0239731
1012.746 .0239802
1013.339 .0239876
1013.931 .0239951
1014.523 .0240028
1015.115 .0240094
1015.706 .0240152
1016.298 .0240208
1016.888 .0240259
1017.479 .0240312
1018.069 .0240367
1018.660 .0240416
1019.250 .0240460
1019.839 .0240502
1020.429 .0240536
1021.018 .0240559
1021.607 .0240570
1022.195 .0240572
1022.784 .0240566
1023.372 .0240558
1023.960 .0240551
1024.547 .0240540
1025.135 .0240543
1025.722 .0240549
1026.309 .0240555
1026.896 .0240565
1027.483 .0240574
1028.069 .0240580
1028.655 .0240581
1029.241 .0240575
1029.827 .0240566
1030.412 .0240552
1030.997 .0240540
1031.582 .0240526
1032.167 .0240516
1032.752 .0240511
1033.336 .0240497
1033.921 .0240480
1034.505 .0240456
1035.089 .0240412
1035.672 .0240355
1036.256 .0240283
1036.839 .0240198
1037.422 .0240105
1038.005 .0240011
1038.588 .0239918
1039.171 .0239832
1039.753 .0239758
1040.335 .0239696
1040.918 .0239634
1041.500 .0239576
1042.081 .0239502
1042.663 .0239409
1043.244 .0239301
1043.826 .0239174
1044.407 .0239032
1044.988 .0238894
1045.569 .0238758
1046.150 .0238629
1046.730 .0238506
1047.311 .0238401
1047.891 .0238304
1048.471 .0238222
1049.052 .0238147
1049.632 .0238069
1050.211 .0237995
1050.791 .0237925
1051.371 .0237856
1051.950 .0237788
1052.530 .0237725
1053.109 .0237660
1053.688 .0237584
1054.268 .0237507
1054.847 .0237425
1055.426 .0237348
1056.005 .0237273
1056.583 .0237197
1057.162 .0237107
1057.741 .0237002
1058.319 .0236891
1058.898 .0236769
1059.476 .0236642
1060.055 .0236522
1060.633 .0236412
1061.211 .0236309
1061.790 .0236224
1062.368 .0236156
1062.946 .0236100
1063.524 .0236053
1064.102 .0235995
1064.680 .0235915
1065.258 .0235816
1065.836 .0235708
1066.414 .0235588
1066.992 .0235477
1067.570 .0235378
1068.148 .0235270
1068.726 .0235158
1069.304 .0235035
1069.882 .0234886
1070.460 .0234708
1071.038 .0234512
1071.616 .0234293
1072.194 .0234069
1072.772 .0233857
1073.350 .0233665
1073.928 .0233512
1074.506 .0233392
1075.084 .0233286
1075.662 .0233171
1076.240 .0233060
1076.819 .0232935
1077.397 .0232797
1077.976 .0232665
1078.554 .0232548
1079.133 .0232451
1079.711 .0232375
1080.290 .0232327
1080.869 .0232293
1081.448 .0232272
1082.027 .0232246
1082.606 .0232194
1083.185 .0232143
1083.764 .0232086
1084.343 .0232042
1084.923 .0232009
1085.502 .0232011
1086.082 .0232045
1086.662 .0232102
1087.242 .0232194
1087.822 .0232293
1088.402 .0232390
1088.983 .0232480
1089.563 .0232539
1090.144 .0232556
1090.725 .0232550
1091.306 .0232519
1091.887 .0232487
1092.469 .0232477
1093.050 .0232502
1093.632 .0232546
1094.214 .0232612
1094.796 .0232706
1095.379 .0232795
1095.961 .0232865
1096.544 .0232927
1097.127 .0232946
1097.710 .0232968
1098.294 .0232998
1098.877 .0233054
1099.461 .0233161
1100.046 .0233357
1100.630 .0233608
1101.215 .0233908
1101.800 .0234242
1102.385 .0234582
1102.970 .0234892
1103.556 .0235183
1104.142 .0235426
1104.728 .0235627
1105.315 .0235819
1105.902 .0235986
1106.489 .0236132
1107.077 .0236300
1107.664 .0236471
1108.253 .0236647
1108.841 .0236830
1109.430 .0237023
1110.019 .0237197
1110.609 .0237363
1111.198 .0237523
1111.789 .0237669
1112.379 .0237838
1112.970 .0238008
1113.561 .0238181
1114.153 .0238411
1114.745 .0238699
1115.338 .0239037
1115.931 .0239451
1116.524 .0239937
1117.117 .0240461
1117.712 .0240990
1118.306 .0241521
1118.901 .0242051
1119.496 .0242559
1120.092 .0243049
1120.689 .0243517
1121.285 .0243988
1121.882 .0244476
1122.480 .0244961
1123.078 .0245463
1123.677 .0246010
1124.276 .0246559
1124.875 .0247122
1125.476 .0247681
1126.076 .0248264
1126.677 .0248839
1127.279 .0249442
1127.881 .0250083
1128.484 .0250781
1129.087 .0251524
1129.691 .0252336
1130.295 .0253213
1130.900 .0254167
1131.505 .0255166
1132.111 .0256221
1132.718 .0257309
1133.325 .0258436
1133.933 .0259606
1134.541 .0260825
1135.150 .0262062
1135.760 .0263342
1136.370 .0264624
1136.981 .0265907
1137.592 .0267146
1138.204 .0268332
1138.817 .0269483
1139.431 .0270631
1140.045 .0271739
1140.660 .0272833
1141.275 .0273826
1141.891 .0274732
1142.508 .0276859
1143.126 .0277204
1143.744 .0278666
1144.363 .0276490
1144.983 .0276270
