Measurement Sequence started on: 15-12-46-377
Integration time: 28
Scans to Average: 2 
>>>>>Begin Spectral Data<<<<<
432.689 .0000100
433.621 .0000100
434.552 .0000100
435.482 .0000100
436.410 .0000100
437.337 .0000100
438.262 .0267098
439.187 .0566778
440.110 .0940429
441.031 .1363083
441.952 .1775400
442.871 .2102390
443.789 .2285438
444.705 .2303975
445.621 .2181461
446.535 .1970550
447.447 .1729180
448.359 .1356142
449.269 .1170434
450.178 .1052246
451.086 .0968384
451.993 .0904110
452.898 .0853705
453.803 .0812667
454.706 .0778632
455.608 .0749576
456.508 .0724188
457.408 .0701761
458.306 .0681678
459.204 .0663528
460.100 .0647025
460.995 .0632131
461.888 .0618630
462.781 .0606246
463.673 .0594946
464.563 .0584547
465.452 .0574903
466.340 .0565923
467.228 .0557573
468.114 .0549689
468.999 .0542350
469.882 .0535417
470.765 .0528942
471.647 .0522914
472.528 .0517270
473.407 .0512114
474.286 .0507514
475.163 .0503517
476.040 .0500135
476.915 .0497306
477.790 .0494959
478.663 .0492883
479.535 .0491019
480.407 .0489293
481.277 .0487615
482.147 .0485981
483.015 .0484458
483.883 .0483063
484.749 .0481932
485.615 .0481069
486.479 .0480487
487.343 .0480217
488.206 .0480131
489.067 .0480071
489.928 .0479968
490.788 .0479828
491.647 .0479654
492.505 .0479458
493.362 .0479425
494.218 .0479593
495.073 .0480014
495.928 .0480840
496.781 .0481971
497.634 .0483432
498.486 .0485230
499.337 .0487258
500.187 .0489497
501.036 .0491990
501.884 .0494741
502.731 .0497830
503.578 .0501319
504.424 .0505258
505.268 .0509528
506.113 .0514315
506.956 .0519660
507.798 .0525596
508.640 .0532318
509.480 .0539900
510.320 .0548423
511.160 .0558124
511.998 .0568958
512.836 .0580991
513.672 .0594403
514.508 .0609182
515.344 .0625328
516.178 .0643035
517.012 .0662598
517.845 .0684419
518.677 .0708891
519.508 .0736404
520.339 .0767183
521.169 .0801598
521.998 .0839854
522.826 .0882259
523.654 .0929093
524.481 .0980076
525.307 .1036159
526.133 .1097150
526.958 .1163160
527.782 .1233223
528.605 .1306042
529.428 .1380664
530.250 .1452089
531.072 .1517796
531.892 .1573754
532.712 .1617261
533.532 .1646247
534.350 .1657964
535.168 .1652296
535.986 .1629297
536.802 .1590727
537.618 .1538845
538.434 .1475841
539.249 .1406376
540.063 .1332413
540.876 .1257494
541.689 .1184011
542.501 .1114355
543.313 .1049832
544.124 .0990851
544.934 .0937425
545.744 .0889028
546.553 .0844871
547.361 .0804882
548.169 .0769137
548.976 .0737119
549.783 .0708587
550.589 .0683247
551.395 .0660471
552.200 .0640332
553.004 .0622271
553.808 .0605807
554.611 .0590658
555.414 .0576762
556.216 .0563830
557.018 .0551901
557.819 .0541012
558.619 .0531028
559.419 .0521872
560.218 .0513546
561.017 .0505698
561.815 .0498188
562.613 .0490906
563.410 .0483727
564.207 .0476583
565.003 .0469581
565.799 .0462777
566.594 .0456159
567.388 .0449935
568.182 .0444099
568.976 .0438589
569.769 .0433425
570.562 .0428509
571.354 .0423723
572.145 .0418991
572.936 .0414326
573.727 .0409676
574.517 .0405054
575.307 .0400480
576.096 .0396001
576.885 .0391659
577.673 .0387458
578.461 .0383435
579.248 .0379543
580.035 .0375850
580.821 .0372351
581.607 .0369022
582.392 .0365877
583.177 .0362953
583.962 .0360290
584.746 .0357880
585.529 .0355745
586.313 .0353872
587.095 .0352218
587.878 .0350776
588.660 .0349527
589.441 .0348429
590.222 .0347437
591.003 .0346567
591.783 .0345788
592.563 .0345084
593.342 .0344449
594.121 .0343856
594.899 .0343320
595.678 .0342810
596.455 .0342311
597.233 .0341799
598.009 .0341285
598.786 .0340763
599.562 .0340226
600.338 .0339684
601.113 .0339148
601.888 .0338618
602.663 .0338111
603.437 .0337623
604.211 .0337147
604.984 .0336688
605.757 .0336235
606.530 .0335787
607.302 .0335349
608.074 .0334910
608.845 .0334487
609.616 .0334083
610.387 .0333693
611.158 .0333321
611.928 .0332961
612.697 .0332616
613.467 .0332269
614.236 .0331925
615.004 .0331571
615.773 .0331202
616.541 .0330827
617.308 .0330443
618.076 .0330055
618.843 .0329675
619.609 .0329305
620.375 .0328943
621.141 .0328596
621.907 .0328255
622.672 .0327912
623.437 .0327578
624.202 .0327238
624.966 .0326897
625.730 .0326551
626.493 .0326210
627.257 .0325862
628.020 .0325510
628.782 .0325154
629.545 .0324779
630.307 .0324393
631.068 .0323991
631.830 .0323572
632.591 .0323140
633.352 .0322706
634.112 .0322272
634.872 .0321843
635.632 .0321428
636.392 .0321019
637.151 .0320622
637.910 .0320239
638.668 .0319858
639.427 .0319489
640.185 .0319132
640.943 .0318804
641.700 .0318501
642.457 .0318232
643.214 .0317996
643.971 .0317790
644.727 .0317611
645.483 .0317446
646.239 .0317282
646.994 .0317113
647.750 .0316931
648.505 .0316744
649.259 .0316551
650.014 .0316365
650.768 .0316190
651.521 .0316032
652.275 .0315890
653.028 .0315766
653.781 .0315644
654.534 .0315520
655.286 .0315394
656.039 .0315253
656.791 .0315100
657.542 .0314937
658.294 .0314774
659.045 .0314620
659.796 .0314472
660.546 .0314334
661.297 .0314195
662.047 .0314062
662.796 .0313919
663.546 .0313763
664.295 .0313593
665.044 .0313411
665.793 .0313215
666.542 .0313016
667.290 .0312811
668.038 .0312609
668.786 .0312405
669.533 .0312200
670.281 .0311988
671.028 .0311770
671.774 .0311538
672.521 .0311309
673.267 .0311070
674.013 .0310836
674.759 .0310598
675.505 .0310368
676.250 .0310135
676.995 .0309907
677.740 .0309675
678.484 .0309439
679.229 .0309197
679.973 .0308953
680.717 .0308698
681.460 .0308446
682.204 .0308190
682.947 .0307934
683.690 .0307673
684.433 .0307413
685.175 .0307146
685.917 .0306879
686.659 .0306609
687.401 .0306337
688.142 .0306061
688.884 .0305787
689.625 .0305509
690.365 .0305228
691.106 .0304945
691.846 .0304656
692.586 .0304358
693.326 .0304054
694.066 .0303741
694.805 .0303424
695.545 .0303103
696.284 .0302777
697.022 .0302456
697.761 .0302136
698.499 .0301818
699.237 .0301499
699.975 .0301184
700.713 .0300866
701.450 .0300547
702.187 .0300229
702.924 .0299911
703.661 .0299599
704.397 .0299300
705.133 .0299015
705.869 .0298749
706.605 .0298501
707.341 .0298267
708.076 .0298045
708.811 .0297838
709.546 .0297628
710.281 .0297419
711.015 .0297212
711.749 .0297010
712.483 .0296810
713.217 .0296615
713.950 .0296431
714.684 .0296250
715.417 .0296074
716.150 .0295902
716.882 .0295723
717.615 .0295545
718.347 .0295363
719.079 .0295183
719.811 .0295005
720.542 .0294837
721.273 .0294672
722.005 .0294510
722.735 .0294354
723.466 .0294194
724.196 .0294028
724.927 .0293858
725.656 .0293683
726.386 .0293506
727.116 .0293332
727.845 .0293164
728.574 .0293006
729.303 .0292864
730.031 .0292734
730.760 .0292615
731.488 .0292506
732.216 .0292408
732.944 .0292319
733.671 .0292239
734.398 .0292172
735.125 .0292116
735.852 .0292073
736.579 .0292042
737.305 .0292023
738.031 .0292014
738.757 .0292009
739.483 .0292011
740.208 .0292016
740.933 .0292018
741.658 .0292019
742.383 .0292019
743.108 .0292017
743.832 .0292015
744.556 .0292011
745.280 .0292006
746.004 .0291998
746.727 .0291988
747.450 .0291972
748.173 .0291950
748.896 .0291923
749.618 .0291888
750.340 .0291842
751.062 .0291797
751.784 .0291744
752.506 .0291689
753.227 .0291633
753.948 .0291575
754.669 .0291516
755.389 .0291451
756.110 .0291376
756.830 .0291294
757.550 .0291201
758.269 .0291097
758.989 .0290980
759.708 .0290850
760.427 .0290710
761.146 .0290564
761.864 .0290407
762.582 .0290247
763.300 .0290080
764.018 .0289906
764.736 .0289722
765.453 .0289530
766.170 .0289333
766.887 .0289126
767.603 .0288919
768.320 .0288708
769.036 .0288495
769.751 .0288287
770.467 .0288082
771.182 .0287885
771.897 .0287699
772.612 .0287521
773.327 .0287347
774.041 .0287186
774.755 .0287037
775.469 .0286894
776.183 .0286761
776.896 .0286635
777.609 .0286513
778.322 .0286395
779.035 .0286278
779.747 .0286159
780.459 .0286044
781.171 .0285929
781.882 .0285815
782.594 .0285703
783.305 .0285598
784.016 .0285498
784.726 .0285404
785.436 .0285316
786.147 .0285231
786.856 .0285143
787.566 .0285050
788.275 .0284947
788.984 .0284831
789.693 .0284702
790.401 .0284560
791.110 .0284403
791.818 .0284238
792.525 .0284062
793.233 .0283877
793.940 .0283683
794.647 .0283481
795.353 .0283268
796.060 .0283043
796.766 .0282804
797.472 .0282553
798.177 .0282286
798.883 .0282008
799.588 .0281723
800.292 .0281436
800.997 .0281156
801.701 .0280883
802.405 .0280620
803.109 .0280371
803.812 .0280133
804.515 .0279906
805.218 .0279680
805.921 .0279455
806.623 .0279225
807.325 .0278989
808.027 .0278751
808.728 .0278511
809.429 .0278274
810.130 .0278045
810.831 .0277822
811.531 .0277608
812.231 .0277397
812.931 .0277186
813.630 .0276972
814.330 .0276752
815.029 .0276526
815.727 .0276295
816.426 .0276065
817.124 .0275845
817.821 .0275639
818.519 .0275451
819.216 .0275287
819.913 .0275147
820.609 .0275030
821.306 .0274929
822.002 .0274843
822.697 .0274771
823.393 .0274711
824.088 .0274663
824.783 .0274627
825.477 .0274603
826.171 .0274590
826.865 .0274586
827.559 .0274592
828.252 .0274605
828.945 .0274626
829.638 .0274655
830.330 .0274691
831.023 .0274731
831.714 .0274774
832.406 .0274815
833.097 .0274856
833.788 .0274891
834.479 .0274920
835.169 .0274942
835.859 .0274966
836.548 .0274988
837.238 .0275016
837.927 .0275048
838.615 .0275087
839.304 .0275130
839.992 .0275176
840.680 .0275217
841.367 .0275253
842.054 .0275286
842.741 .0275318
843.428 .0275351
844.114 .0275395
844.800 .0275448
845.485 .0275514
846.170 .0275589
846.855 .0275671
847.540 .0275751
848.224 .0275829
848.908 .0275898
849.592 .0275953
850.275 .0275995
850.958 .0276024
851.641 .0276041
852.323 .0276049
853.005 .0276050
853.687 .0276039
854.368 .0276013
855.049 .0275973
855.730 .0275914
856.410 .0275836
857.090 .0275738
857.769 .0275629
858.449 .0275512
859.128 .0275389
859.806 .0275264
860.485 .0275146
861.163 .0275039
861.840 .0274941
862.518 .0274853
863.195 .0274776
863.871 .0274706
864.548 .0274643
865.224 .0274584
865.899 .0274531
866.574 .0274483
867.249 .0274442
867.924 .0274403
868.598 .0274370
869.272 .0274340
869.946 .0274308
870.619 .0274277
871.292 .0274246
871.964 .0274206
872.636 .0274154
873.308 .0274091
873.979 .0274020
874.651 .0273934
875.321 .0273839
875.992 .0273735
876.662 .0273626
877.331 .0273516
878.001 .0273401
878.670 .0273289
879.338 .0273182
880.007 .0273077
880.675 .0272973
881.342 .0272871
882.009 .0272774
882.676 .0272682
883.343 .0272599
884.009 .0272530
884.675 .0272469
885.340 .0272418
886.005 .0272374
886.670 .0272334
887.334 .0272297
887.998 .0272262
888.662 .0272224
889.325 .0272189
889.988 .0272150
890.650 .0272113
891.312 .0272076
891.974 .0272040
892.636 .0272003
893.297 .0271958
893.957 .0271907
894.618 .0271845
895.278 .0271770
895.937 .0271692
896.596 .0271604
897.255 .0271513
897.914 .0271415
898.572 .0271311
899.230 .0271200
899.887 .0271078
900.544 .0270944
901.201 .0270796
901.857 .0270629
902.513 .0270446
903.168 .0270242
903.823 .0270022
904.478 .0269790
905.132 .0269543
905.786 .0269285
906.440 .0269015
907.093 .0268734
907.746 .0268437
908.399 .0268127
909.051 .0267803
909.703 .0267461
910.354 .0267106
911.005 .0266742
911.656 .0266368
912.306 .0265993
912.956 .0265620
913.605 .0265250
914.254 .0264889
914.903 .0264535
915.551 .0264185
916.199 .0263846
916.847 .0263511
917.494 .0263181
918.141 .0262854
918.788 .0262533
919.434 .0262217
920.079 .0261913
920.725 .0261619
921.370 .0261332
922.014 .0261051
922.658 .0260774
923.302 .0260493
923.946 .0260209
924.589 .0259915
925.231 .0259612
925.873 .0259301
926.515 .0258983
927.157 .0258656
927.798 .0258326
928.439 .0257996
929.079 .0257666
929.719 .0257332
930.359 .0256996
930.998 .0256654
931.637 .0256314
932.275 .0255972
932.913 .0255636
933.551 .0255305
934.188 .0254986
934.825 .0254681
935.462 .0254394
936.098 .0254128
936.733 .0253883
937.369 .0253658
938.004 .0253450
938.638 .0253258
939.273 .0253077
939.907 .0252908
940.540 .0252759
941.173 .0252625
941.806 .0252511
942.438 .0252413
943.070 .0252335
943.702 .0252271
944.333 .0252215
944.964 .0252163
945.594 .0252112
946.224 .0252059
946.854 .0252001
947.483 .0251944
948.112 .0251888
948.741 .0251832
949.369 .0251776
949.996 .0251718
950.624 .0251661
951.251 .0251595
951.878 .0251531
952.504 .0251464
953.130 .0251399
953.755 .0251337
954.380 .0251279
955.005 .0251230
955.629 .0251187
956.253 .0251150
956.877 .0251115
957.500 .0251082
958.123 .0251051
958.746 .0251014
959.368 .0250982
959.990 .0250953
960.611 .0250929
961.232 .0250909
961.853 .0250900
962.473 .0250895
963.093 .0250892
963.712 .0250887
964.331 .0250878
964.950 .0250865
965.569 .0250848
966.187 .0250828
966.804 .0250811
967.422 .0250799
968.039 .0250797
968.655 .0250799
969.272 .0250810
969.887 .0250826
970.503 .0250851
971.118 .0250884
971.733 .0250923
972.347 .0250971
972.961 .0251025
973.575 .0251087
974.188 .0251149
974.801 .0251212
975.414 .0251276
976.026 .0251337
976.638 .0251397
977.250 .0251455
977.861 .0251515
978.472 .0251582
979.083 .0251659
979.693 .0251739
980.303 .0251823
980.912 .0251908
981.521 .0251990
982.130 .0252070
982.738 .0252148
983.346 .0252225
983.954 .0252305
984.562 .0252392
985.169 .0252479
985.775 .0252563
986.382 .0252648
986.988 .0252727
987.594 .0252796
988.199 .0252854
988.804 .0252900
989.409 .0252936
990.013 .0252976
990.617 .0253019
991.221 .0253070
991.824 .0253137
992.427 .0253216
993.030 .0253304
993.632 .0253399
994.234 .0253499
994.836 .0253601
995.438 .0253706
996.039 .0253813
996.640 .0253918
997.240 .0254029
997.840 .0254150
998.440 .0254280
999.040 .0254421
999.639 .0254566
1000.238 .0254714
1000.836 .0254859
1001.435 .0254995
1002.033 .0255118
1002.630 .0255227
1003.228 .0255325
1003.825 .0255413
1004.422 .0255494
1005.018 .0255576
1005.614 .0255659
1006.210 .0255750
1006.806 .0255848
1007.401 .0255947
1007.996 .0256042
1008.591 .0256130
1009.186 .0256213
1009.780 .0256296
1010.374 .0256374
1010.967 .0256457
1011.561 .0256544
1012.154 .0256634
1012.746 .0256724
1013.339 .0256809
1013.931 .0256893
1014.523 .0256976
1015.115 .0257053
1015.706 .0257128
1016.298 .0257207
1016.888 .0257294
1017.479 .0257390
1018.069 .0257506
1018.660 .0257637
1019.250 .0257777
1019.839 .0257916
1020.429 .0258053
1021.018 .0258182
1021.607 .0258305
1022.195 .0258412
1022.784 .0258512
1023.372 .0258610
1023.960 .0258702
1024.547 .0258785
1025.135 .0258869
1025.722 .0258954
1026.309 .0259045
1026.896 .0259138
1027.483 .0259238
1028.069 .0259338
1028.655 .0259447
1029.241 .0259553
1029.827 .0259663
1030.412 .0259776
1030.997 .0259886
1031.582 .0259991
1032.167 .0260101
1032.752 .0260208
1033.336 .0260314
1033.921 .0260424
1034.505 .0260541
1035.089 .0260649
1035.672 .0260746
1036.256 .0260818
1036.839 .0260871
1037.422 .0260902
1038.005 .0260909
1038.588 .0260891
1039.171 .0260866
1039.753 .0260835
1040.335 .0260795
1040.918 .0260743
1041.500 .0260688
1042.081 .0260616
1042.663 .0260537
1043.244 .0260437
1043.826 .0260322
1044.407 .0260193
1044.988 .0260069
1045.569 .0259945
1046.150 .0259828
1046.730 .0259718
1047.311 .0259609
1047.891 .0259501
1048.471 .0259396
1049.052 .0259272
1049.632 .0259136
1050.211 .0259006
1050.791 .0258881
1051.371 .0258754
1051.950 .0258647
1052.530 .0258540
1053.109 .0258445
1053.688 .0258351
1054.268 .0258250
1054.847 .0258138
1055.426 .0258026
1056.005 .0257915
1056.583 .0257794
1057.162 .0257674
1057.741 .0257568
1058.319 .0257456
1058.898 .0257358
1059.476 .0257250
1060.055 .0257131
1060.633 .0256997
1061.211 .0256850
1061.790 .0256697
1062.368 .0256558
1062.946 .0256433
1063.524 .0256337
1064.102 .0256256
1064.680 .0256193
1065.258 .0256121
1065.836 .0256030
1066.414 .0255918
1066.992 .0255771
1067.570 .0255584
1068.148 .0255363
1068.726 .0255111
1069.304 .0254860
1069.882 .0254608
1070.460 .0254378
1071.038 .0254170
1071.616 .0253981
1072.194 .0253805
1072.772 .0253634
1073.350 .0253465
1073.928 .0253296
1074.506 .0253117
1075.084 .0252936
1075.662 .0252746
1076.240 .0252556
1076.819 .0252378
1077.397 .0252216
1077.976 .0252079
1078.554 .0251972
1079.133 .0251883
1079.711 .0251801
1080.290 .0251716
1080.869 .0251631
1081.448 .0251546
1082.027 .0251462
1082.606 .0251376
1083.185 .0251293
1083.764 .0251229
1084.343 .0251192
1084.923 .0251168
1085.502 .0251175
1086.082 .0251203
1086.662 .0251230
1087.242 .0251249
1087.822 .0251267
1088.402 .0251278
1088.983 .0251297
1089.563 .0251314
1090.144 .0251324
1090.725 .0251314
1091.306 .0251282
1091.887 .0251220
1092.469 .0251132
1093.050 .0251028
1093.632 .0250906
1094.214 .0250780
1094.796 .0250683
1095.379 .0250610
1095.961 .0250579
1096.544 .0250597
1097.127 .0250649
1097.710 .0250710
1098.294 .0250760
1098.877 .0250798
1099.461 .0250817
1100.046 .0250839
1100.630 .0250853
1101.215 .0250884
1101.800 .0250934
1102.385 .0251003
1102.970 .0251092
1103.556 .0251197
1104.142 .0251313
1104.728 .0251425
1105.315 .0251517
1105.902 .0251572
1106.489 .0251575
1107.077 .0251553
1107.664 .0251504
1108.253 .0251458
1108.841 .0251409
1109.430 .0251374
1110.019 .0251355
1110.609 .0251389
1111.198 .0251436
1111.789 .0251524
1112.379 .0251652
1112.970 .0251795
1113.561 .0251953
1114.153 .0252127
1114.745 .0252327
1115.338 .0252569
1115.931 .0252863
1116.524 .0253236
1117.117 .0253656
1117.712 .0254144
1118.306 .0254641
1118.901 .0255150
1119.496 .0255652
1120.092 .0256109
1120.689 .0256491
1121.285 .0256826
1121.882 .0257092
1122.480 .0257321
1123.078 .0257541
1123.677 .0257784
1124.276 .0258075
1124.875 .0258427
1125.476 .0258814
1126.076 .0259242
1126.677 .0259719
1127.279 .0260247
1127.881 .0260805
1128.484 .0261444
1129.087 .0262142
1129.691 .0262939
1130.295 .0263856
1130.900 .0264885
1131.505 .0265998
1132.111 .0267199
1132.718 .0268415
1133.325 .0269609
1133.933 .0270736
1134.541 .0271795
1135.150 .0272766
1135.760 .0273682
1136.370 .0274580
1136.981 .0275456
1137.592 .0276340
1138.204 .0277277
1138.817 .0278187
1139.431 .0279139
1140.045 .0280125
1140.660 .0281120
1141.275 .0282095
1141.891 .0283159
1142.508 .0284068
1143.126 .0285988
1143.744 .0286222
1144.363 .0286646
1144.983 .0289971
