Measurement Sequence started on: 15-12-46-377
Integration time: 28
Scans to Average: 2 
>>>>>Begin Spectral Data<<<<<
432.689 .0000100
433.621 .0000100
434.552 .0000100
435.482 .0000100
436.410 .0000100
437.337 .0000100
438.262 .0288996
439.187 .0611941
440.110 .1013782
441.031 .1467258
441.952 .1907602
442.871 .2254352
443.789 .2444658
444.705 .2456956
445.621 .2317544
446.535 .2084221
447.447 .1819781
448.359 .1414682
449.269 .1214309
450.178 .1087536
451.086 .0997996
451.993 .0929770
452.898 .0875765
453.803 .0831592
454.706 .0794735
455.608 .0763113
456.508 .0735461
457.408 .0711263
458.306 .0689655
459.204 .0670250
460.100 .0652658
460.995 .0636782
461.888 .0622341
462.781 .0609240
463.673 .0597066
464.563 .0585893
465.452 .0575477
466.340 .0565632
467.228 .0556338
468.114 .0547663
468.999 .0539620
469.882 .0532162
470.765 .0525404
471.647 .0519355
472.528 .0513914
473.407 .0509125
474.286 .0504915
475.163 .0501239
476.040 .0498054
476.915 .0495334
477.790 .0492995
478.663 .0491097
479.535 .0489609
480.407 .0488477
481.277 .0487649
482.147 .0487152
483.015 .0486892
483.883 .0486749
484.749 .0486694
485.615 .0486698
486.479 .0486757
487.343 .0486926
488.206 .0487213
489.067 .0487596
489.928 .0488121
490.788 .0488782
491.647 .0489488
492.505 .0490265
493.362 .0491111
494.218 .0492035
495.073 .0493019
495.928 .0494198
496.781 .0495484
497.634 .0496913
498.486 .0498535
499.337 .0500298
500.187 .0502210
501.036 .0504261
501.884 .0506342
502.731 .0508504
503.578 .0510899
504.424 .0513492
505.268 .0516324
506.113 .0519640
506.956 .0523447
507.798 .0527842
508.640 .0532775
509.480 .0538404
510.320 .0544740
511.160 .0552077
511.998 .0560358
512.836 .0569804
513.672 .0580766
514.508 .0593353
515.344 .0607660
516.178 .0624318
517.012 .0643602
517.845 .0665706
518.677 .0690898
519.508 .0719307
520.339 .0751134
521.169 .0787053
521.998 .0827025
522.826 .0871788
523.654 .0921771
524.481 .0977403
525.307 .1038725
526.133 .1106249
526.958 .1179043
527.782 .1256517
528.605 .1336451
529.428 .1417603
530.250 .1493993
531.072 .1562792
531.892 .1620195
532.712 .1662986
533.532 .1689374
534.350 .1697607
535.168 .1686182
535.986 .1656968
536.802 .1611476
537.618 .1552577
538.434 .1482530
539.249 .1406904
540.063 .1328148
540.876 .1249584
541.689 .1173917
542.501 .1103111
543.313 .1038653
544.124 .0981491
544.934 .0930234
545.744 .0883670
546.553 .0841692
547.361 .0803595
548.169 .0769184
548.976 .0737917
549.783 .0709652
550.589 .0684265
551.395 .0661200
552.200 .0640416
553.004 .0621528
553.808 .0604432
554.611 .0589192
555.414 .0575447
556.216 .0563098
557.018 .0551996
557.819 .0541983
558.619 .0532754
559.419 .0524368
560.218 .0516539
561.017 .0509111
561.815 .0502017
562.613 .0495232
563.410 .0488599
564.207 .0482169
565.003 .0475956
565.799 .0469848
566.594 .0463709
567.388 .0457629
568.182 .0451513
568.976 .0445399
569.769 .0439352
570.562 .0433413
571.354 .0427602
572.145 .0422050
572.936 .0416726
573.727 .0411652
574.517 .0406827
575.307 .0402199
576.096 .0397751
576.885 .0393475
577.673 .0389379
578.461 .0385471
579.248 .0381769
580.035 .0378374
580.821 .0375226
581.607 .0372299
582.392 .0369577
583.177 .0367066
583.962 .0364705
584.746 .0362506
585.529 .0360465
586.313 .0358600
587.095 .0356895
587.878 .0355342
588.660 .0353941
589.441 .0352687
590.222 .0351555
591.003 .0350525
591.783 .0349572
592.563 .0348693
593.342 .0347850
594.121 .0347050
594.899 .0346298
595.678 .0345590
596.455 .0344914
597.233 .0344277
598.009 .0343664
598.786 .0343091
599.562 .0342543
600.338 .0342026
601.113 .0341562
601.888 .0341134
602.663 .0340745
603.437 .0340393
604.211 .0340065
604.984 .0339745
605.757 .0339437
606.530 .0339131
607.302 .0338811
608.074 .0338489
608.845 .0338155
609.616 .0337810
610.387 .0337473
611.158 .0337139
611.928 .0336802
612.697 .0336470
613.467 .0336141
614.236 .0335796
615.004 .0335458
615.773 .0335111
616.541 .0334758
617.308 .0334412
618.076 .0334078
618.843 .0333747
619.609 .0333427
620.375 .0333116
621.141 .0332804
621.907 .0332497
622.672 .0332189
623.437 .0331866
624.202 .0331538
624.966 .0331203
625.730 .0330860
626.493 .0330516
627.257 .0330173
628.020 .0329828
628.782 .0329486
629.545 .0329140
630.307 .0328781
631.068 .0328416
631.830 .0328045
632.591 .0327666
633.352 .0327287
634.112 .0326909
634.872 .0326529
635.632 .0326155
636.392 .0325786
637.151 .0325420
637.910 .0325052
638.668 .0324685
639.427 .0324319
640.185 .0323960
640.943 .0323611
641.700 .0323272
642.457 .0322954
643.214 .0322653
643.971 .0322358
644.727 .0322070
645.483 .0321787
646.239 .0321508
646.994 .0321231
647.750 .0320961
648.505 .0320701
649.259 .0320453
650.014 .0320221
650.768 .0319999
651.521 .0319794
652.275 .0319593
653.028 .0319389
653.781 .0319179
654.534 .0318960
655.286 .0318729
656.039 .0318492
656.791 .0318253
657.542 .0318016
658.294 .0317780
659.045 .0317558
659.796 .0317344
660.546 .0317145
661.297 .0316954
662.047 .0316770
662.796 .0316596
663.546 .0316433
664.295 .0316270
665.044 .0316111
665.793 .0315954
666.542 .0315794
667.290 .0315627
668.038 .0315459
668.786 .0315285
669.533 .0315112
670.281 .0314942
671.028 .0314778
671.774 .0314616
672.521 .0314466
673.267 .0314319
674.013 .0314176
674.759 .0314033
675.505 .0313885
676.250 .0313729
676.995 .0313564
677.740 .0313393
678.484 .0313215
679.229 .0313031
679.973 .0312847
680.717 .0312657
681.460 .0312468
682.204 .0312274
682.947 .0312075
683.690 .0311869
684.433 .0311655
685.175 .0311427
685.917 .0311185
686.659 .0310935
687.401 .0310680
688.142 .0310421
688.884 .0310167
689.625 .0309918
690.365 .0309670
691.106 .0309419
691.846 .0309167
692.586 .0308906
693.326 .0308636
694.066 .0308354
694.805 .0308059
695.545 .0307752
696.284 .0307437
697.022 .0307112
697.761 .0306784
698.499 .0306461
699.237 .0306144
699.975 .0305833
700.713 .0305529
701.450 .0305231
702.187 .0304938
702.924 .0304656
703.661 .0304379
704.397 .0304104
705.133 .0303835
705.869 .0303572
706.605 .0303315
707.341 .0303067
708.076 .0302827
708.811 .0302597
709.546 .0302374
710.281 .0302157
711.015 .0301938
711.749 .0301718
712.483 .0301491
713.217 .0301255
713.950 .0301009
714.684 .0300752
715.417 .0300483
716.150 .0300212
716.882 .0299946
717.615 .0299682
718.347 .0299423
719.079 .0299175
719.811 .0298934
720.542 .0298702
721.273 .0298481
722.005 .0298269
722.735 .0298067
723.466 .0297882
724.196 .0297706
724.927 .0297540
725.656 .0297390
726.386 .0297245
727.116 .0297113
727.845 .0296991
728.574 .0296878
729.303 .0296771
730.031 .0296675
730.760 .0296594
731.488 .0296519
732.216 .0296452
732.944 .0296396
733.671 .0296347
734.398 .0296314
735.125 .0296288
735.852 .0296273
736.579 .0296267
737.305 .0296273
738.031 .0296286
738.757 .0296310
739.483 .0296337
740.208 .0296369
740.933 .0296403
741.658 .0296441
742.383 .0296474
743.108 .0296503
743.832 .0296528
744.556 .0296547
745.280 .0296557
746.004 .0296555
746.727 .0296537
747.450 .0296514
748.173 .0296473
748.896 .0296420
749.618 .0296352
750.340 .0296277
751.062 .0296192
751.784 .0296100
752.506 .0296005
753.227 .0295907
753.948 .0295809
754.669 .0295717
755.389 .0295623
756.110 .0295533
756.830 .0295443
757.550 .0295348
758.269 .0295247
758.989 .0295138
759.708 .0295011
760.427 .0294872
761.146 .0294721
761.864 .0294558
762.582 .0294380
763.300 .0294199
764.018 .0294011
764.736 .0293814
765.453 .0293613
766.170 .0293401
766.887 .0293177
767.603 .0292950
768.320 .0292711
769.036 .0292467
769.751 .0292223
770.467 .0291980
771.182 .0291737
771.897 .0291502
772.612 .0291270
773.327 .0291041
774.041 .0290818
774.755 .0290598
775.469 .0290377
776.183 .0290157
776.896 .0289932
777.609 .0289699
778.322 .0289464
779.035 .0289223
779.747 .0288978
780.459 .0288736
781.171 .0288501
781.882 .0288275
782.594 .0288062
783.305 .0287861
784.016 .0287672
784.726 .0287491
785.436 .0287313
786.147 .0287130
786.856 .0286943
787.566 .0286750
788.275 .0286553
788.984 .0286356
789.693 .0286162
790.401 .0285972
791.110 .0285787
791.818 .0285605
792.525 .0285423
793.233 .0285237
793.940 .0285041
794.647 .0284832
795.353 .0284612
796.060 .0284382
796.766 .0284146
797.472 .0283907
798.177 .0283678
798.883 .0283459
799.588 .0283253
800.292 .0283062
800.997 .0282890
801.701 .0282736
802.405 .0282594
803.109 .0282464
803.812 .0282341
804.515 .0282223
805.218 .0282108
805.921 .0281991
806.623 .0281876
807.325 .0281763
808.027 .0281650
808.728 .0281541
809.429 .0281440
810.130 .0281345
810.831 .0281255
811.531 .0281171
812.231 .0281085
812.931 .0280995
813.630 .0280899
814.330 .0280801
815.029 .0280700
815.727 .0280604
816.426 .0280512
817.124 .0280431
817.821 .0280369
818.519 .0280328
819.216 .0280309
819.913 .0280315
820.609 .0280340
821.306 .0280382
822.002 .0280437
822.697 .0280504
823.393 .0280578
824.088 .0280664
824.783 .0280758
825.477 .0280857
826.171 .0280958
826.865 .0281065
827.559 .0281178
828.252 .0281297
828.945 .0281415
829.638 .0281530
830.330 .0281640
831.023 .0281744
831.714 .0281838
832.406 .0281930
833.097 .0282017
833.788 .0282099
834.479 .0282179
835.169 .0282257
835.859 .0282337
836.548 .0282418
837.238 .0282502
837.927 .0282583
838.615 .0282661
839.304 .0282734
839.992 .0282802
840.680 .0282871
841.367 .0282941
842.054 .0283011
842.741 .0283086
843.428 .0283163
844.114 .0283238
844.800 .0283309
845.485 .0283372
846.170 .0283421
846.855 .0283455
847.540 .0283473
848.224 .0283475
848.908 .0283464
849.592 .0283442
850.275 .0283411
850.958 .0283366
851.641 .0283311
852.323 .0283239
853.005 .0283155
853.687 .0283053
854.368 .0282932
855.049 .0282797
855.730 .0282650
856.410 .0282490
857.090 .0282327
857.769 .0282157
858.449 .0281983
859.128 .0281801
859.806 .0281614
860.485 .0281421
861.163 .0281228
861.840 .0281034
862.518 .0280842
863.195 .0280657
863.871 .0280475
864.548 .0280294
865.224 .0280119
865.899 .0279945
866.574 .0279764
867.249 .0279576
867.924 .0279379
868.598 .0279172
869.272 .0278960
869.946 .0278745
870.619 .0278530
871.292 .0278319
871.964 .0278108
872.636 .0277897
873.308 .0277683
873.979 .0277468
874.651 .0277241
875.321 .0277005
875.992 .0276757
876.662 .0276499
877.331 .0276232
878.001 .0275963
878.670 .0275695
879.338 .0275429
880.007 .0275169
880.675 .0274910
881.342 .0274652
882.009 .0274396
882.676 .0274135
883.343 .0273872
884.009 .0273610
884.675 .0273350
885.340 .0273088
886.005 .0272828
886.670 .0272567
887.334 .0272303
887.998 .0272031
888.662 .0271748
889.325 .0271454
889.988 .0271155
890.650 .0270849
891.312 .0270539
891.974 .0270234
892.636 .0269935
893.297 .0269649
893.957 .0269378
894.618 .0269116
895.278 .0268862
895.937 .0268615
896.596 .0268375
897.255 .0268138
897.914 .0267907
898.572 .0267684
899.230 .0267474
899.887 .0267282
900.544 .0267104
901.201 .0266942
901.857 .0266798
902.513 .0266664
903.168 .0266530
903.823 .0266387
904.478 .0266231
905.132 .0266052
905.786 .0265852
906.440 .0265627
907.093 .0265383
907.746 .0265130
908.399 .0264874
909.051 .0264626
909.703 .0264389
910.354 .0264163
911.005 .0263945
911.656 .0263736
912.306 .0263527
912.956 .0263311
913.605 .0263092
914.254 .0262875
914.903 .0262667
915.551 .0262471
916.199 .0262302
916.847 .0262166
917.494 .0262065
918.141 .0261996
918.788 .0261945
919.434 .0261914
920.079 .0261889
920.725 .0261863
921.370 .0261830
922.014 .0261792
922.658 .0261748
923.302 .0261695
923.946 .0261637
924.589 .0261574
925.231 .0261502
925.873 .0261423
926.515 .0261337
927.157 .0261239
927.798 .0261132
928.439 .0261015
929.079 .0260890
929.719 .0260757
930.359 .0260619
930.998 .0260483
931.637 .0260354
932.275 .0260236
932.913 .0260136
933.551 .0260049
934.188 .0259988
934.825 .0259947
935.462 .0259930
936.098 .0259936
936.733 .0259963
937.369 .0260007
938.004 .0260065
938.638 .0260137
939.273 .0260222
939.907 .0260315
940.540 .0260418
941.173 .0260528
941.806 .0260647
942.438 .0260776
943.070 .0260917
943.702 .0261070
944.333 .0261234
944.964 .0261406
945.594 .0261580
946.224 .0261751
946.854 .0261918
947.483 .0262074
948.112 .0262218
948.741 .0262351
949.369 .0262470
949.996 .0262572
950.624 .0262672
951.251 .0262771
951.878 .0262872
952.504 .0262978
953.130 .0263088
953.755 .0263199
954.380 .0263306
955.005 .0263407
955.629 .0263499
956.253 .0263583
956.877 .0263667
957.500 .0263745
958.123 .0263826
958.746 .0263913
959.368 .0264009
959.990 .0264113
960.611 .0264226
961.232 .0264334
961.853 .0264438
962.473 .0264529
963.093 .0264603
963.712 .0264657
964.331 .0264689
964.950 .0264704
965.569 .0264709
966.187 .0264708
966.804 .0264715
967.422 .0264732
968.039 .0264769
968.655 .0264816
969.272 .0264873
969.887 .0264931
970.503 .0264988
971.118 .0265037
971.733 .0265081
972.347 .0265115
972.961 .0265153
973.575 .0265191
974.188 .0265227
974.801 .0265266
975.414 .0265305
976.026 .0265338
976.638 .0265354
977.250 .0265348
977.861 .0265315
978.472 .0265251
979.083 .0265163
979.693 .0265045
980.303 .0264913
980.912 .0264770
981.521 .0264620
982.130 .0264467
982.738 .0264317
983.346 .0264170
983.954 .0264021
984.562 .0263869
985.169 .0263706
985.775 .0263530
986.382 .0263344
986.988 .0263149
987.594 .0262951
988.199 .0262757
988.804 .0262570
989.409 .0262397
990.013 .0262240
990.617 .0262091
991.221 .0261950
991.824 .0261813
992.427 .0261678
993.030 .0261539
993.632 .0261394
994.234 .0261254
994.836 .0261120
995.438 .0260999
996.039 .0260884
996.640 .0260777
997.240 .0260682
997.840 .0260584
998.440 .0260480
999.040 .0260369
999.639 .0260250
1000.238 .0260126
1000.836 .0259997
1001.435 .0259859
1002.033 .0259716
1002.630 .0259566
1003.228 .0259408
1003.825 .0259241
1004.422 .0259061
1005.018 .0258873
1005.614 .0258678
1006.210 .0258483
1006.806 .0258289
1007.401 .0258095
1007.996 .0257905
1008.591 .0257717
1009.186 .0257527
1009.780 .0257325
1010.374 .0257112
1010.967 .0256889
1011.561 .0256660
1012.154 .0256424
1012.746 .0256188
1013.339 .0255958
1013.931 .0255733
1014.523 .0255517
1015.115 .0255302
1015.706 .0255083
1016.298 .0254857
1016.888 .0254621
1017.479 .0254376
1018.069 .0254127
1018.660 .0253881
1019.250 .0253640
1019.839 .0253416
1020.429 .0253208
1021.018 .0253011
1021.607 .0252828
1022.195 .0252655
1022.784 .0252489
1023.372 .0252319
1023.960 .0252151
1024.547 .0251981
1025.135 .0251818
1025.722 .0251664
1026.309 .0251524
1026.896 .0251396
1027.483 .0251280
1028.069 .0251174
1028.655 .0251073
1029.241 .0250971
1029.827 .0250872
1030.412 .0250768
1030.997 .0250670
1031.582 .0250570
1032.167 .0250475
1032.752 .0250378
1033.336 .0250287
1033.921 .0250188
1034.505 .0250085
1035.089 .0249974
1035.672 .0249856
1036.256 .0249726
1036.839 .0249598
1037.422 .0249470
1038.005 .0249352
1038.588 .0249238
1039.171 .0249136
1039.753 .0249035
1040.335 .0248940
1040.918 .0248840
1041.500 .0248742
1042.081 .0248636
1042.663 .0248530
1043.244 .0248420
1043.826 .0248310
1044.407 .0248194
1044.988 .0248077
1045.569 .0247955
1046.150 .0247829
1046.730 .0247695
1047.311 .0247561
1047.891 .0247418
1048.471 .0247280
1049.052 .0247143
1049.632 .0247009
1050.211 .0246886
1050.791 .0246775
1051.371 .0246679
1051.950 .0246608
1052.530 .0246561
1053.109 .0246540
1053.688 .0246542
1054.268 .0246574
1054.847 .0246623
1055.426 .0246682
1056.005 .0246758
1056.583 .0246846
1057.162 .0246935
1057.741 .0247016
1058.319 .0247093
1058.898 .0247163
1059.476 .0247221
1060.055 .0247272
1060.633 .0247310
1061.211 .0247327
1061.790 .0247334
1062.368 .0247326
1062.946 .0247306
1063.524 .0247288
1064.102 .0247279
1064.680 .0247276
1065.258 .0247289
1065.836 .0247313
1066.414 .0247350
1066.992 .0247402
1067.570 .0247487
1068.148 .0247584
1068.726 .0247700
1069.304 .0247843
1069.882 .0247996
1070.460 .0248164
1071.038 .0248351
1071.616 .0248540
1072.194 .0248736
1072.772 .0248927
1073.350 .0249115
1073.928 .0249289
1074.506 .0249457
1075.084 .0249624
1075.662 .0249800
1076.240 .0249984
1076.819 .0250174
1077.397 .0250369
1077.976 .0250584
1078.554 .0250799
1079.133 .0251026
1079.711 .0251250
1080.290 .0251474
1080.869 .0251702
1081.448 .0251926
1082.027 .0252149
1082.606 .0252393
1083.185 .0252648
1083.764 .0252918
1084.343 .0253199
1084.923 .0253483
1085.502 .0253744
1086.082 .0253988
1086.662 .0254216
1087.242 .0254415
1087.822 .0254591
1088.402 .0254756
1088.983 .0254908
1089.563 .0255058
1090.144 .0255206
1090.725 .0255363
1091.306 .0255528
1091.887 .0255693
1092.469 .0255873
1093.050 .0256058
1093.632 .0256252
1094.214 .0256480
1094.796 .0256730
1095.379 .0257015
1095.961 .0257332
1096.544 .0257668
1097.127 .0258016
1097.710 .0258387
1098.294 .0258773
1098.877 .0259148
1099.461 .0259533
1100.046 .0259928
1100.630 .0260312
1101.215 .0260695
1101.800 .0261078
1102.385 .0261448
1102.970 .0261819
1103.556 .0262192
1104.142 .0262564
1104.728 .0262959
1105.315 .0263384
1105.902 .0263831
1106.489 .0264288
1107.077 .0264760
1107.664 .0265209
1108.253 .0265633
1108.841 .0266026
1109.430 .0266382
1110.019 .0266708
1110.609 .0267022
1111.198 .0267342
1111.789 .0267716
1112.379 .0268143
1112.970 .0268650
1113.561 .0269216
1114.153 .0269830
1114.745 .0270464
1115.338 .0271094
1115.931 .0271712
1116.524 .0272317
1117.117 .0272901
1117.712 .0273499
1118.306 .0274103
1118.901 .0274760
1119.496 .0275447
1120.092 .0276198
1120.689 .0276994
1121.285 .0277792
1121.882 .0278565
1122.480 .0279308
1123.078 .0280020
1123.677 .0280686
1124.276 .0281318
1124.875 .0281940
1125.476 .0282549
1126.076 .0283162
1126.677 .0283769
1127.279 .0284401
1127.881 .0285040
1128.484 .0285710
1129.087 .0286385
1129.691 .0287103
1130.295 .0287871
1130.900 .0288646
1131.505 .0289449
1132.111 .0290289
1132.718 .0291143
1133.325 .0291974
1133.933 .0292794
1134.541 .0293633
1135.150 .0294471
1135.760 .0295346
1136.370 .0296261
1136.981 .0297290
1137.592 .0298404
1138.204 .0299600
1138.817 .0300808
1139.431 .0302079
1140.045 .0303392
1140.660 .0304636
1141.275 .0305888
1141.891 .0307198
1142.508 .0308432
1143.126 .0310152
1143.744 .0309470
1144.363 .0312444
1144.983 .0315506
