Measurement Sequence started on: 15-12-46-377
Integration time: 28
Scans to Average: 2 
>>>>>Begin Spectral Data<<<<<
432.689 .0000100
433.621 .0000100
434.552 .0000100
435.482 .0000100
436.410 .0000100
437.337 .0000100
438.262 .0281706
439.187 .0596667
440.110 .0987509
441.031 .1427926
441.952 .1854663
442.871 .2188896
443.789 .2369818
444.705 .2376673
445.621 .2235763
446.535 .2004029
447.447 .1743116
448.359 .1346570
449.269 .1150824
450.178 .1028273
451.086 .0942394
451.993 .0877057
452.898 .0825387
453.803 .0782630
454.706 .0746760
455.608 .0715911
456.508 .0689042
457.408 .0666007
458.306 .0645953
459.204 .0628586
460.100 .0613398
460.995 .0599868
461.888 .0587715
462.781 .0576624
463.673 .0566215
464.563 .0556517
465.452 .0547495
466.340 .0539114
467.228 .0531346
468.114 .0524238
468.999 .0517709
469.882 .0511709
470.765 .0506149
471.647 .0500994
472.528 .0496100
473.407 .0491593
474.286 .0487372
475.163 .0483442
476.040 .0479871
476.915 .0476630
477.790 .0473718
478.663 .0471161
479.535 .0468924
480.407 .0467030
481.277 .0465502
482.147 .0464433
483.015 .0463709
483.883 .0463361
484.749 .0463317
485.615 .0463448
486.479 .0463691
487.343 .0464017
488.206 .0464326
489.067 .0464586
489.928 .0464899
490.788 .0465242
491.647 .0465653
492.505 .0466297
493.362 .0467199
494.218 .0468293
495.073 .0469610
495.928 .0471082
496.781 .0472551
497.634 .0474067
498.486 .0475594
499.337 .0477080
500.187 .0478729
501.036 .0480576
501.884 .0482770
502.731 .0485390
503.578 .0488602
504.424 .0492261
505.268 .0496411
506.113 .0501029
506.956 .0505951
507.798 .0511158
508.640 .0516726
509.480 .0522632
510.320 .0529081
511.160 .0536164
511.998 .0544118
512.836 .0553143
513.672 .0563422
514.508 .0575139
515.344 .0588410
516.178 .0603371
517.012 .0620380
517.845 .0639451
518.677 .0660948
519.508 .0684869
520.339 .0711668
521.169 .0741955
521.998 .0775887
522.826 .0814557
523.654 .0858302
524.481 .0907414
525.307 .0962857
526.133 .1024341
526.958 .1091708
527.782 .1163897
528.605 .1239101
529.428 .1315666
530.250 .1388664
531.072 .1455372
531.892 .1512162
532.712 .1556025
533.532 .1585755
534.350 .1598637
535.168 .1593489
535.986 .1571492
536.802 .1533901
537.618 .1483169
538.434 .1421192
539.249 .1352396
540.063 .1279428
540.876 .1205173
541.689 .1132740
542.501 .1063640
543.313 .1000098
544.124 .0942719
544.934 .0890425
545.744 .0843010
546.553 .0800175
547.361 .0761678
548.169 .0727480
548.976 .0696888
549.783 .0669657
550.589 .0645217
551.395 .0623227
552.200 .0603414
553.004 .0585819
553.808 .0569773
554.611 .0555309
555.414 .0542221
556.216 .0530501
557.018 .0519989
557.819 .0510678
558.619 .0502279
559.419 .0494618
560.218 .0487413
561.017 .0480614
561.815 .0473922
562.613 .0467485
563.410 .0461105
564.207 .0454933
565.003 .0449008
565.799 .0443227
566.594 .0437531
567.388 .0432166
568.182 .0426953
568.976 .0421807
569.769 .0416696
570.562 .0411701
571.354 .0406733
572.145 .0401915
572.936 .0397171
573.727 .0392634
574.517 .0388278
575.307 .0384124
576.096 .0380113
576.885 .0376299
577.673 .0372659
578.461 .0369133
579.248 .0365788
580.035 .0362642
580.821 .0359619
581.607 .0356803
582.392 .0354154
583.177 .0351681
583.962 .0349355
584.746 .0347179
585.529 .0345140
586.313 .0343250
587.095 .0341535
587.878 .0339971
588.660 .0338585
589.441 .0337385
590.222 .0336331
591.003 .0335394
591.783 .0334560
592.563 .0333785
593.342 .0333045
594.121 .0332323
594.899 .0331620
595.678 .0330941
596.455 .0330309
597.233 .0329724
598.009 .0329179
598.786 .0328679
599.562 .0328220
600.338 .0327762
601.113 .0327315
601.888 .0326855
602.663 .0326370
603.437 .0325859
604.211 .0325327
604.984 .0324792
605.757 .0324268
606.530 .0323769
607.302 .0323302
608.074 .0322870
608.845 .0322463
609.616 .0322068
610.387 .0321686
611.158 .0321312
611.928 .0320934
612.697 .0320563
613.467 .0320208
614.236 .0319868
615.004 .0319561
615.773 .0319290
616.541 .0319054
617.308 .0318860
618.076 .0318683
618.843 .0318515
619.609 .0318355
620.375 .0318200
621.141 .0318031
621.907 .0317861
622.672 .0317692
623.437 .0317518
624.202 .0317342
624.966 .0317176
625.730 .0317007
626.493 .0316833
627.257 .0316655
628.020 .0316461
628.782 .0316251
629.545 .0316026
630.307 .0315778
631.068 .0315516
631.830 .0315244
632.591 .0314957
633.352 .0314655
634.112 .0314355
634.872 .0314060
635.632 .0313765
636.392 .0313472
637.151 .0313186
637.910 .0312889
638.668 .0312591
639.427 .0312284
640.185 .0311967
640.943 .0311645
641.700 .0311322
642.457 .0311006
643.214 .0310697
643.971 .0310394
644.727 .0310101
645.483 .0309815
646.239 .0309538
646.994 .0309250
647.750 .0308955
648.505 .0308657
649.259 .0308364
650.014 .0308072
650.768 .0307790
651.521 .0307519
652.275 .0307267
653.028 .0307024
653.781 .0306787
654.534 .0306554
655.286 .0306317
656.039 .0306073
656.791 .0305823
657.542 .0305561
658.294 .0305292
659.045 .0305024
659.796 .0304763
660.546 .0304503
661.297 .0304248
662.047 .0304001
662.796 .0303757
663.546 .0303518
664.295 .0303285
665.044 .0303053
665.793 .0302823
666.542 .0302598
667.290 .0302372
668.038 .0302148
668.786 .0301931
669.533 .0301719
670.281 .0301513
671.028 .0301319
671.774 .0301127
672.521 .0300936
673.267 .0300748
674.013 .0300561
674.759 .0300368
675.505 .0300172
676.250 .0299977
676.995 .0299783
677.740 .0299592
678.484 .0299402
679.229 .0299214
679.973 .0299028
680.717 .0298840
681.460 .0298644
682.204 .0298443
682.947 .0298239
683.690 .0298033
684.433 .0297827
685.175 .0297626
685.917 .0297433
686.659 .0297246
687.401 .0297065
688.142 .0296891
688.884 .0296715
689.625 .0296538
690.365 .0296354
691.106 .0296162
691.846 .0295965
692.586 .0295764
693.326 .0295561
694.066 .0295363
694.805 .0295169
695.545 .0294977
696.284 .0294787
697.022 .0294594
697.761 .0294400
698.499 .0294201
699.237 .0294000
699.975 .0293798
700.713 .0293600
701.450 .0293410
702.187 .0293228
702.924 .0293061
703.661 .0292905
704.397 .0292758
705.133 .0292619
705.869 .0292487
706.605 .0292357
707.341 .0292233
708.076 .0292113
708.811 .0291995
709.546 .0291880
710.281 .0291764
711.015 .0291644
711.749 .0291517
712.483 .0291381
713.217 .0291230
713.950 .0291063
714.684 .0290885
715.417 .0290693
716.150 .0290503
716.882 .0290315
717.615 .0290132
718.347 .0289956
719.079 .0289786
719.811 .0289617
720.542 .0289453
721.273 .0289291
722.005 .0289131
722.735 .0288978
723.466 .0288838
724.196 .0288706
724.927 .0288585
725.656 .0288475
726.386 .0288370
727.116 .0288263
727.845 .0288154
728.574 .0288034
729.303 .0287908
730.031 .0287779
730.760 .0287649
731.488 .0287519
732.216 .0287401
732.944 .0287285
733.671 .0287173
734.398 .0287064
735.125 .0286953
735.852 .0286833
736.579 .0286708
737.305 .0286581
738.031 .0286451
738.757 .0286325
739.483 .0286206
740.208 .0286088
740.933 .0285981
741.658 .0285875
742.383 .0285766
743.108 .0285655
743.832 .0285541
744.556 .0285420
745.280 .0285296
746.004 .0285173
746.727 .0285053
747.450 .0284938
748.173 .0284829
748.896 .0284728
749.618 .0284626
750.340 .0284527
751.062 .0284426
751.784 .0284324
752.506 .0284223
753.227 .0284116
753.948 .0284007
754.669 .0283898
755.389 .0283785
756.110 .0283672
756.830 .0283555
757.550 .0283444
758.269 .0283331
758.989 .0283211
759.708 .0283084
760.427 .0282951
761.146 .0282806
761.864 .0282650
762.582 .0282477
763.300 .0282290
764.018 .0282090
764.736 .0281882
765.453 .0281666
766.170 .0281450
766.887 .0281234
767.603 .0281022
768.320 .0280814
769.036 .0280611
769.751 .0280404
770.467 .0280201
771.182 .0279996
771.897 .0279787
772.612 .0279575
773.327 .0279363
774.041 .0279154
774.755 .0278953
775.469 .0278761
776.183 .0278578
776.896 .0278407
777.609 .0278250
778.322 .0278099
779.035 .0277954
779.747 .0277812
780.459 .0277669
781.171 .0277525
781.882 .0277380
782.594 .0277235
783.305 .0277094
784.016 .0276962
784.726 .0276840
785.436 .0276729
786.147 .0276629
786.856 .0276540
787.566 .0276460
788.275 .0276384
788.984 .0276309
789.693 .0276229
790.401 .0276148
791.110 .0276062
791.818 .0275973
792.525 .0275878
793.233 .0275777
793.940 .0275668
794.647 .0275552
795.353 .0275431
796.060 .0275307
796.766 .0275181
797.472 .0275054
798.177 .0274930
798.883 .0274806
799.588 .0274682
800.292 .0274562
800.997 .0274440
801.701 .0274315
802.405 .0274183
803.109 .0274043
803.812 .0273899
804.515 .0273753
805.218 .0273602
805.921 .0273449
806.623 .0273296
807.325 .0273143
808.027 .0272989
808.728 .0272836
809.429 .0272682
810.130 .0272528
810.831 .0272377
811.531 .0272226
812.231 .0272073
812.931 .0271926
813.630 .0271780
814.330 .0271642
815.029 .0271510
815.727 .0271383
816.426 .0271267
817.124 .0271162
817.821 .0271069
818.519 .0270985
819.216 .0270910
819.913 .0270845
820.609 .0270786
821.306 .0270731
822.002 .0270682
822.697 .0270637
823.393 .0270599
824.088 .0270573
824.783 .0270553
825.477 .0270537
826.171 .0270529
826.865 .0270529
827.559 .0270533
828.252 .0270540
828.945 .0270553
829.638 .0270565
830.330 .0270580
831.023 .0270595
831.714 .0270604
832.406 .0270612
833.097 .0270615
833.788 .0270605
834.479 .0270586
835.169 .0270562
835.859 .0270531
836.548 .0270499
837.238 .0270474
837.927 .0270449
838.615 .0270429
839.304 .0270415
839.992 .0270404
840.680 .0270394
841.367 .0270389
842.054 .0270386
842.741 .0270386
843.428 .0270394
844.114 .0270407
844.800 .0270424
845.485 .0270447
846.170 .0270465
846.855 .0270474
847.540 .0270471
848.224 .0270454
848.908 .0270420
849.592 .0270373
850.275 .0270310
850.958 .0270234
851.641 .0270144
852.323 .0270043
853.005 .0269927
853.687 .0269796
854.368 .0269651
855.049 .0269489
855.730 .0269317
856.410 .0269133
857.090 .0268945
857.769 .0268761
858.449 .0268582
859.128 .0268409
859.806 .0268241
860.485 .0268082
861.163 .0267930
861.840 .0267785
862.518 .0267649
863.195 .0267522
863.871 .0267403
864.548 .0267297
865.224 .0267201
865.899 .0267115
866.574 .0267040
867.249 .0266969
867.924 .0266900
868.598 .0266832
869.272 .0266759
869.946 .0266683
870.619 .0266604
871.292 .0266528
871.964 .0266447
872.636 .0266368
873.308 .0266291
873.979 .0266213
874.651 .0266136
875.321 .0266056
875.992 .0265967
876.662 .0265872
877.331 .0265773
878.001 .0265666
878.670 .0265557
879.338 .0265451
880.007 .0265350
880.675 .0265261
881.342 .0265180
882.009 .0265108
882.676 .0265044
883.343 .0264983
884.009 .0264920
884.675 .0264850
885.340 .0264778
886.005 .0264701
886.670 .0264628
887.334 .0264565
887.998 .0264512
888.662 .0264475
889.325 .0264452
889.988 .0264443
890.650 .0264446
891.312 .0264452
891.974 .0264451
892.636 .0264444
893.297 .0264433
893.957 .0264413
894.618 .0264387
895.278 .0264365
895.937 .0264350
896.596 .0264337
897.255 .0264322
897.914 .0264307
898.572 .0264284
899.230 .0264248
899.887 .0264190
900.544 .0264105
901.201 .0263995
901.857 .0263860
902.513 .0263702
903.168 .0263530
903.823 .0263346
904.478 .0263152
905.132 .0262947
905.786 .0262735
906.440 .0262513
907.093 .0262279
907.746 .0262033
908.399 .0261777
909.051 .0261509
909.703 .0261236
910.354 .0260958
911.005 .0260682
911.656 .0260415
912.306 .0260155
912.956 .0259906
913.605 .0259672
914.254 .0259450
914.903 .0259241
915.551 .0259039
916.199 .0258842
916.847 .0258650
917.494 .0258458
918.141 .0258264
918.788 .0258072
919.434 .0257880
920.079 .0257685
920.725 .0257486
921.370 .0257290
922.014 .0257097
922.658 .0256906
923.302 .0256714
923.946 .0256518
924.589 .0256316
925.231 .0256108
925.873 .0255889
926.515 .0255664
927.157 .0255431
927.798 .0255189
928.439 .0254936
929.079 .0254677
929.719 .0254411
930.359 .0254142
930.998 .0253869
931.637 .0253598
932.275 .0253326
932.913 .0253053
933.551 .0252785
934.188 .0252526
934.825 .0252279
935.462 .0252041
936.098 .0251806
936.733 .0251581
937.369 .0251365
938.004 .0251163
938.638 .0250974
939.273 .0250802
939.907 .0250650
940.540 .0250517
941.173 .0250400
941.806 .0250302
942.438 .0250221
943.070 .0250151
943.702 .0250085
944.333 .0250016
944.964 .0249941
945.594 .0249859
946.224 .0249771
946.854 .0249682
947.483 .0249594
948.112 .0249509
948.741 .0249426
949.369 .0249350
949.996 .0249281
950.624 .0249214
951.251 .0249146
951.878 .0249076
952.504 .0248997
953.130 .0248909
953.755 .0248813
954.380 .0248713
955.005 .0248611
955.629 .0248508
956.253 .0248404
956.877 .0248302
957.500 .0248208
958.123 .0248118
958.746 .0248029
959.368 .0247938
959.990 .0247844
960.611 .0247740
961.232 .0247626
961.853 .0247510
962.473 .0247392
963.093 .0247278
963.712 .0247164
964.331 .0247054
964.950 .0246949
965.569 .0246851
966.187 .0246764
966.804 .0246685
967.422 .0246616
968.039 .0246555
968.655 .0246499
969.272 .0246456
969.887 .0246417
970.503 .0246385
971.118 .0246357
971.733 .0246336
972.347 .0246313
972.961 .0246290
973.575 .0246265
974.188 .0246239
974.801 .0246212
975.414 .0246182
976.026 .0246144
976.638 .0246098
977.250 .0246044
977.861 .0245982
978.472 .0245912
979.083 .0245830
979.693 .0245733
980.303 .0245623
980.912 .0245498
981.521 .0245365
982.130 .0245226
982.738 .0245092
983.346 .0244964
983.954 .0244846
984.562 .0244741
985.169 .0244644
985.775 .0244556
986.382 .0244470
986.988 .0244391
987.594 .0244313
988.199 .0244241
988.804 .0244181
989.409 .0244138
990.013 .0244122
990.617 .0244135
991.221 .0244170
991.824 .0244224
992.427 .0244296
993.030 .0244380
993.632 .0244468
994.234 .0244563
994.836 .0244662
995.438 .0244768
996.039 .0244875
996.640 .0244987
997.240 .0245096
997.840 .0245205
998.440 .0245308
999.040 .0245393
999.639 .0245467
1000.238 .0245520
1000.836 .0245556
1001.435 .0245586
1002.033 .0245615
1002.630 .0245640
1003.228 .0245667
1003.825 .0245704
1004.422 .0245749
1005.018 .0245803
1005.614 .0245869
1006.210 .0245942
1006.806 .0246029
1007.401 .0246118
1007.996 .0246202
1008.591 .0246289
1009.186 .0246385
1009.780 .0246480
1010.374 .0246578
1010.967 .0246685
1011.561 .0246793
1012.154 .0246899
1012.746 .0247006
1013.339 .0247108
1013.931 .0247201
1014.523 .0247284
1015.115 .0247349
1015.706 .0247401
1016.298 .0247443
1016.888 .0247479
1017.479 .0247516
1018.069 .0247565
1018.660 .0247620
1019.250 .0247678
1019.839 .0247747
1020.429 .0247822
1021.018 .0247894
1021.607 .0247971
1022.195 .0248052
1022.784 .0248133
1023.372 .0248216
1023.960 .0248305
1024.547 .0248401
1025.135 .0248511
1025.722 .0248639
1026.309 .0248786
1026.896 .0248950
1027.483 .0249133
1028.069 .0249331
1028.655 .0249537
1029.241 .0249754
1029.827 .0249977
1030.412 .0250205
1030.997 .0250436
1031.582 .0250664
1032.167 .0250884
1032.752 .0251100
1033.336 .0251308
1033.921 .0251506
1034.505 .0251689
1035.089 .0251852
1035.672 .0251994
1036.256 .0252108
1036.839 .0252196
1037.422 .0252269
1038.005 .0252332
1038.588 .0252385
1039.171 .0252438
1039.753 .0252487
1040.335 .0252541
1040.918 .0252597
1041.500 .0252661
1042.081 .0252722
1042.663 .0252775
1043.244 .0252824
1043.826 .0252861
1044.407 .0252891
1044.988 .0252927
1045.569 .0252961
1046.150 .0253001
1046.730 .0253038
1047.311 .0253073
1047.891 .0253101
1048.471 .0253122
1049.052 .0253136
1049.632 .0253142
1050.211 .0253150
1050.791 .0253165
1051.371 .0253181
1051.950 .0253222
1052.530 .0253282
1053.109 .0253358
1053.688 .0253436
1054.268 .0253515
1054.847 .0253586
1055.426 .0253652
1056.005 .0253712
1056.583 .0253774
1057.162 .0253839
1057.741 .0253902
1058.319 .0253967
1058.898 .0254026
1059.476 .0254069
1060.055 .0254082
1060.633 .0254055
1061.211 .0253998
1061.790 .0253905
1062.368 .0253793
1062.946 .0253670
1063.524 .0253565
1064.102 .0253484
1064.680 .0253425
1065.258 .0253376
1065.836 .0253349
1066.414 .0253334
1066.992 .0253323
1067.570 .0253310
1068.148 .0253289
1068.726 .0253266
1069.304 .0253254
1069.882 .0253251
1070.460 .0253267
1071.038 .0253294
1071.616 .0253349
1072.194 .0253398
1072.772 .0253451
1073.350 .0253494
1073.928 .0253540
1074.506 .0253587
1075.084 .0253637
1075.662 .0253695
1076.240 .0253770
1076.819 .0253854
1077.397 .0253959
1077.976 .0254093
1078.554 .0254247
1079.133 .0254417
1079.711 .0254597
1080.290 .0254759
1080.869 .0254910
1081.448 .0255033
1082.027 .0255133
1082.606 .0255203
1083.185 .0255261
1083.764 .0255296
1084.343 .0255308
1084.923 .0255325
1085.502 .0255328
1086.082 .0255328
1086.662 .0255333
1087.242 .0255320
1087.822 .0255288
1088.402 .0255248
1088.983 .0255205
1089.563 .0255159
1090.144 .0255127
1090.725 .0255101
1091.306 .0255078
1091.887 .0255066
1092.469 .0255066
1093.050 .0255082
1093.632 .0255125
1094.214 .0255204
1094.796 .0255314
1095.379 .0255462
1095.961 .0255625
1096.544 .0255807
1097.127 .0255996
1097.710 .0256178
1098.294 .0256352
1098.877 .0256506
1099.461 .0256655
1100.046 .0256799
1100.630 .0256954
1101.215 .0257116
1101.800 .0257295
1102.385 .0257479
1102.970 .0257630
1103.556 .0257738
1104.142 .0257773
1104.728 .0257728
1105.315 .0257617
1105.902 .0257449
1106.489 .0257251
1107.077 .0257064
1107.664 .0256919
1108.253 .0256816
1108.841 .0256758
1109.430 .0256740
1110.019 .0256756
1110.609 .0256773
1111.198 .0256796
1111.789 .0256818
1112.379 .0256869
1112.970 .0256987
1113.561 .0257182
1114.153 .0257488
1114.745 .0257909
1115.338 .0258419
1115.931 .0259008
1116.524 .0259626
1117.117 .0260263
1117.712 .0260881
1118.306 .0261469
1118.901 .0262021
1119.496 .0262523
1120.092 .0262997
1120.689 .0263458
1121.285 .0263897
1121.882 .0264319
1122.480 .0264677
1123.078 .0265023
1123.677 .0265346
1124.276 .0265625
1124.875 .0265878
1125.476 .0266137
1126.076 .0266409
1126.677 .0266697
1127.279 .0266982
1127.881 .0267276
1128.484 .0267588
1129.087 .0267924
1129.691 .0268272
1130.295 .0268647
1130.900 .0269111
1131.505 .0269644
1132.111 .0270276
1132.718 .0271045
1133.325 .0271895
1133.933 .0272805
1134.541 .0273772
1135.150 .0274746
1135.760 .0275714
1136.370 .0276643
1136.981 .0277553
1137.592 .0278431
1138.204 .0279309
1138.817 .0280182
1139.431 .0281063
1140.045 .0282016
1140.660 .0282919
1141.275 .0283915
1141.891 .0284735
1142.508 .0286225
1143.126 .0287651
1143.744 .0285387
1144.363 .0290425
1144.983 .0285559
