Measurement Sequence started on: 15-12-46-377
Integration time: 28
Scans to Average: 2 
>>>>>Begin Spectral Data<<<<<
432.689 .0000100
433.621 .0000100
434.552 .0000100
435.482 .0000100
436.410 .0000100
437.337 .0000100
438.262 .0274441
439.187 .0581632
440.110 .0962925
441.031 .1392353
441.952 .1808995
442.871 .2136768
443.789 .2315962
444.705 .2326161
445.621 .2192761
446.535 .1970652
447.447 .1719190
448.359 .1334013
449.269 .1142477
450.178 .1021079
451.086 .0934514
451.993 .0867318
452.898 .0813520
453.803 .0769510
454.706 .0733365
455.608 .0702932
456.508 .0676918
457.408 .0654614
458.306 .0634910
459.204 .0617293
460.100 .0601142
460.995 .0586579
461.888 .0573278
462.781 .0561083
463.673 .0550067
464.563 .0540169
465.452 .0531186
466.340 .0523119
467.228 .0515916
468.114 .0509447
468.999 .0503504
469.882 .0497998
470.765 .0492833
471.647 .0488027
472.528 .0483515
473.407 .0479381
474.286 .0475649
475.163 .0472388
476.040 .0469483
476.915 .0466898
477.790 .0464600
478.663 .0462553
479.535 .0460631
480.407 .0458897
481.277 .0457299
482.147 .0455878
483.015 .0454613
483.883 .0453599
484.749 .0452780
485.615 .0452175
486.479 .0451794
487.343 .0451592
488.206 .0451555
489.067 .0451642
489.928 .0451759
490.788 .0452011
491.647 .0452468
492.505 .0453090
493.362 .0453972
494.218 .0455216
495.073 .0456710
495.928 .0458578
496.781 .0460710
497.634 .0463150
498.486 .0465838
499.337 .0468805
500.187 .0471978
501.036 .0475334
501.884 .0479008
502.731 .0482910
503.578 .0487116
504.424 .0491812
505.268 .0496773
506.113 .0502066
506.956 .0507731
507.798 .0513706
508.640 .0520004
509.480 .0526677
510.320 .0533748
511.160 .0541389
511.998 .0549668
512.836 .0558743
513.672 .0568801
514.508 .0580114
515.344 .0592676
516.178 .0606695
517.012 .0622628
517.845 .0640633
518.677 .0660897
519.508 .0683693
520.339 .0709531
521.169 .0738996
521.998 .0772159
522.826 .0809713
523.654 .0852161
524.481 .0899649
525.307 .0952720
526.133 .1010948
526.958 .1074175
527.782 .1141842
528.605 .1212705
529.428 .1286167
530.250 .1357628
531.072 .1424551
531.892 .1483675
532.712 .1531572
533.532 .1566344
534.350 .1583969
535.168 .1583204
535.986 .1564301
536.802 .1528220
537.618 .1477480
538.434 .1414280
539.249 .1344199
540.063 .1270172
540.876 .1195195
541.689 .1122164
542.501 .1052796
543.313 .0989276
544.124 .0931691
544.934 .0879408
545.744 .0831952
546.553 .0789107
547.361 .0750813
548.169 .0717172
548.976 .0687452
549.783 .0661333
550.589 .0638409
551.395 .0617874
552.200 .0599515
553.004 .0582765
553.808 .0567290
554.611 .0553256
555.414 .0540362
556.216 .0528789
557.018 .0518383
557.819 .0509222
558.619 .0500936
559.419 .0493502
560.218 .0486539
561.017 .0479874
561.815 .0473255
562.613 .0466669
563.410 .0460097
564.207 .0453641
565.003 .0447338
565.799 .0441171
566.594 .0435201
567.388 .0429525
568.182 .0423964
568.976 .0418635
569.769 .0413328
570.562 .0408145
571.354 .0402938
572.145 .0397818
572.936 .0392717
573.727 .0387732
574.517 .0382890
575.307 .0378246
576.096 .0373836
576.885 .0369690
577.673 .0365788
578.461 .0362192
579.248 .0358837
580.035 .0355707
580.821 .0352736
581.607 .0349920
582.392 .0347211
583.177 .0344698
583.962 .0342331
584.746 .0340172
585.529 .0338209
586.313 .0336452
587.095 .0334882
587.878 .0333512
588.660 .0332339
589.441 .0331338
590.222 .0330482
591.003 .0329753
591.783 .0329104
592.563 .0328533
593.342 .0328013
594.121 .0327536
594.899 .0327081
595.678 .0326642
596.455 .0326202
597.233 .0325755
598.009 .0325309
598.786 .0324865
599.562 .0324432
600.338 .0324014
601.113 .0323596
601.888 .0323180
602.663 .0322759
603.437 .0322333
604.211 .0321888
604.984 .0321429
605.757 .0320962
606.530 .0320488
607.302 .0320016
608.074 .0319571
608.845 .0319150
609.616 .0318766
610.387 .0318423
611.158 .0318105
611.928 .0317813
612.697 .0317537
613.467 .0317261
614.236 .0316987
615.004 .0316705
615.773 .0316424
616.541 .0316140
617.308 .0315867
618.076 .0315617
618.843 .0315380
619.609 .0315174
620.375 .0314985
621.141 .0314804
621.907 .0314630
622.672 .0314446
623.437 .0314246
624.202 .0314031
624.966 .0313792
625.730 .0313537
626.493 .0313272
627.257 .0313012
628.020 .0312750
628.782 .0312495
629.545 .0312250
630.307 .0312004
631.068 .0311754
631.830 .0311503
632.591 .0311236
633.352 .0310964
634.112 .0310678
634.872 .0310383
635.632 .0310089
636.392 .0309797
637.151 .0309501
637.910 .0309204
638.668 .0308913
639.427 .0308617
640.185 .0308312
640.943 .0308011
641.700 .0307708
642.457 .0307410
643.214 .0307125
643.971 .0306848
644.727 .0306591
645.483 .0306343
646.239 .0306101
646.994 .0305863
647.750 .0305629
648.505 .0305393
649.259 .0305161
650.014 .0304943
650.768 .0304739
651.521 .0304542
652.275 .0304365
653.028 .0304204
653.781 .0304048
654.534 .0303892
655.286 .0303729
656.039 .0303558
656.791 .0303376
657.542 .0303170
658.294 .0302952
659.045 .0302727
659.796 .0302496
660.546 .0302258
661.297 .0302015
662.047 .0301774
662.796 .0301531
663.546 .0301286
664.295 .0301045
665.044 .0300801
665.793 .0300558
666.542 .0300314
667.290 .0300075
668.038 .0299840
668.786 .0299606
669.533 .0299378
670.281 .0299153
671.028 .0298929
671.774 .0298707
672.521 .0298486
673.267 .0298272
674.013 .0298075
674.759 .0297887
675.505 .0297711
676.250 .0297551
676.995 .0297400
677.740 .0297252
678.484 .0297096
679.229 .0296933
679.973 .0296755
680.717 .0296570
681.460 .0296382
682.204 .0296188
682.947 .0296006
683.690 .0295834
684.433 .0295667
685.175 .0295509
685.917 .0295349
686.659 .0295181
687.401 .0295000
688.142 .0294810
688.884 .0294607
689.625 .0294396
690.365 .0294187
691.106 .0293979
691.846 .0293777
692.586 .0293580
693.326 .0293378
694.066 .0293172
694.805 .0292959
695.545 .0292729
696.284 .0292485
697.022 .0292232
697.761 .0291972
698.499 .0291707
699.237 .0291446
699.975 .0291189
700.713 .0290940
701.450 .0290702
702.187 .0290474
702.924 .0290252
703.661 .0290047
704.397 .0289856
705.133 .0289679
705.869 .0289520
706.605 .0289382
707.341 .0289256
708.076 .0289144
708.811 .0289038
709.546 .0288937
710.281 .0288832
711.015 .0288726
711.749 .0288606
712.483 .0288482
713.217 .0288344
713.950 .0288196
714.684 .0288039
715.417 .0287875
716.150 .0287700
716.882 .0287517
717.615 .0287326
718.347 .0287129
719.079 .0286919
719.811 .0286704
720.542 .0286481
721.273 .0286264
722.005 .0286045
722.735 .0285834
723.466 .0285632
724.196 .0285440
724.927 .0285250
725.656 .0285063
726.386 .0284878
727.116 .0284693
727.845 .0284499
728.574 .0284300
729.303 .0284096
730.031 .0283892
730.760 .0283687
731.488 .0283485
732.216 .0283293
732.944 .0283112
733.671 .0282936
734.398 .0282769
735.125 .0282613
735.852 .0282469
736.579 .0282329
737.305 .0282195
738.031 .0282071
738.757 .0281950
739.483 .0281829
740.208 .0281711
740.933 .0281595
741.658 .0281481
742.383 .0281364
743.108 .0281244
743.832 .0281120
744.556 .0280995
745.280 .0280867
746.004 .0280739
746.727 .0280612
747.450 .0280483
748.173 .0280345
748.896 .0280209
749.618 .0280069
750.340 .0279923
751.062 .0279773
751.784 .0279625
752.506 .0279481
753.227 .0279342
753.948 .0279208
754.669 .0279088
755.389 .0278982
756.110 .0278884
756.830 .0278784
757.550 .0278686
758.269 .0278584
758.989 .0278475
759.708 .0278357
760.427 .0278234
761.146 .0278107
761.864 .0277981
762.582 .0277858
763.300 .0277737
764.018 .0277619
764.736 .0277500
765.453 .0277377
766.170 .0277249
766.887 .0277111
767.603 .0276964
768.320 .0276817
769.036 .0276674
769.751 .0276538
770.467 .0276409
771.182 .0276294
771.897 .0276187
772.612 .0276090
773.327 .0275996
774.041 .0275902
774.755 .0275804
775.469 .0275702
776.183 .0275593
776.896 .0275481
777.609 .0275368
778.322 .0275261
779.035 .0275161
779.747 .0275073
780.459 .0274995
781.171 .0274931
781.882 .0274876
782.594 .0274830
783.305 .0274790
784.016 .0274751
784.726 .0274710
785.436 .0274671
786.147 .0274626
786.856 .0274587
787.566 .0274550
788.275 .0274516
788.984 .0274483
789.693 .0274454
790.401 .0274423
791.110 .0274387
791.818 .0274344
792.525 .0274290
793.233 .0274218
793.940 .0274134
794.647 .0274032
795.353 .0273919
796.060 .0273801
796.766 .0273678
797.472 .0273547
798.177 .0273421
798.883 .0273293
799.588 .0273166
800.292 .0273040
800.997 .0272917
801.701 .0272791
802.405 .0272663
803.109 .0272535
803.812 .0272407
804.515 .0272281
805.218 .0272156
805.921 .0272032
806.623 .0271913
807.325 .0271799
808.027 .0271692
808.728 .0271589
809.429 .0271491
810.130 .0271393
810.831 .0271288
811.531 .0271177
812.231 .0271057
812.931 .0270925
813.630 .0270780
814.330 .0270623
815.029 .0270457
815.727 .0270279
816.426 .0270097
817.124 .0269910
817.821 .0269717
818.519 .0269523
819.216 .0269326
819.913 .0269128
820.609 .0268938
821.306 .0268757
822.002 .0268588
822.697 .0268437
823.393 .0268307
824.088 .0268195
824.783 .0268103
825.477 .0268028
826.171 .0267969
826.865 .0267919
827.559 .0267879
828.252 .0267839
828.945 .0267805
829.638 .0267771
830.330 .0267739
831.023 .0267704
831.714 .0267665
832.406 .0267622
833.097 .0267571
833.788 .0267506
834.479 .0267431
835.169 .0267343
835.859 .0267246
836.548 .0267138
837.238 .0267027
837.927 .0266906
838.615 .0266784
839.304 .0266659
839.992 .0266534
840.680 .0266408
841.367 .0266281
842.054 .0266152
842.741 .0266025
843.428 .0265901
844.114 .0265780
844.800 .0265664
845.485 .0265552
846.170 .0265437
846.855 .0265318
847.540 .0265191
848.224 .0265058
848.908 .0264920
849.592 .0264778
850.275 .0264632
850.958 .0264487
851.641 .0264342
852.323 .0264197
853.005 .0264058
853.687 .0263917
854.368 .0263775
855.049 .0263631
855.730 .0263481
856.410 .0263321
857.090 .0263154
857.769 .0262983
858.449 .0262808
859.128 .0262635
859.806 .0262465
860.485 .0262301
861.163 .0262148
861.840 .0262004
862.518 .0261861
863.195 .0261724
863.871 .0261584
864.548 .0261435
865.224 .0261280
865.899 .0261117
866.574 .0260951
867.249 .0260783
867.924 .0260620
868.598 .0260462
869.272 .0260311
869.946 .0260172
870.619 .0260038
871.292 .0259912
871.964 .0259791
872.636 .0259670
873.308 .0259550
873.979 .0259436
874.651 .0259321
875.321 .0259209
875.992 .0259103
876.662 .0259001
877.331 .0258901
878.001 .0258802
878.670 .0258700
879.338 .0258594
880.007 .0258485
880.675 .0258375
881.342 .0258259
882.009 .0258149
882.676 .0258037
883.343 .0257928
884.009 .0257824
884.675 .0257724
885.340 .0257624
886.005 .0257528
886.670 .0257435
887.334 .0257350
887.998 .0257278
888.662 .0257222
889.325 .0257180
889.988 .0257157
890.650 .0257152
891.312 .0257163
891.974 .0257186
892.636 .0257219
893.297 .0257258
893.957 .0257302
894.618 .0257345
895.278 .0257386
895.937 .0257426
896.596 .0257463
897.255 .0257498
897.914 .0257527
898.572 .0257547
899.230 .0257558
899.887 .0257558
900.544 .0257549
901.201 .0257531
901.857 .0257502
902.513 .0257465
903.168 .0257419
903.823 .0257370
904.478 .0257310
905.132 .0257240
905.786 .0257159
906.440 .0257065
907.093 .0256960
907.746 .0256844
908.399 .0256721
909.051 .0256595
909.703 .0256466
910.354 .0256331
911.005 .0256192
911.656 .0256044
912.306 .0255890
912.956 .0255732
913.605 .0255566
914.254 .0255396
914.903 .0255225
915.551 .0255058
916.199 .0254899
916.847 .0254747
917.494 .0254609
918.141 .0254479
918.788 .0254356
919.434 .0254241
920.079 .0254125
920.725 .0254013
921.370 .0253899
922.014 .0253784
922.658 .0253667
923.302 .0253550
923.946 .0253433
924.589 .0253313
925.231 .0253192
925.873 .0253070
926.515 .0252945
927.157 .0252817
927.798 .0252682
928.439 .0252539
929.079 .0252391
929.719 .0252237
930.359 .0252077
930.998 .0251914
931.637 .0251748
932.275 .0251583
932.913 .0251421
933.551 .0251265
934.188 .0251118
934.825 .0250984
935.462 .0250864
936.098 .0250749
936.733 .0250641
937.369 .0250535
938.004 .0250434
938.638 .0250333
939.273 .0250236
939.907 .0250144
940.540 .0250061
941.173 .0249989
941.806 .0249933
942.438 .0249891
943.070 .0249865
943.702 .0249842
944.333 .0249823
944.964 .0249799
945.594 .0249773
946.224 .0249741
946.854 .0249718
947.483 .0249701
948.112 .0249697
948.741 .0249703
949.369 .0249729
949.996 .0249763
950.624 .0249805
951.251 .0249845
951.878 .0249880
952.504 .0249907
953.130 .0249928
953.755 .0249940
954.380 .0249946
955.005 .0249948
955.629 .0249946
956.253 .0249932
956.877 .0249910
957.500 .0249872
958.123 .0249819
958.746 .0249748
959.368 .0249660
959.990 .0249551
960.611 .0249431
961.232 .0249307
961.853 .0249184
962.473 .0249060
963.093 .0248945
963.712 .0248827
964.331 .0248710
964.950 .0248596
965.569 .0248481
966.187 .0248371
966.804 .0248272
967.422 .0248190
968.039 .0248128
968.655 .0248085
969.272 .0248061
969.887 .0248048
970.503 .0248047
971.118 .0248044
971.733 .0248027
972.347 .0247999
972.961 .0247962
973.575 .0247920
974.188 .0247871
974.801 .0247825
975.414 .0247780
976.026 .0247738
976.638 .0247691
977.250 .0247634
977.861 .0247562
978.472 .0247476
979.083 .0247371
979.693 .0247248
980.303 .0247112
980.912 .0246965
981.521 .0246816
982.130 .0246671
982.738 .0246534
983.346 .0246403
983.954 .0246274
984.562 .0246154
985.169 .0246036
985.775 .0245915
986.382 .0245792
986.988 .0245665
987.594 .0245537
988.199 .0245402
988.804 .0245266
989.409 .0245132
990.013 .0245007
990.617 .0244893
991.221 .0244788
991.824 .0244697
992.427 .0244623
993.030 .0244559
993.632 .0244508
994.234 .0244468
994.836 .0244433
995.438 .0244403
996.039 .0244381
996.640 .0244363
997.240 .0244355
997.840 .0244357
998.440 .0244369
999.040 .0244387
999.639 .0244409
1000.238 .0244427
1000.836 .0244436
1001.435 .0244440
1002.033 .0244424
1002.630 .0244390
1003.228 .0244341
1003.825 .0244279
1004.422 .0244211
1005.018 .0244140
1005.614 .0244075
1006.210 .0244015
1006.806 .0243963
1007.401 .0243915
1007.996 .0243863
1008.591 .0243816
1009.186 .0243764
1009.780 .0243712
1010.374 .0243657
1010.967 .0243603
1011.561 .0243555
1012.154 .0243515
1012.746 .0243480
1013.339 .0243455
1013.931 .0243431
1014.523 .0243409
1015.115 .0243382
1015.706 .0243349
1016.298 .0243307
1016.888 .0243264
1017.479 .0243220
1018.069 .0243182
1018.660 .0243145
1019.250 .0243122
1019.839 .0243105
1020.429 .0243099
1021.018 .0243102
1021.607 .0243107
1022.195 .0243122
1022.784 .0243146
1023.372 .0243176
1023.960 .0243219
1024.547 .0243275
1025.135 .0243357
1025.722 .0243451
1026.309 .0243550
1026.896 .0243650
1027.483 .0243741
1028.069 .0243824
1028.655 .0243895
1029.241 .0243952
1029.827 .0244004
1030.412 .0244053
1030.997 .0244099
1031.582 .0244141
1032.167 .0244178
1032.752 .0244206
1033.336 .0244216
1033.921 .0244205
1034.505 .0244166
1035.089 .0244095
1035.672 .0244010
1036.256 .0243913
1036.839 .0243806
1037.422 .0243699
1038.005 .0243595
1038.588 .0243498
1039.171 .0243411
1039.753 .0243335
1040.335 .0243270
1040.918 .0243221
1041.500 .0243200
1042.081 .0243193
1042.663 .0243205
1043.244 .0243236
1043.826 .0243278
1044.407 .0243324
1044.988 .0243362
1045.569 .0243380
1046.150 .0243382
1046.730 .0243367
1047.311 .0243331
1047.891 .0243284
1048.471 .0243233
1049.052 .0243175
1049.632 .0243101
1050.211 .0243014
1050.791 .0242912
1051.371 .0242793
1051.950 .0242672
1052.530 .0242543
1053.109 .0242422
1053.688 .0242310
1054.268 .0242208
1054.847 .0242129
1055.426 .0242070
1056.005 .0242030
1056.583 .0242007
1057.162 .0242003
1057.741 .0242012
1058.319 .0242025
1058.898 .0242048
1059.476 .0242083
1060.055 .0242121
1060.633 .0242151
1061.211 .0242171
1061.790 .0242176
1062.368 .0242183
1062.946 .0242180
1063.524 .0242179
1064.102 .0242205
1064.680 .0242248
1065.258 .0242311
1065.836 .0242384
1066.414 .0242471
1066.992 .0242562
1067.570 .0242639
1068.148 .0242707
1068.726 .0242744
1069.304 .0242768
1069.882 .0242792
1070.460 .0242815
1071.038 .0242844
1071.616 .0242882
1072.194 .0242908
1072.772 .0242915
1073.350 .0242896
1073.928 .0242842
1074.506 .0242749
1075.084 .0242639
1075.662 .0242518
1076.240 .0242401
1076.819 .0242296
1077.397 .0242220
1077.976 .0242167
1078.554 .0242153
1079.133 .0242162
1079.711 .0242171
1080.290 .0242188
1080.869 .0242202
1081.448 .0242205
1082.027 .0242202
1082.606 .0242195
1083.185 .0242192
1083.764 .0242189
1084.343 .0242208
1084.923 .0242232
1085.502 .0242285
1086.082 .0242360
1086.662 .0242451
1087.242 .0242555
1087.822 .0242662
1088.402 .0242757
1088.983 .0242839
1089.563 .0242906
1090.144 .0242963
1090.725 .0242999
1091.306 .0243037
1091.887 .0243070
1092.469 .0243122
1093.050 .0243190
1093.632 .0243275
1094.214 .0243378
1094.796 .0243511
1095.379 .0243643
1095.961 .0243783
1096.544 .0243926
1097.127 .0244067
1097.710 .0244212
1098.294 .0244359
1098.877 .0244502
1099.461 .0244656
1100.046 .0244826
1100.630 .0245018
1101.215 .0245227
1101.800 .0245479
1102.385 .0245737
1102.970 .0246002
1103.556 .0246266
1104.142 .0246501
1104.728 .0246702
1105.315 .0246885
1105.902 .0247028
1106.489 .0247136
1107.077 .0247232
1107.664 .0247335
1108.253 .0247460
1108.841 .0247641
1109.430 .0247867
1110.019 .0248128
1110.609 .0248423
1111.198 .0248747
1111.789 .0249087
1112.379 .0249461
1112.970 .0249859
1113.561 .0250282
1114.153 .0250742
1114.745 .0251230
1115.338 .0251740
1115.931 .0252283
1116.524 .0252847
1117.117 .0253412
1117.712 .0253961
1118.306 .0254513
1118.901 .0255074
1119.496 .0255649
1120.092 .0256230
1120.689 .0256835
1121.285 .0257426
1121.882 .0257967
1122.480 .0258458
1123.078 .0258889
1123.677 .0259245
1124.276 .0259508
1124.875 .0259701
1125.476 .0259847
1126.076 .0259981
1126.677 .0260132
1127.279 .0260315
1127.881 .0260578
1128.484 .0260894
1129.087 .0261206
1129.691 .0261543
1130.295 .0261910
1130.900 .0262285
1131.505 .0262683
1132.111 .0263169
1132.718 .0263742
1133.325 .0264474
1133.933 .0265337
1134.541 .0266356
1135.150 .0267491
1135.760 .0268727
1136.370 .0270015
1136.981 .0271338
1137.592 .0272696
1138.204 .0274074
1138.817 .0275481
1139.431 .0276949
1140.045 .0278399
1140.660 .0279806
1141.275 .0281314
1141.891 .0283048
1142.508 .0284905
1143.126 .0285497
1143.744 .0284813
1144.363 .0290879
1144.983 .0297204
