Measurement Sequence started on: 15-12-46-377
Integration time: 28
Scans to Average: 2 
>>>>>Begin Spectral Data<<<<<
432.689 .0000100
433.621 .0000100
434.552 .0000100
435.482 .0000100
436.410 .0000100
437.337 .0000100
438.262 .0275125
439.187 .0583048
440.110 .0965575
441.031 .1397212
441.952 .1816094
442.871 .2146152
443.789 .2327504
444.705 .2339689
445.621 .2207847
446.535 .1986944
447.447 .1736579
448.359 .1352149
449.269 .1161717
450.178 .1041086
451.086 .0954972
451.993 .0888635
452.898 .0835337
453.803 .0791471
454.706 .0754979
455.608 .0724026
456.508 .0697320
457.408 .0674215
458.306 .0653566
459.204 .0634935
460.100 .0617789
460.995 .0601958
461.888 .0587365
462.781 .0573993
463.673 .0561894
464.563 .0551197
465.452 .0541709
466.340 .0533378
467.228 .0526202
468.114 .0520173
468.999 .0515083
469.882 .0510705
470.765 .0506848
471.647 .0503327
472.528 .0500086
473.407 .0497043
474.286 .0494222
475.163 .0491645
476.040 .0489321
476.915 .0487221
477.790 .0485430
478.663 .0483855
479.535 .0482457
480.407 .0481295
481.277 .0480263
482.147 .0479317
483.015 .0478349
483.883 .0477294
484.749 .0476256
485.615 .0475260
486.479 .0474404
487.343 .0473707
488.206 .0473337
489.067 .0473202
489.928 .0473342
490.788 .0473809
491.647 .0474502
492.505 .0475436
493.362 .0476582
494.218 .0477887
495.073 .0479286
495.928 .0480836
496.781 .0482481
497.634 .0484329
498.486 .0486506
499.337 .0488907
500.187 .0491584
501.036 .0494598
501.884 .0497962
502.731 .0501599
503.578 .0505560
504.424 .0509840
505.268 .0514279
506.113 .0519004
506.956 .0523950
507.798 .0529209
508.640 .0535004
509.480 .0541484
510.320 .0548840
511.160 .0557159
511.998 .0566615
512.836 .0577176
513.672 .0588907
514.508 .0601911
515.344 .0615994
516.178 .0631437
517.012 .0648475
517.845 .0667577
518.677 .0689197
519.508 .0713759
520.339 .0741828
521.169 .0773905
521.998 .0810342
522.826 .0851253
523.654 .0897076
524.481 .0948149
525.307 .1004704
526.133 .1066862
526.958 .1134283
527.782 .1207082
528.605 .1283420
529.428 .1362828
530.250 .1439561
531.072 .1511714
531.892 .1574262
532.712 .1623898
533.532 .1657990
534.350 .1674129
535.168 .1670653
535.986 .1648622
536.802 .1609049
537.618 .1555181
538.434 .1489145
539.249 .1416617
540.063 .1339175
540.876 .1261501
541.689 .1185334
542.501 .1113004
543.313 .1046045
544.124 .0985641
544.934 .0930795
545.744 .0881357
546.553 .0836845
547.361 .0797068
548.169 .0761779
548.976 .0730506
549.783 .0702633
550.589 .0677929
551.395 .0655690
552.200 .0635594
553.004 .0617259
553.808 .0600418
554.611 .0584990
555.414 .0570960
556.216 .0558176
557.018 .0546758
557.819 .0536375
558.619 .0526866
559.419 .0518000
560.218 .0509669
561.017 .0501653
561.815 .0493759
562.613 .0486045
563.410 .0478413
564.207 .0470907
565.003 .0463564
565.799 .0456434
566.594 .0449560
567.388 .0443009
568.182 .0436652
568.976 .0430471
569.769 .0424558
570.562 .0418797
571.354 .0413180
572.145 .0407781
572.936 .0402589
573.727 .0397593
574.517 .0392869
575.307 .0388405
576.096 .0384227
576.885 .0380390
577.673 .0376862
578.461 .0373587
579.248 .0370551
580.035 .0367738
580.821 .0365064
581.607 .0362497
582.392 .0360014
583.177 .0357615
583.962 .0355333
584.746 .0353229
585.529 .0351273
586.313 .0349527
587.095 .0348001
587.878 .0346630
588.660 .0345403
589.441 .0344280
590.222 .0343235
591.003 .0342262
591.783 .0341330
592.563 .0340426
593.342 .0339572
594.121 .0338778
594.899 .0338041
595.678 .0337374
596.455 .0336773
597.233 .0336215
598.009 .0335697
598.786 .0335224
599.562 .0334756
600.338 .0334297
601.113 .0333844
601.888 .0333375
602.663 .0332896
603.437 .0332405
604.211 .0331897
604.984 .0331381
605.757 .0330870
606.530 .0330352
607.302 .0329846
608.074 .0329356
608.845 .0328883
609.616 .0328427
610.387 .0327998
611.158 .0327584
611.928 .0327174
612.697 .0326767
613.467 .0326358
614.236 .0325949
615.004 .0325554
615.773 .0325180
616.541 .0324835
617.308 .0324528
618.076 .0324264
618.843 .0324041
619.609 .0323861
620.375 .0323703
621.141 .0323561
621.907 .0323425
622.672 .0323281
623.437 .0323121
624.202 .0322945
624.966 .0322760
625.730 .0322568
626.493 .0322367
627.257 .0322160
628.020 .0321948
628.782 .0321725
629.545 .0321482
630.307 .0321206
631.068 .0320902
631.830 .0320566
632.591 .0320191
633.352 .0319794
634.112 .0319385
634.872 .0318976
635.632 .0318575
636.392 .0318187
637.151 .0317825
637.910 .0317481
638.668 .0317166
639.427 .0316871
640.185 .0316594
640.943 .0316330
641.700 .0316074
642.457 .0315824
643.214 .0315579
643.971 .0315335
644.727 .0315098
645.483 .0314867
646.239 .0314645
646.994 .0314421
647.750 .0314198
648.505 .0313979
649.259 .0313765
650.014 .0313542
650.768 .0313310
651.521 .0313071
652.275 .0312826
653.028 .0312571
653.781 .0312309
654.534 .0312043
655.286 .0311779
656.039 .0311519
656.791 .0311270
657.542 .0311025
658.294 .0310790
659.045 .0310566
659.796 .0310346
660.546 .0310123
661.297 .0309887
662.047 .0309635
662.796 .0309368
663.546 .0309091
664.295 .0308807
665.044 .0308520
665.793 .0308246
666.542 .0307988
667.290 .0307744
668.038 .0307507
668.786 .0307273
669.533 .0307036
670.281 .0306795
671.028 .0306543
671.774 .0306279
672.521 .0306013
673.267 .0305756
674.013 .0305510
674.759 .0305273
675.505 .0305052
676.250 .0304843
676.995 .0304639
677.740 .0304438
678.484 .0304234
679.229 .0304027
679.973 .0303827
680.717 .0303630
681.460 .0303439
682.204 .0303255
682.947 .0303078
683.690 .0302908
684.433 .0302745
685.175 .0302587
685.917 .0302432
686.659 .0302288
687.401 .0302156
688.142 .0302031
688.884 .0301921
689.625 .0301818
690.365 .0301717
691.106 .0301610
691.846 .0301491
692.586 .0301357
693.326 .0301208
694.066 .0301046
694.805 .0300874
695.545 .0300691
696.284 .0300507
697.022 .0300311
697.761 .0300108
698.499 .0299890
699.237 .0299652
699.975 .0299397
700.713 .0299129
701.450 .0298853
702.187 .0298574
702.924 .0298305
703.661 .0298054
704.397 .0297821
705.133 .0297608
705.869 .0297413
706.605 .0297237
707.341 .0297069
708.076 .0296904
708.811 .0296737
709.546 .0296572
710.281 .0296408
711.015 .0296240
711.749 .0296071
712.483 .0295897
713.217 .0295719
713.950 .0295526
714.684 .0295321
715.417 .0295099
716.150 .0294864
716.882 .0294616
717.615 .0294357
718.347 .0294093
719.079 .0293828
719.811 .0293568
720.542 .0293315
721.273 .0293067
722.005 .0292824
722.735 .0292587
723.466 .0292361
724.196 .0292143
724.927 .0291934
725.656 .0291735
726.386 .0291547
727.116 .0291368
727.845 .0291194
728.574 .0291020
729.303 .0290849
730.031 .0290676
730.760 .0290501
731.488 .0290322
732.216 .0290142
732.944 .0289966
733.671 .0289793
734.398 .0289623
735.125 .0289458
735.852 .0289301
736.579 .0289152
737.305 .0289012
738.031 .0288880
738.757 .0288754
739.483 .0288636
740.208 .0288524
740.933 .0288415
741.658 .0288307
742.383 .0288202
743.108 .0288096
743.832 .0287987
744.556 .0287876
745.280 .0287761
746.004 .0287649
746.727 .0287534
747.450 .0287418
748.173 .0287297
748.896 .0287177
749.618 .0287053
750.340 .0286927
751.062 .0286802
751.784 .0286674
752.506 .0286540
753.227 .0286402
753.948 .0286258
754.669 .0286109
755.389 .0285961
756.110 .0285815
756.830 .0285671
757.550 .0285532
758.269 .0285393
758.989 .0285254
759.708 .0285114
760.427 .0284973
761.146 .0284822
761.864 .0284665
762.582 .0284504
763.300 .0284336
764.018 .0284173
764.736 .0284019
765.453 .0283875
766.170 .0283741
766.887 .0283619
767.603 .0283506
768.320 .0283399
769.036 .0283300
769.751 .0283204
770.467 .0283112
771.182 .0283027
771.897 .0282944
772.612 .0282866
773.327 .0282796
774.041 .0282735
774.755 .0282674
775.469 .0282619
776.183 .0282564
776.896 .0282509
777.609 .0282459
778.322 .0282412
779.035 .0282362
779.747 .0282315
780.459 .0282273
781.171 .0282229
781.882 .0282189
782.594 .0282154
783.305 .0282120
784.016 .0282095
784.726 .0282075
785.436 .0282054
786.147 .0282037
786.856 .0282026
787.566 .0282011
788.275 .0281989
788.984 .0281966
789.693 .0281933
790.401 .0281896
791.110 .0281856
791.818 .0281811
792.525 .0281762
793.233 .0281715
793.940 .0281660
794.647 .0281599
795.353 .0281534
796.060 .0281458
796.766 .0281372
797.472 .0281280
798.177 .0281177
798.883 .0281070
799.588 .0280962
800.292 .0280858
800.997 .0280749
801.701 .0280639
802.405 .0280522
803.109 .0280398
803.812 .0280264
804.515 .0280115
805.218 .0279951
805.921 .0279781
806.623 .0279602
807.325 .0279419
808.027 .0279233
808.728 .0279047
809.429 .0278862
810.130 .0278674
810.831 .0278486
811.531 .0278296
812.231 .0278104
812.931 .0277917
813.630 .0277730
814.330 .0277546
815.029 .0277362
815.727 .0277181
816.426 .0277003
817.124 .0276822
817.821 .0276638
818.519 .0276453
819.216 .0276271
819.913 .0276092
820.609 .0275915
821.306 .0275746
822.002 .0275585
822.697 .0275431
823.393 .0275288
824.088 .0275152
824.783 .0275021
825.477 .0274901
826.171 .0274791
826.865 .0274696
827.559 .0274617
828.252 .0274555
828.945 .0274513
829.638 .0274483
830.330 .0274460
831.023 .0274434
831.714 .0274405
832.406 .0274372
833.097 .0274324
833.788 .0274261
834.479 .0274185
835.169 .0274100
835.859 .0274009
836.548 .0273910
837.238 .0273812
837.927 .0273708
838.615 .0273600
839.304 .0273486
839.992 .0273367
840.680 .0273243
841.367 .0273116
842.054 .0272987
842.741 .0272857
843.428 .0272724
844.114 .0272592
844.800 .0272461
845.485 .0272336
846.170 .0272214
846.855 .0272095
847.540 .0271976
848.224 .0271860
848.908 .0271739
849.592 .0271618
850.275 .0271492
850.958 .0271362
851.641 .0271224
852.323 .0271081
853.005 .0270929
853.687 .0270769
854.368 .0270605
855.049 .0270435
855.730 .0270258
856.410 .0270071
857.090 .0269874
857.769 .0269666
858.449 .0269447
859.128 .0269220
859.806 .0268979
860.485 .0268736
861.163 .0268492
861.840 .0268252
862.518 .0268018
863.195 .0267791
863.871 .0267578
864.548 .0267374
865.224 .0267182
865.899 .0266999
866.574 .0266829
867.249 .0266673
867.924 .0266529
868.598 .0266398
869.272 .0266283
869.946 .0266179
870.619 .0266090
871.292 .0266015
871.964 .0265949
872.636 .0265893
873.308 .0265843
873.979 .0265797
874.651 .0265756
875.321 .0265711
875.992 .0265666
876.662 .0265618
877.331 .0265577
878.001 .0265539
878.670 .0265509
879.338 .0265495
880.007 .0265494
880.675 .0265505
881.342 .0265525
882.009 .0265548
882.676 .0265572
883.343 .0265590
884.009 .0265602
884.675 .0265607
885.340 .0265607
886.005 .0265600
886.670 .0265594
887.334 .0265594
887.998 .0265599
888.662 .0265607
889.325 .0265624
889.988 .0265642
890.650 .0265664
891.312 .0265687
891.974 .0265713
892.636 .0265746
893.297 .0265787
893.957 .0265833
894.618 .0265883
895.278 .0265941
895.937 .0265998
896.596 .0266055
897.255 .0266115
897.914 .0266168
898.572 .0266218
899.230 .0266264
899.887 .0266310
900.544 .0266348
901.201 .0266381
901.857 .0266407
902.513 .0266422
903.168 .0266423
903.823 .0266406
904.478 .0266374
905.132 .0266327
905.786 .0266268
906.440 .0266197
907.093 .0266115
907.746 .0266025
908.399 .0265930
909.051 .0265828
909.703 .0265721
910.354 .0265610
911.005 .0265494
911.656 .0265377
912.306 .0265259
912.956 .0265133
913.605 .0265006
914.254 .0264879
914.903 .0264754
915.551 .0264624
916.199 .0264500
916.847 .0264380
917.494 .0264267
918.141 .0264164
918.788 .0264067
919.434 .0263976
920.079 .0263893
920.725 .0263810
921.370 .0263725
922.014 .0263634
922.658 .0263538
923.302 .0263436
923.946 .0263332
924.589 .0263220
925.231 .0263100
925.873 .0262973
926.515 .0262843
927.157 .0262702
927.798 .0262554
928.439 .0262395
929.079 .0262226
929.719 .0262051
930.359 .0261865
930.998 .0261674
931.637 .0261483
932.275 .0261292
932.913 .0261100
933.551 .0260909
934.188 .0260719
934.825 .0260529
935.462 .0260344
936.098 .0260165
936.733 .0259992
937.369 .0259828
938.004 .0259675
938.638 .0259531
939.273 .0259393
939.907 .0259261
940.540 .0259134
941.173 .0259014
941.806 .0258902
942.438 .0258799
943.070 .0258708
943.702 .0258628
944.333 .0258556
944.964 .0258486
945.594 .0258417
946.224 .0258344
946.854 .0258265
947.483 .0258182
948.112 .0258100
948.741 .0258023
949.369 .0257958
949.996 .0257905
950.624 .0257864
951.251 .0257829
951.878 .0257792
952.504 .0257742
953.130 .0257676
953.755 .0257589
954.380 .0257487
955.005 .0257371
955.629 .0257248
956.253 .0257125
956.877 .0257009
957.500 .0256898
958.123 .0256793
958.746 .0256682
959.368 .0256560
959.990 .0256421
960.611 .0256266
961.232 .0256098
961.853 .0255926
962.473 .0255759
963.093 .0255604
963.712 .0255462
964.331 .0255335
964.950 .0255213
965.569 .0255096
966.187 .0254979
966.804 .0254857
967.422 .0254728
968.039 .0254598
968.655 .0254471
969.272 .0254350
969.887 .0254234
970.503 .0254126
971.118 .0254023
971.733 .0253922
972.347 .0253816
972.961 .0253706
973.575 .0253590
974.188 .0253468
974.801 .0253339
975.414 .0253207
976.026 .0253067
976.638 .0252920
977.250 .0252764
977.861 .0252602
978.472 .0252434
979.083 .0252252
979.693 .0252059
980.303 .0251862
980.912 .0251655
981.521 .0251441
982.130 .0251215
982.738 .0250985
983.346 .0250746
983.954 .0250500
984.562 .0250245
985.169 .0249983
985.775 .0249716
986.382 .0249451
986.988 .0249188
987.594 .0248936
988.199 .0248691
988.804 .0248462
989.409 .0248245
990.013 .0248041
990.617 .0247839
991.221 .0247643
991.824 .0247450
992.427 .0247269
993.030 .0247091
993.632 .0246925
994.234 .0246773
994.836 .0246636
995.438 .0246513
996.039 .0246403
996.640 .0246305
997.240 .0246219
997.840 .0246143
998.440 .0246078
999.040 .0246011
999.639 .0245950
1000.238 .0245886
1000.836 .0245824
1001.435 .0245762
1002.033 .0245699
1002.630 .0245629
1003.228 .0245561
1003.825 .0245497
1004.422 .0245433
1005.018 .0245375
1005.614 .0245325
1006.210 .0245278
1006.806 .0245235
1007.401 .0245192
1007.996 .0245151
1008.591 .0245113
1009.186 .0245085
1009.780 .0245063
1010.374 .0245049
1010.967 .0245040
1011.561 .0245036
1012.154 .0245035
1012.746 .0245039
1013.339 .0245047
1013.931 .0245052
1014.523 .0245064
1015.115 .0245083
1015.706 .0245111
1016.298 .0245152
1016.888 .0245200
1017.479 .0245254
1018.069 .0245306
1018.660 .0245352
1019.250 .0245386
1019.839 .0245409
1020.429 .0245430
1021.018 .0245450
1021.607 .0245474
1022.195 .0245506
1022.784 .0245542
1023.372 .0245587
1023.960 .0245639
1024.547 .0245692
1025.135 .0245739
1025.722 .0245782
1026.309 .0245817
1026.896 .0245850
1027.483 .0245878
1028.069 .0245908
1028.655 .0245945
1029.241 .0245998
1029.827 .0246065
1030.412 .0246140
1030.997 .0246229
1031.582 .0246332
1032.167 .0246446
1032.752 .0246574
1033.336 .0246703
1033.921 .0246844
1034.505 .0246992
1035.089 .0247141
1035.672 .0247285
1036.256 .0247430
1036.839 .0247561
1037.422 .0247683
1038.005 .0247793
1038.588 .0247888
1039.171 .0247963
1039.753 .0248029
1040.335 .0248079
1040.918 .0248116
1041.500 .0248146
1042.081 .0248163
1042.663 .0248175
1043.244 .0248192
1043.826 .0248205
1044.407 .0248219
1044.988 .0248250
1045.569 .0248293
1046.150 .0248351
1046.730 .0248421
1047.311 .0248501
1047.891 .0248587
1048.471 .0248680
1049.052 .0248763
1049.632 .0248837
1050.211 .0248914
1050.791 .0248988
1051.371 .0249057
1051.950 .0249151
1052.530 .0249257
1053.109 .0249371
1053.688 .0249490
1054.268 .0249604
1054.847 .0249697
1055.426 .0249778
1056.005 .0249832
1056.583 .0249877
1057.162 .0249929
1057.741 .0249988
1058.319 .0250053
1058.898 .0250153
1059.476 .0250274
1060.055 .0250400
1060.633 .0250526
1061.211 .0250647
1061.790 .0250744
1062.368 .0250818
1062.946 .0250870
1063.524 .0250902
1064.102 .0250934
1064.680 .0250974
1065.258 .0251012
1065.836 .0251081
1066.414 .0251170
1066.992 .0251282
1067.570 .0251417
1068.148 .0251562
1068.726 .0251710
1069.304 .0251862
1069.882 .0252023
1070.460 .0252180
1071.038 .0252326
1071.616 .0252471
1072.194 .0252607
1072.772 .0252746
1073.350 .0252887
1073.928 .0253023
1074.506 .0253160
1075.084 .0253290
1075.662 .0253392
1076.240 .0253479
1076.819 .0253543
1077.397 .0253585
1077.976 .0253631
1078.554 .0253678
1079.133 .0253729
1079.711 .0253778
1080.290 .0253851
1080.869 .0253933
1081.448 .0254011
1082.027 .0254097
1082.606 .0254172
1083.185 .0254253
1083.764 .0254348
1084.343 .0254444
1084.923 .0254574
1085.502 .0254742
1086.082 .0254954
1086.662 .0255188
1087.242 .0255458
1087.822 .0255730
1088.402 .0255992
1088.983 .0256248
1089.563 .0256487
1090.144 .0256691
1090.725 .0256887
1091.306 .0257072
1091.887 .0257264
1092.469 .0257477
1093.050 .0257722
1093.632 .0257994
1094.214 .0258311
1094.796 .0258636
1095.379 .0258951
1095.961 .0259227
1096.544 .0259483
1097.127 .0259687
1097.710 .0259865
1098.294 .0260020
1098.877 .0260172
1099.461 .0260348
1100.046 .0260571
1100.630 .0260831
1101.215 .0261131
1101.800 .0261463
1102.385 .0261781
1102.970 .0262058
1103.556 .0262269
1104.142 .0262403
1104.728 .0262491
1105.315 .0262546
1105.902 .0262579
1106.489 .0262613
1107.077 .0262694
1107.664 .0262833
1108.253 .0263023
1108.841 .0263269
1109.430 .0263545
1110.019 .0263825
1110.609 .0264090
1111.198 .0264341
1111.789 .0264521
1112.379 .0264699
1112.970 .0264869
1113.561 .0265060
1114.153 .0265299
1114.745 .0265601
1115.338 .0265970
1115.931 .0266419
1116.524 .0266923
1117.117 .0267431
1117.712 .0267915
1118.306 .0268399
1118.901 .0268823
1119.496 .0269198
1120.092 .0269548
1120.689 .0269899
1121.285 .0270248
1121.882 .0270651
1122.480 .0271083
1123.078 .0271591
1123.677 .0272149
1124.276 .0272735
1124.875 .0273361
1125.476 .0274010
1126.076 .0274697
1126.677 .0275415
1127.279 .0276173
1127.881 .0277005
1128.484 .0277871
1129.087 .0278773
1129.691 .0279720
1130.295 .0280711
1130.900 .0281730
1131.505 .0282796
1132.111 .0283906
1132.718 .0285035
1133.325 .0286159
1133.933 .0287318
1134.541 .0288446
1135.150 .0289552
1135.760 .0290661
1136.370 .0291742
1136.981 .0292815
1137.592 .0293887
1138.204 .0294945
1138.817 .0296047
1139.431 .0297184
1140.045 .0298312
1140.660 .0299499
1141.275 .0300914
1141.891 .0302158
1142.508 .0303403
1143.126 .0303512
1143.744 .0307055
1144.363 .0312763
1144.983 .0304656
