BestFit value for E:\RC_data\Compressed_For_Future_Analysis_Lite\test_shlomo\aqueous_test\GoodSpectraLarge_Full\0012_2025-06-24_09-45-30\Interpretation_History\2025-07-21_16-23-34\ResultsGraphs\BestFit\(Run)spectra_09-46-33-458_BestFit.txt
600.203 0.0587304
600.975 0.0587242
601.747 0.0587178
602.518 0.0587111
603.289 0.0587041
604.059 0.0586968
604.829 0.0586890
605.599 0.0586809
606.369 0.0586723
607.138 0.0586633
607.906 0.0586538
608.675 0.0586439
609.443 0.0586334
610.210 0.0586225
610.977 0.0586111
611.744 0.0585991
612.511 0.0585867
613.277 0.0585738
614.043 0.0585604
614.809 0.0585465
615.574 0.0585322
616.339 0.0585175
617.104 0.0585024
617.868 0.0584869
618.632 0.0584711
619.395 0.0584551
620.159 0.0584388
620.922 0.0584222
621.684 0.0584055
622.447 0.0583887
623.209 0.0583718
623.970 0.0583548
624.732 0.0583377
625.493 0.0583207
626.254 0.0583037
627.014 0.0582867
627.774 0.0582699
628.534 0.0582531
629.294 0.0582363
630.053 0.0582197
630.812 0.0582032
631.571 0.0581868
632.329 0.0581706
633.087 0.0581543
633.845 0.0581382
634.602 0.0581221
635.359 0.0581060
636.116 0.0580899
636.873 0.0580738
637.629 0.0580576
638.385 0.0580413
639.141 0.0580248
639.897 0.0580082
640.652 0.0579913
641.407 0.0579742
642.161 0.0579567
642.916 0.0579390
643.670 0.0579208
644.424 0.0579023
645.177 0.0578833
645.931 0.0578638
646.684 0.0578439
647.436 0.0578235
648.189 0.0578025
648.941 0.0577811
649.693 0.0577591
650.445 0.0577365
651.196 0.0577135
651.947 0.0576900
652.698 0.0576660
653.449 0.0576415
654.199 0.0576166
654.949 0.0575913
655.699 0.0575656
656.449 0.0575395
657.198 0.0575132
657.947 0.0574866
658.696 0.0574598
659.445 0.0574329
660.193 0.0574059
660.941 0.0573788
661.689 0.0573516
662.436 0.0573246
663.184 0.0572975
663.931 0.0572707
664.678 0.0572440
665.424 0.0572175
666.171 0.0571912
666.917 0.0571652
667.663 0.0571395
668.408 0.0571141
669.154 0.0570890
669.899 0.0570643
670.644 0.0570400
671.388 0.0570160
672.133 0.0569924
672.877 0.0569691
673.621 0.0569461
674.365 0.0569234
675.108 0.0569010
675.851 0.0568789
676.594 0.0568569
677.337 0.0568352
678.080 0.0568135
678.822 0.0567920
679.564 0.0567705
680.306 0.0567490
681.047 0.0567275
681.789 0.0567059
682.530 0.0566841
683.271 0.0566620
684.012 0.0566398
684.752 0.0566172
685.492 0.0565943
686.232 0.0565709
686.972 0.0565472
687.712 0.0565229
688.451 0.0564981
689.190 0.0564728
689.929 0.0564469
690.667 0.0564205
691.406 0.0563934
692.144 0.0563657
692.882 0.0563374
693.620 0.0563085
694.357 0.0562790
695.095 0.0562488
695.832 0.0562181
696.569 0.0561868
697.305 0.0561550
698.042 0.0561227
698.778 0.0560899
699.514 0.0560567
700.249 0.0560232
700.985 0.0559892
701.720 0.0559551
702.455 0.0559207
703.190 0.0558861
703.925 0.0558514
704.659 0.0558167
705.393 0.0557821
706.127 0.0557474
706.861 0.0557129
707.595 0.0556786
708.328 0.0556445
709.061 0.0556107
709.794 0.0555773
710.527 0.0555442
711.259 0.0555116
711.991 0.0554794
712.723 0.0554478
713.455 0.0554166
714.186 0.0553861
714.918 0.0553561
715.649 0.0553267
716.380 0.0552979
717.110 0.0552698
717.841 0.0552422
718.571 0.0552152
719.301 0.0551888
720.031 0.0551630
720.760 0.0551377
721.490 0.0551129
722.219 0.0550886
722.948 0.0550648
723.676 0.0550413
724.405 0.0550182
725.133 0.0549954
725.861 0.0549728
726.589 0.0549504
727.317 0.0549281
728.044 0.0549060
728.771 0.0548838
729.498 0.0548615
730.225 0.0548392
730.951 0.0548167
731.677 0.0547939
732.403 0.0547709
733.129 0.0547474
733.855 0.0547236
734.580 0.0546993
735.305 0.0546746
736.030 0.0546492
736.755 0.0546232
737.479 0.0545967
738.203 0.0545694
738.927 0.0545415
739.651 0.0545128
740.375 0.0544833
741.098 0.0544532
741.821 0.0544222
742.544 0.0543905
743.267 0.0543580
743.989 0.0543248
744.711 0.0542908
745.433 0.0542561
746.155 0.0542207
746.877 0.0541847
747.598 0.0541480
748.319 0.0541107
749.040 0.0540729
749.760 0.0540346
750.481 0.0539958
751.201 0.0539566
751.921 0.0539171
752.640 0.0538773
753.360 0.0538373
754.079 0.0537971
754.798 0.0537568
755.517 0.0537165
756.235 0.0536763
756.953 0.0536362
757.671 0.0535963
758.389 0.0535565
759.107 0.0535171
759.824 0.0534781
760.541 0.0534395
761.258 0.0534013
761.974 0.0533638
762.691 0.0533267
763.407 0.0532903
764.123 0.0532546
764.838 0.0532196
765.554 0.0531854
766.269 0.0531519
766.984 0.0531192
767.699 0.0530873
768.413 0.0530563
769.127 0.0530262
769.841 0.0529968
770.555 0.0529683
771.268 0.0529407
771.982 0.0529138
772.694 0.0528879
773.407 0.0528626
774.120 0.0528381
774.832 0.0528144
775.544 0.0527914
776.256 0.0527690
776.967 0.0527472
777.678 0.0527260
778.389 0.0527053
779.100 0.0526850
779.810 0.0526651
780.521 0.0526456
781.231 0.0526263
781.940 0.0526073
782.650 0.0525883
783.359 0.0525695
784.068 0.0525506
784.776 0.0525318
785.485 0.0525127
786.193 0.0524935
786.901 0.0524741
787.609 0.0524543
788.316 0.0524341
789.023 0.0524135
789.730 0.0523924
790.436 0.0523708
791.143 0.0523485
791.849 0.0523256
792.555 0.0523019
793.260 0.0522776
793.965 0.0522524
794.670 0.0522265
795.375 0.0521996
796.080 0.0521719
796.784 0.0521434
797.488 0.0521139
798.191 0.0520835
798.895 0.0520522
799.598 0.0520200
800.301 0.0519868
801.003 0.0519528
801.705 0.0519178
802.408 0.0518820
803.109 0.0518453
803.811 0.0518078
804.512 0.0517695
805.213 0.0517305
805.913 0.0516907
806.614 0.0516502
807.314 0.0516092
808.014 0.0515675
808.713 0.0515254
809.412 0.0514827
810.111 0.0514397
810.810 0.0513963
811.508 0.0513526
812.206 0.0513087
812.904 0.0512647
813.602 0.0512205
814.299 0.0511763
814.996 0.0511322
815.692 0.0510882
816.389 0.0510444
817.085 0.0510008
817.781 0.0509575
818.476 0.0509146
819.171 0.0508722
819.866 0.0508302
820.561 0.0507888
821.255 0.0507480
821.949 0.0507078
822.643 0.0506684
823.336 0.0506298
824.029 0.0505919
824.722 0.0505549
825.415 0.0505187
826.107 0.0504835
826.799 0.0504493
827.490 0.0504160
828.182 0.0503837
828.873 0.0503524
829.563 0.0503221
830.254 0.0502929
830.944 0.0502647
831.634 0.0502375
832.323 0.0502113
833.012 0.0501862
833.701 0.0501621
834.390 0.0501389
835.078 0.0501168
835.766 0.0500955
836.453 0.0500752
837.141 0.0500557
837.828 0.0500371
838.514 0.0500194
839.201 0.0500023
839.887 0.0499860
840.572 0.0499703
841.258 0.0499552
841.943 0.0499407
842.628 0.0499267
843.312 0.0499132
843.996 0.0499000
844.680 0.0498871
845.363 0.0498746
846.046 0.0498622
846.729 0.0498499
847.412 0.0498377
848.094 0.0498255
848.776 0.0498133
849.457 0.0498010
850.139 0.0497884
850.819 0.0497756
851.500 0.0497625
852.180 0.0497491
852.860 0.0497352
853.540 0.0497208
854.219 0.0497059
854.898 0.0496904
855.576 0.0496743
856.254 0.0496575
856.932 0.0496399
857.610 0.0496216
858.287 0.0496024
858.964 0.0495824
859.640 0.0495616
860.317 0.0495397
860.993 0.0495170
861.668 0.0494933
862.343 0.0494687
863.018 0.0494430
863.693 0.0494163
864.367 0.0493886
865.041 0.0493599
865.714 0.0493302
866.387 0.0492995
867.060 0.0492677
867.732 0.0492350
868.404 0.0492012
869.076 0.0491665
869.748 0.0491308
870.419 0.0490941
871.089 0.0490567
871.760 0.0490183
872.430 0.0489790
873.099 0.0489390
873.769 0.0488982
874.438 0.0488567
875.106 0.0488145
875.774 0.0487717
876.442 0.0487283
877.110 0.0486843
877.777 0.0486399
878.444 0.0485950
879.110 0.0485498
879.776 0.0485042
880.442 0.0484584
881.108 0.0484123
881.773 0.0483661
882.437 0.0483198
883.102 0.0482735
883.766 0.0482272
884.429 0.0481810
885.093 0.0481349
885.755 0.0480891
886.418 0.0480435
887.080 0.0479983
887.742 0.0479534
888.403 0.0479089
889.064 0.0478650
889.725 0.0478215
890.385 0.0477787
891.045 0.0477365
891.705 0.0476950
892.364 0.0476542
893.023 0.0476142
893.682 0.0475750
894.340 0.0475366
894.998 0.0474991
895.655 0.0474626
896.312 0.0474270
896.969 0.0473924
897.625 0.0473588
898.281 0.0473263
898.937 0.0472947
899.592 0.0472643
900.247 0.0472349
900.901 0.0472066
901.555 0.0471794
902.209 0.0471533
902.862 0.0471284
903.515 0.0471045
904.168 0.0470817
904.820 0.0470600
905.472 0.0470394
906.123 0.0470198
906.774 0.0470013
907.425 0.0469839
908.076 0.0469674
908.726 0.0469520
909.375 0.0469375
910.024 0.0469240
910.673 0.0469113
911.322 0.0468995
911.970 0.0468886
912.618 0.0468785
913.265 0.0468691
913.912 0.0468605
914.558 0.0468525
915.205 0.0468452
915.850 0.0468385
916.496 0.0468323
917.141 0.0468266
917.786 0.0468214
918.430 0.0468165
919.074 0.0468120
919.718 0.0468078
920.361 0.0468039
921.004 0.0468001
921.646 0.0467965
922.288 0.0467930
922.930 0.0467895
923.571 0.0467859
924.212 0.0467824
924.853 0.0467787
925.493 0.0467748
926.133 0.0467707
926.772 0.0467663
927.411 0.0467617
928.050 0.0467566
928.688 0.0467511
929.326 0.0467452
929.963 0.0467388
930.600 0.0467318
931.237 0.0467243
931.874 0.0467161
932.510 0.0467072
933.145 0.0466976
933.780 0.0466874
934.415 0.0466763
935.050 0.0466644
935.684 0.0466517
936.318 0.0466381
936.951 0.0466237
937.584 0.0466084
938.217 0.0465921
938.849 0.0465749
939.481 0.0465567
940.112 0.0465376
940.743 0.0465175
941.374 0.0464963
942.004 0.0464742
942.634 0.0464511
943.264 0.0464269
943.893 0.0464018
944.522 0.0463756
945.150 0.0463485
945.778 0.0463203
946.406 0.0462912
947.033 0.0462611
947.660 0.0462300
948.287 0.0461979
948.913 0.0461649
949.539 0.0461310
950.165 0.0460962
950.790 0.0460605
951.414 0.0460241
952.039 0.0459867
952.663 0.0459485
953.286 0.0459097
953.910 0.0458700
954.533 0.0458296
955.155 0.0457886
955.777 0.0457470
956.399 0.0457047
957.020 0.0456619
957.641 0.0456186
958.262 0.0455747
958.882 0.0455305
959.502 0.0454858
960.122 0.0454427
960.741 0.0454074
961.360 0.0453718
961.979 0.0453359
962.597 0.0452998
963.214 0.0452635
963.832 0.0452271
964.449 0.0451906
965.066 0.0451540
965.682 0.0451175
966.298 0.0450810
966.914 0.0450446
967.529 0.0450083
968.144 0.0449722
968.758 0.0449363
969.373 0.0449006
969.986 0.0448653
970.600 0.0448303
971.213 0.0447957
971.826 0.0447615
972.438 0.0447277
973.050 0.0446945
973.662 0.0446617
974.274 0.0446296
974.885 0.0445980
975.495 0.0445671
976.106 0.0445368
976.716 0.0445073
977.325 0.0444785
977.935 0.0444504
978.544 0.0444231
979.152 0.0443966
979.761 0.0443709
980.369 0.0443461
980.976 0.0443222
981.584 0.0442992
982.191 0.0442771
982.797 0.0442559
983.404 0.0442356
984.010 0.0442164
984.615 0.0441981
985.221 0.0441807
985.826 0.0441644
986.430 0.0441490
987.035 0.0441347
987.639 0.0441213
988.243 0.0441089
988.846 0.0440976
989.449 0.0440873
990.052 0.0440779
990.654 0.0440696
991.256 0.0440622
991.858 0.0440559
992.460 0.0440504
993.061 0.0440460
993.662 0.0440425
994.262 0.0440399
994.863 0.0440383
995.463 0.0440376
996.062 0.0440377
996.662 0.0440387
997.261 0.0440406
997.860 0.0440433
998.458 0.0440468
999.056 0.0440510
999.654 0.0440560
1000.252 0.0440581
1000.849 0.0440557
1001.446 0.0440540
1002.043 0.0440530
1002.639 0.0440526
1003.235 0.0440528
1003.831 0.0440536
1004.427 0.0440549
1005.022 0.0440567
1005.617 0.0440590
1006.212 0.0440617
1006.806 0.0440648
1007.401 0.0440682
1007.995 0.0440720
1008.588 0.0440761
1009.182 0.0440804
1009.775 0.0440849
1010.368 0.0440897
1010.96 0.0440945
1011.553 0.0440995
1012.145 0.0441045
1012.737 0.0441096
1013.328 0.0441146
1013.92 0.0441196
1014.511 0.0441246
1015.102 0.0441294
1015.692 0.0441341
1016.283 0.0441385
1016.873 0.0441428
1017.463 0.0441468
1018.052 0.0441505
1018.642 0.0441539
1019.231 0.0441570
1019.82 0.0441597
1020.409 0.0441619
1020.997 0.0441637
1021.585 0.0441650
1022.173 0.0441658
1022.761 0.0441660
1023.349 0.0441657
1023.936 0.0441648
1024.524 0.0441633
1025.111 0.0441612
1025.697 0.0441583
1026.284 0.0441548
1026.87 0.0441506
1027.457 0.0441456
1028.043 0.0441398
1028.628 0.0441333
1029.214 0.0441260
1029.80 0.0441179
1030.385 0.0441090
1030.97 0.0440992
1031.555 0.0440886
1032.139 0.0440771
1032.724 0.0440647
1033.308 0.0440514
1033.893 0.0440373
1034.477 0.0440222
1035.06 0.0440062
1035.644 0.0439893
1036.228 0.0439715
1036.811 0.0439528
1037.394 0.0439331
1037.977 0.0439125
1038.56 0.0438910
1039.143 0.0438686
1039.726 0.0438452
1040.308 0.0438209
1040.891 0.0437957
1041.473 0.0437696
1042.055 0.0437426
1042.637 0.0437147
1043.219 0.0436860
1043.801 0.0436563
1044.382 0.0436258
1044.964 0.0435945
1045.545 0.0435623
1046.127 0.0435293
1046.708 0.0434955
1047.289 0.0434609
1047.87 0.0434256
1048.451 0.0433894
1049.032 0.0433526
1049.612 0.0433151
1050.193 0.0432768
1050.774 0.0432379
1051.354 0.0431984
1051.935 0.0431581
1052.515 0.0431174
1053.095 0.0430761
1053.675 0.0430342
1054.256 0.0429917
1054.836 0.0429487
1055.416 0.0429053
1055.996 0.0428615
1056.576 0.0428172
1057.156 0.0427726
1057.735 0.0427276
1058.315 0.0426823
1058.895 0.0426366
1059.475 0.0425907
1060.055 0.0425445
1060.634 0.0424982
1061.214 0.0424516
1061.794 0.0424049
1062.373 0.0423581
1062.953 0.0423111
1063.533 0.0422642
1064.113 0.0422171
1064.692 0.0421702
1065.272 0.0421232
1065.852 0.0420763
1066.431 0.0420295
1067.011 0.0419828
1067.591 0.0419363
1068.171 0.0418900
1068.751 0.0418439
1069.331 0.0417980
1069.91 0.0417525
1070.49 0.0417072
1071.071 0.0416622
1071.651 0.0416176
1072.231 0.0415734
1072.811 0.0415297
1073.391 0.0414864
1073.972 0.0414435
1074.552 0.0414012
1075.133 0.0413594
1075.713 0.0413182
1076.294 0.0412775
1076.875 0.0412374
1077.456 0.0411979
1078.037 0.0411591
1078.618 0.0411210
1079.199 0.0410835
1079.78 0.0410468
1080.362 0.0410108
1080.943 0.0409756
1081.525 0.0409411
1082.107 0.0409074
1082.689 0.0408745
1083.271 0.0408424
1083.853 0.0408112
1084.436 0.0407808
1085.018 0.0407513
1085.601 0.0407226
1086.184 0.0406949
1086.767 0.0406680
1087.351 0.0406420
1087.934 0.0406170
1088.518 0.0405929
1089.102 0.0405697
1089.686 0.0405475
1090.27 0.0405262
1090.855 0.0405058
1091.439 0.0404865
1092.024 0.0404680
1092.609 0.0404506
1093.195 0.0404340
1093.78 0.0404185
1094.366 0.0404039
1094.952 0.0403902
1095.539 0.0403775
1096.125 0.0403657
1096.712 0.0403549
1097.299 0.0403450
1097.887 0.0403361
1098.475 0.0403280
1099.063 0.0403209
1099.651 0.0403147
1100.239 0.0403094
1100.828 0.0403049
1101.417 0.0403013
1102.007 0.0402986
1102.597 0.0402967
1103.187 0.0402956
1103.777 0.0402954
1104.368 0.0402959
1104.959 0.0402973
1105.551 0.0402993
1106.143 0.0403021
1106.735 0.0403057
1107.328 0.0403099
1107.921 0.0403148
1108.514 0.0403204
1109.108 0.0403266
1109.702 0.0403335
1110.296 0.0403409
1110.891 0.0403488
1111.486 0.0403574
1112.082 0.0403664
1112.678 0.0403759
1113.275 0.0403859
1113.872 0.0403963
1114.469 0.0404072
1115.067 0.0404184
1115.665 0.0404299
1116.264 0.0404418
1116.864 0.0404540
1117.463 0.0404665
1118.063 0.0404792
1118.664 0.0404921
1119.265 0.0405051
1119.867 0.0405184
1120.469 0.0405317
1121.072 0.0405451
1121.675 0.0405586
1122.279 0.0405721
1122.883 0.0405856
1123.488 0.0405991
1124.093 0.0406125
1124.699 0.0406258
1125.305 0.0406390
1125.912 0.0406520
1126.52 0.0406648
1127.128 0.0406774
1127.737 0.0406897
1128.346 0.0407017
1128.956 0.0407135
1129.567 0.0407249
1130.178 0.0407359
1130.79 0.0407465
1131.402 0.0407566
1132.015 0.0407663
1132.629 0.0407756
1133.243 0.0407842
1133.858 0.0407924
1134.474 0.0407999
1135.09 0.0408069
1135.707 0.0408132
1136.325 0.0408189
1136.943 0.0408238
1137.562 0.0408281
1138.182 0.0408316
1138.802 0.0408344
1139.423 0.0408364
1140.045 0.0408376
1140.668 0.0408380
1141.291 0.0408375
1141.916 0.0408361
1142.54 0.0408339
1143.166 0.0408308
1143.793 0.0408267
1144.42 0.0408217
1145.048 0.0408157
