Measurement Sequence started on: 09-46-08-630
Integration time: 30
Scans to Average: 2 
>>>>>Begin Spectral Data<<<<<
434.745 .1264622
435.665 .1103553
436.585 .1014977
437.503 .0917326
438.420 .0855824
439.335 .0852390
440.249 .0806238
441.162 .0771293
442.074 .0743685
442.984 .0722471
443.894 .0705444
444.802 .0691390
445.708 .0679998
446.614 .0670335
447.518 .0662118
448.422 .0655018
449.324 .0648978
450.224 .0643663
451.124 .0638943
452.022 .0634843
452.920 .0630964
453.816 .0627327
454.711 .0623853
455.605 .0620455
456.497 .0617254
457.389 .0614296
458.279 .0611554
459.169 .0609136
460.057 .0607083
460.944 .0605384
461.830 .0604010
462.715 .0602953
463.599 .0602159
464.482 .0601521
465.363 .0601067
466.244 .0600758
467.124 .0600502
468.002 .0600339
468.880 .0600241
469.756 .0600232
470.632 .0600309
471.506 .0600414
472.379 .0600590
473.252 .0600789
474.123 .0600972
474.994 .0601117
475.863 .0601209
476.731 .0601230
477.599 .0601164
478.465 .0601047
479.331 .0600927
480.195 .0600799
481.059 .0600724
481.921 .0600719
482.783 .0600821
483.643 .0601019
484.503 .0601266
485.362 .0601531
486.220 .0601790
487.077 .0602024
487.933 .0602185
488.788 .0602318
489.642 .0602439
490.496 .0602533
491.348 .0602643
492.200 .0602824
493.050 .0603033
493.900 .0603258
494.749 .0603504
495.597 .0603742
496.445 .0603937
497.291 .0604062
498.136 .0604121
498.981 .0604212
499.825 .0604361
500.668 .0604589
501.510 .0604900
502.352 .0605428
503.192 .0606099
504.032 .0606880
504.871 .0607749
505.709 .0608667
506.546 .0609567
507.383 .0610414
508.219 .0611191
509.054 .0611967
509.888 .0612776
510.722 .0613651
511.554 .0614714
512.386 .0615975
513.217 .0617391
514.048 .0618956
514.877 .0620699
515.706 .0622571
516.535 .0624504
517.362 .0626570
518.189 .0628718
519.015 .0630981
519.840 .0633386
520.665 .0635771
521.489 .0638319
522.312 .0640949
523.134 .0643603
523.956 .0646269
524.777 .0649130
525.598 .0652190
526.417 .0655511
527.236 .0659074
528.055 .0662879
528.872 .0666726
529.690 .0670572
530.506 .0674169
531.322 .0677273
532.137 .0679921
532.951 .0682040
533.765 .0683531
534.578 .0684583
535.391 .0685118
536.203 .0685182
537.014 .0684812
537.824 .0683970
538.634 .0682582
539.444 .0680557
540.253 .0678062
541.061 .0675074
541.868 .0671624
542.675 .0667975
543.482 .0664170
544.288 .0660401
545.093 .0656846
545.897 .0653447
546.702 .0650395
547.505 .0647620
548.308 .0645199
549.110 .0643002
549.912 .0640982
550.713 .0639096
551.514 .0637203
552.314 .0635284
553.114 .0633294
553.913 .0631129
554.711 .0628802
555.509 .0626389
556.306 .0623927
557.103 .0621436
557.900 .0618974
558.695 .0616521
559.491 .0614154
560.285 .0611806
561.080 .0609484
561.873 .0607150
562.667 .0604832
563.459 .0602487
564.252 .0600069
565.043 .0597725
565.835 .0595441
566.625 .0593258
567.416 .0591239
568.205 .0589320
568.995 .0587476
569.783 .0585720
570.572 .0584043
571.360 .0582410
572.147 .0580819
572.934 .0579266
573.720 .0577675
574.506 .0576078
575.292 .0574487
576.077 .0572849
576.862 .0571262
577.646 .0569673
578.429 .0568017
579.213 .0566332
579.996 .0564613
580.778 .0562900
581.560 .0561220
582.341 .0559616
583.123 .0558051
583.903 .0556560
584.684 .0555180
585.463 .0553877
586.243 .0552661
587.022 .0551535
587.800 .0550465
588.578 .0549461
589.356 .0548489
590.134 .0547525
590.911 .0546590
591.687 .0545698
592.463 .0544809
593.239 .0543932
594.014 .0543049
594.789 .0542187
595.564 .0541354
596.338 .0540569
597.112 .0539832
597.885 .0539156
598.658 .0538550
599.431 .0537988
600.203 .0537477
600.975 .0537006
601.747 .0536566
602.518 .0536182
603.289 .0535839
604.059 .0535536
604.829 .0535279
605.599 .0535083
606.369 .0534929
607.138 .0534806
607.906 .0534695
608.675 .0534578
609.443 .0534454
610.210 .0534322
610.977 .0534166
611.744 .0534002
612.511 .0533843
613.277 .0533680
614.043 .0533513
614.809 .0533347
615.574 .0533168
616.339 .0532973
617.104 .0532772
617.868 .0532561
618.632 .0532336
619.395 .0532124
620.159 .0531918
620.922 .0531727
621.684 .0531545
622.447 .0531362
623.209 .0531165
623.970 .0530967
624.732 .0530748
625.493 .0530510
626.254 .0530259
627.014 .0530014
627.774 .0529762
628.534 .0529512
629.294 .0529264
630.053 .0529005
630.812 .0528733
631.571 .0528443
632.329 .0528117
633.087 .0527785
633.845 .0527437
634.602 .0527091
635.359 .0526752
636.116 .0526429
636.873 .0526112
637.629 .0525805
638.385 .0525505
639.141 .0525203
639.897 .0524896
640.652 .0524583
641.407 .0524257
642.161 .0523939
642.916 .0523629
643.670 .0523325
644.424 .0523038
645.177 .0522768
645.931 .0522494
646.684 .0522219
647.436 .0521941
648.189 .0521657
648.941 .0521370
649.693 .0521080
650.445 .0520777
651.196 .0520473
651.947 .0520170
652.698 .0519859
653.449 .0519550
654.199 .0519243
654.949 .0518936
655.699 .0518628
656.449 .0518328
657.198 .0518034
657.947 .0517754
658.696 .0517495
659.445 .0517258
660.193 .0517038
660.941 .0516838
661.689 .0516646
662.436 .0516466
663.184 .0516297
663.931 .0516128
664.678 .0515952
665.424 .0515780
666.171 .0515602
666.917 .0515422
667.663 .0515234
668.408 .0515044
669.154 .0514840
669.899 .0514623
670.644 .0514381
671.388 .0514115
672.133 .0513825
672.877 .0513513
673.621 .0513179
674.365 .0512834
675.108 .0512479
675.851 .0512117
676.594 .0511746
677.337 .0511370
678.080 .0510983
678.822 .0510584
679.564 .0510172
680.306 .0509756
681.047 .0509338
681.789 .0508926
682.530 .0508518
683.271 .0508122
684.012 .0507733
684.752 .0507341
685.492 .0506942
686.232 .0506529
686.972 .0506106
687.712 .0505672
688.451 .0505235
689.190 .0504806
689.929 .0504393
690.667 .0504003
691.406 .0503635
692.144 .0503283
692.882 .0502946
693.620 .0502612
694.357 .0502281
695.095 .0501951
695.832 .0501616
696.569 .0501285
697.305 .0500962
698.042 .0500649
698.778 .0500347
699.514 .0500049
700.249 .0499757
700.985 .0499458
701.720 .0499148
702.455 .0498823
703.190 .0498478
703.925 .0498125
704.659 .0497763
705.393 .0497396
706.127 .0497029
706.861 .0496665
707.595 .0496306
708.328 .0495958
709.061 .0495618
709.794 .0495292
710.527 .0494978
711.259 .0494681
711.991 .0494400
712.723 .0494129
713.455 .0493871
714.186 .0493626
714.918 .0493384
715.649 .0493146
716.380 .0492908
717.110 .0492674
717.841 .0492439
718.571 .0492204
719.301 .0491971
720.031 .0491736
720.760 .0491494
721.490 .0491243
722.219 .0490974
722.948 .0490694
723.676 .0490401
724.405 .0490097
725.133 .0489780
725.861 .0489461
726.589 .0489142
727.317 .0488828
728.044 .0488517
728.771 .0488214
729.498 .0487918
730.225 .0487633
730.951 .0487356
731.677 .0487083
732.403 .0486813
733.129 .0486547
733.855 .0486281
734.580 .0486020
735.305 .0485761
736.030 .0485508
736.755 .0485255
737.479 .0485011
738.203 .0484770
738.927 .0484529
739.651 .0484288
740.375 .0484045
741.098 .0483795
741.821 .0483528
742.544 .0483241
743.267 .0482934
743.989 .0482612
744.711 .0482281
745.433 .0481943
746.155 .0481603
746.877 .0481264
747.598 .0480925
748.319 .0480578
749.040 .0480223
749.760 .0479854
750.481 .0479462
751.201 .0479050
751.921 .0478615
752.640 .0478165
753.360 .0477703
754.079 .0477248
754.798 .0476806
755.517 .0476377
756.235 .0475964
756.953 .0475559
757.671 .0475166
758.389 .0474780
759.107 .0474394
759.824 .0474007
760.541 .0473619
761.258 .0473235
761.974 .0472852
762.691 .0472481
763.407 .0472121
764.123 .0471779
764.838 .0471449
765.554 .0471123
766.269 .0470794
766.984 .0470452
767.699 .0470099
768.413 .0469728
769.127 .0469341
769.841 .0468939
770.555 .0468524
771.268 .0468104
771.982 .0467682
772.694 .0467262
773.407 .0466852
774.120 .0466454
774.832 .0466070
775.544 .0465695
776.256 .0465327
776.967 .0464970
777.678 .0464629
778.389 .0464296
779.100 .0463968
779.810 .0463642
780.521 .0463318
781.231 .0462995
781.940 .0462673
782.650 .0462348
783.359 .0462021
784.068 .0461697
784.776 .0461374
785.485 .0461043
786.193 .0460716
786.901 .0460389
787.609 .0460060
788.316 .0459733
789.023 .0459406
789.730 .0459077
790.436 .0458752
791.143 .0458445
791.849 .0458150
792.555 .0457873
793.260 .0457619
793.965 .0457380
794.670 .0457161
795.375 .0456956
796.080 .0456759
796.784 .0456566
797.488 .0456385
798.191 .0456209
798.895 .0456032
799.598 .0455866
800.301 .0455707
801.003 .0455553
801.705 .0455401
802.408 .0455243
803.109 .0455075
803.811 .0454898
804.512 .0454710
805.213 .0454510
805.913 .0454304
806.614 .0454097
807.314 .0453886
808.014 .0453676
808.713 .0453473
809.412 .0453266
810.111 .0453054
810.810 .0452837
811.508 .0452606
812.206 .0452366
812.904 .0452114
813.602 .0451854
814.299 .0451596
814.996 .0451340
815.692 .0451093
816.389 .0450851
817.085 .0450622
817.781 .0450402
818.476 .0450183
819.171 .0449969
819.866 .0449749
820.561 .0449523
821.255 .0449292
821.949 .0449053
822.643 .0448811
823.336 .0448569
824.029 .0448326
824.722 .0448075
825.415 .0447818
826.107 .0447553
826.799 .0447274
827.490 .0446977
828.182 .0446663
828.873 .0446327
829.563 .0445974
830.254 .0445614
830.944 .0445247
831.634 .0444884
832.323 .0444528
833.012 .0444181
833.701 .0443847
834.390 .0443524
835.078 .0443215
835.766 .0442913
836.453 .0442626
837.141 .0442353
837.828 .0442088
838.514 .0441832
839.201 .0441587
839.887 .0441351
840.572 .0441113
841.258 .0440869
841.943 .0440612
842.628 .0440342
843.312 .0440054
843.996 .0439748
844.680 .0439422
845.363 .0439084
846.046 .0438735
846.729 .0438378
847.412 .0438017
848.094 .0437659
848.776 .0437297
849.457 .0436939
850.139 .0436578
850.819 .0436216
851.500 .0435849
852.180 .0435485
852.860 .0435121
853.540 .0434765
854.219 .0434416
854.898 .0434079
855.576 .0433753
856.254 .0433438
856.932 .0433122
857.610 .0432810
858.287 .0432492
858.964 .0432168
859.640 .0431838
860.317 .0431510
860.993 .0431177
861.668 .0430849
862.343 .0430520
863.018 .0430198
863.693 .0429878
864.367 .0429559
865.041 .0429239
865.714 .0428922
866.387 .0428606
867.060 .0428288
867.732 .0427969
868.404 .0427657
869.076 .0427344
869.748 .0427033
870.419 .0426722
871.089 .0426410
871.760 .0426098
872.430 .0425788
873.099 .0425478
873.769 .0425176
874.438 .0424877
875.106 .0424579
875.774 .0424283
876.442 .0423988
877.110 .0423693
877.777 .0423398
878.444 .0423110
879.110 .0422829
879.776 .0422556
880.442 .0422296
881.108 .0422049
881.773 .0421817
882.437 .0421593
883.102 .0421370
883.766 .0421152
884.429 .0420932
885.093 .0420709
885.755 .0420483
886.418 .0420261
887.080 .0420048
887.742 .0419846
888.403 .0419652
889.064 .0419470
889.725 .0419299
890.385 .0419136
891.045 .0418976
891.705 .0418820
892.364 .0418670
893.023 .0418525
893.682 .0418390
894.340 .0418269
894.998 .0418162
895.655 .0418080
896.312 .0418020
896.969 .0417978
897.625 .0417946
898.281 .0417929
898.937 .0417920
899.592 .0417914
900.247 .0417911
900.901 .0417907
901.555 .0417901
902.209 .0417892
902.862 .0417869
903.515 .0417831
904.168 .0417779
904.820 .0417708
905.472 .0417620
906.123 .0417520
906.774 .0417416
907.425 .0417314
908.076 .0417219
908.726 .0417133
909.375 .0417050
910.024 .0416968
910.673 .0416886
911.322 .0416798
911.970 .0416700
912.618 .0416594
913.265 .0416484
913.912 .0416376
914.558 .0416269
915.205 .0416161
915.850 .0416057
916.496 .0415948
917.141 .0415829
917.786 .0415686
918.430 .0415522
919.074 .0415341
919.718 .0415143
920.361 .0414931
921.004 .0414708
921.646 .0414483
922.288 .0414257
922.930 .0414029
923.571 .0413802
924.212 .0413571
924.853 .0413340
925.493 .0413107
926.133 .0412877
926.772 .0412648
927.411 .0412426
928.050 .0412203
928.688 .0411978
929.326 .0411742
929.963 .0411491
930.600 .0411230
931.237 .0410954
931.874 .0410674
932.510 .0410390
933.145 .0410105
933.780 .0409826
934.415 .0409554
935.050 .0409294
935.684 .0409040
936.318 .0408794
936.951 .0408555
937.584 .0408314
938.217 .0408078
938.849 .0407845
939.481 .0407618
940.112 .0407394
940.743 .0407175
941.374 .0406957
942.004 .0406744
942.634 .0406533
943.264 .0406326
943.893 .0406121
944.522 .0405917
945.150 .0405708
945.778 .0405486
946.406 .0405248
947.033 .0404991
947.660 .0404708
948.287 .0404404
948.913 .0404074
949.539 .0403731
950.165 .0403375
950.790 .0403020
951.414 .0402670
952.039 .0402327
952.663 .0401992
953.286 .0401656
953.910 .0401312
954.533 .0400957
955.155 .0400586
955.777 .0400202
956.399 .0399812
957.020 .0399423
957.641 .0399039
958.262 .0398670
958.882 .0398318
959.502 .0397983
960.122 .0397658
960.741 .0397339
961.360 .0397020
961.979 .0396700
962.597 .0396377
963.214 .0396050
963.832 .0395730
964.449 .0395417
965.066 .0395111
965.682 .0394819
966.298 .0394532
966.914 .0394254
967.529 .0393974
968.144 .0393689
968.758 .0393399
969.373 .0393100
969.986 .0392791
970.600 .0392478
971.213 .0392166
971.826 .0391858
972.438 .0391552
973.050 .0391254
973.662 .0390952
974.274 .0390643
974.885 .0390321
975.495 .0389979
976.106 .0389620
976.716 .0389248
977.325 .0388865
977.935 .0388489
978.544 .0388125
979.152 .0387775
979.761 .0387441
980.369 .0387129
980.976 .0386831
981.584 .0386542
982.191 .0386262
982.797 .0385994
983.404 .0385738
984.010 .0385502
984.615 .0385280
985.221 .0385074
985.826 .0384893
986.430 .0384722
987.035 .0384564
987.639 .0384417
988.243 .0384282
988.846 .0384154
989.449 .0384035
990.052 .0383922
990.654 .0383809
991.256 .0383696
991.858 .0383584
992.460 .0383459
993.061 .0383324
993.662 .0383179
994.262 .0383027
994.863 .0382880
995.463 .0382737
996.062 .0382596
996.662 .0382469
997.261 .0382348
997.860 .0382228
998.458 .0382101
999.056 .0381969
999.654 .0381828
1000.252 .0381682
1000.849 .0381536
1001.446 .0381387
1002.043 .0381245
1002.639 .0381118
1003.235 .0380999
1003.831 .0380893
1004.427 .0380793
1005.022 .0380698
1005.617 .0380607
1006.212 .0380519
1006.806 .0380420
1007.401 .0380316
1007.995 .0380207
1008.588 .0380092
1009.182 .0379972
1009.775 .0379855
1010.368 .0379744
1010.960 .0379643
1011.553 .0379564
1012.145 .0379503
1012.737 .0379459
1013.328 .0379431
1013.920 .0379408
1014.511 .0379390
1015.102 .0379374
1015.692 .0379362
1016.283 .0379361
1016.873 .0379385
1017.463 .0379430
1018.052 .0379498
1018.642 .0379589
1019.231 .0379699
1019.820 .0379825
1020.409 .0379958
1020.997 .0380089
1021.585 .0380210
1022.173 .0380322
1022.761 .0380418
1023.349 .0380505
1023.936 .0380583
1024.524 .0380652
1025.111 .0380710
1025.697 .0380753
1026.284 .0380781
1026.870 .0380794
1027.457 .0380801
1028.043 .0380804
1028.628 .0380806
1029.214 .0380819
1029.800 .0380836
1030.385 .0380863
1030.970 .0380901
1031.555 .0380951
1032.139 .0381010
1032.724 .0381078
1033.308 .0381145
1033.893 .0381211
1034.477 .0381274
1035.060 .0381328
1035.644 .0381374
1036.228 .0381403
1036.811 .0381419
1037.394 .0381425
1037.977 .0381424
1038.560 .0381417
1039.143 .0381407
1039.726 .0381399
1040.308 .0381386
1040.891 .0381354
1041.473 .0381296
1042.055 .0381204
1042.637 .0381086
1043.219 .0380946
1043.801 .0380791
1044.382 .0380642
1044.964 .0380518
1045.545 .0380424
1046.127 .0380366
1046.708 .0380338
1047.289 .0380340
1047.870 .0380360
1048.451 .0380388
1049.032 .0380407
1049.612 .0380422
1050.193 .0380430
1050.774 .0380433
1051.354 .0380446
1051.935 .0380464
1052.515 .0380495
1053.095 .0380532
1053.675 .0380573
1054.256 .0380611
1054.836 .0380633
1055.416 .0380649
1055.996 .0380652
1056.576 .0380651
1057.156 .0380636
1057.735 .0380609
1058.315 .0380577
1058.895 .0380544
1059.475 .0380501
1060.055 .0380452
1060.634 .0380400
1061.214 .0380345
1061.794 .0380303
1062.373 .0380270
1062.953 .0380266
1063.533 .0380306
1064.113 .0380375
1064.692 .0380478
1065.272 .0380584
1065.852 .0380695
1066.431 .0380791
1067.011 .0380873
1067.591 .0380925
1068.171 .0380947
1068.751 .0380939
1069.331 .0380913
1069.910 .0380866
1070.490 .0380808
1071.071 .0380739
1071.651 .0380651
1072.231 .0380551
1072.811 .0380429
1073.391 .0380272
1073.972 .0380100
1074.552 .0379910
1075.133 .0379724
1075.713 .0379546
1076.294 .0379380
1076.875 .0379235
1077.456 .0379115
1078.037 .0379018
1078.618 .0378952
1079.199 .0378907
1079.780 .0378892
1080.362 .0378908
1080.943 .0378938
1081.525 .0378990
1082.107 .0379048
1082.689 .0379113
1083.271 .0379164
1083.853 .0379188
1084.436 .0379177
1085.018 .0379122
1085.601 .0379034
1086.184 .0378925
1086.767 .0378798
1087.351 .0378671
1087.934 .0378552
1088.518 .0378424
1089.102 .0378296
1089.686 .0378147
1090.270 .0377979
1090.855 .0377792
1091.439 .0377583
1092.024 .0377378
1092.609 .0377176
1093.195 .0376989
1093.780 .0376841
1094.366 .0376728
1094.952 .0376646
1095.539 .0376568
1096.125 .0376499
1096.712 .0376406
1097.299 .0376312
1097.887 .0376206
1098.475 .0376107
1099.063 .0376010
1099.651 .0375945
1100.239 .0375890
1100.828 .0375858
1101.417 .0375849
1102.007 .0375828
1102.597 .0375800
1103.187 .0375781
1103.777 .0375736
1104.368 .0375676
1104.959 .0375602
1105.551 .0375531
1106.143 .0375424
1106.735 .0375313
1107.328 .0375167
1107.921 .0375006
1108.514 .0374849
1109.108 .0374691
1109.702 .0374530
1110.296 .0374378
1110.891 .0374243
1111.486 .0374100
1112.082 .0373955
1112.678 .0373785
1113.275 .0373584
1113.872 .0373368
1114.469 .0373155
1115.067 .0372959
1115.665 .0372792
1116.264 .0372706
1116.864 .0372697
1117.463 .0372761
1118.063 .0372888
1118.664 .0373045
1119.265 .0373232
1119.867 .0373435
1120.469 .0373662
1121.072 .0373906
1121.675 .0374197
1122.279 .0374565
1122.883 .0375011
1123.488 .0375527
1124.093 .0376118
1124.699 .0376759
1125.305 .0377424
1125.912 .0378087
1126.520 .0378719
1127.128 .0379337
1127.737 .0379941
1128.346 .0380525
1128.956 .0381131
1129.567 .0381779
1130.178 .0382465
1130.790 .0383168
1131.402 .0383891
1132.015 .0384613
1132.629 .0385333
1133.243 .0386026
1133.858 .0386706
1134.474 .0387416
1135.090 .0388160
1135.707 .0388946
1136.325 .0389819
1136.943 .0390809
1137.562 .0391865
1138.182 .0393022
1138.802 .0394202
1139.423 .0395413
1140.045 .0396726
1140.668 .0398175
1141.291 .0399663
1141.916 .0401421
1142.540 .0401509
1143.166 .0405036
1143.793 .0408720
1144.420 .0407956
1145.048 .0414114
