Measurement Sequence started on: 10-20-44-796
Integration time: 35
Scans to Average: 2 
>>>>>Begin Spectral Data<<<<<
432.953 .0460472
433.882 .0428246
434.810 .0398902
435.737 .0384671
436.662 .0367664
437.586 .0374766
438.509 .0365775
439.431 .0358847
440.351 .0353418
441.269 .0348849
442.187 .0345185
443.103 .0341872
444.018 .0339423
444.932 .0337663
445.844 .0336378
446.756 .0335612
447.666 .0335307
448.575 .0335244
449.482 .0335438
450.388 .0335845
451.294 .0336291
452.198 .0336750
453.100 .0337165
454.002 .0337532
454.902 .0337844
455.801 .0338087
456.699 .0338214
457.596 .0338191
458.492 .0337954
459.387 .0337592
460.280 .0336942
461.172 .0336091
462.064 .0335058
462.954 .0333945
463.843 .0332867
464.730 .0331832
465.617 .0330871
466.503 .0330025
467.387 .0329211
468.271 .0328358
469.153 .0327480
470.035 .0326574
470.915 .0325634
471.794 .0324675
472.673 .0323787
473.550 .0323017
474.426 .0322400
475.301 .0321940
476.175 .0321589
477.048 .0321322
477.920 .0321044
478.791 .0320689
479.661 .0320294
480.530 .0319841
481.398 .0319357
482.266 .0318934
483.132 .0318594
483.997 .0318351
484.861 .0318255
485.724 .0318333
486.587 .0318549
487.448 .0318865
488.308 .0319226
489.168 .0319571
490.026 .0319932
490.884 .0320269
491.741 .0320565
492.597 .0320853
493.452 .0321149
494.306 .0321421
495.159 .0321682
496.011 .0321927
496.862 .0322119
497.713 .0322243
498.562 .0322280
499.411 .0322163
500.259 .0321881
501.106 .0321446
501.952 .0320859
502.798 .0320147
503.642 .0319339
504.486 .0318469
505.329 .0317579
506.171 .0316675
507.012 .0315785
507.852 .0314869
508.692 .0313956
509.531 .0313017
510.369 .0312060
511.206 .0311107
512.043 .0310123
512.878 .0309105
513.713 .0308034
514.547 .0306912
515.381 .0305689
516.213 .0304390
517.045 .0303003
517.876 .0301556
518.706 .0300034
519.536 .0298461
520.365 .0296883
521.193 .0295341
522.020 .0293843
522.847 .0292334
523.673 .0290782
524.498 .0289126
525.323 .0287315
526.146 .0285527
526.969 .0283671
527.792 .0281872
528.614 .0280167
529.435 .0278694
530.255 .0277431
531.075 .0276307
531.894 .0275263
532.712 .0274171
533.530 .0273016
534.347 .0271717
535.163 .0270231
535.979 .0268786
536.794 .0267450
537.608 .0266347
538.422 .0265547
539.235 .0265055
540.048 .0264702
540.860 .0264547
541.671 .0264460
542.481 .0264286
543.292 .0264007
544.101 .0263694
544.910 .0263430
545.718 .0263277
546.526 .0263292
547.333 .0263513
548.139 .0263962
548.945 .0264620
549.750 .0265279
550.555 .0265979
551.359 .0266684
552.162 .0267353
552.965 .0267978
553.768 .0268662
554.569 .0269387
555.371 .0270200
556.171 .0271180
556.972 .0272305
557.771 .0273569
558.570 .0274890
559.369 .0276265
560.167 .0277683
560.964 .0279068
561.761 .0280376
562.558 .0281565
563.354 .0282695
564.149 .0283671
564.944 .0284467
565.738 .0285160
566.532 .0285741
567.325 .0286244
568.118 .0286669
568.910 .0287045
569.702 .0287398
570.494 .0287776
571.285 .0288114
572.075 .0288466
572.865 .0288830
573.654 .0289195
574.443 .0289562
575.232 .0289954
576.020 .0290384
576.807 .0290858
577.594 .0291402
578.381 .0292012
579.167 .0292654
579.952 .0293389
580.738 .0294141
581.522 .0294918
582.307 .0295694
583.091 .0296433
583.874 .0297104
584.657 .0297731
585.440 .0298301
586.222 .0298790
587.004 .0299186
587.785 .0299502
588.566 .0299733
589.346 .0299902
590.126 .0299996
590.906 .0300021
591.685 .0300021
592.464 .0300003
593.242 .0299954
594.020 .0299906
594.797 .0299867
595.575 .0299825
596.351 .0299777
597.128 .0299719
597.904 .0299655
598.679 .0299584
599.454 .0299516
600.229 .0299455
601.004 .0299418
601.778 .0299407
602.551 .0299416
603.325 .0299444
604.097 .0299502
604.870 .0299554
605.642 .0299591
606.414 .0299616
607.185 .0299619
607.956 .0299599
608.727 .0299568
609.497 .0299526
610.267 .0299483
611.037 .0299418
611.806 .0299334
612.575 .0299225
613.344 .0299095
614.112 .0298929
614.880 .0298729
615.647 .0298502
616.414 .0298256
617.181 .0297997
617.948 .0297741
618.714 .0297487
619.480 .0297244
620.245 .0297007
621.011 .0296777
621.775 .0296561
622.540 .0296353
623.304 .0296158
624.068 .0295994
624.832 .0295852
625.595 .0295728
626.358 .0295628
627.120 .0295554
627.883 .0295491
628.645 .0295443
629.406 .0295408
630.168 .0295375
630.929 .0295347
631.689 .0295329
632.450 .0295305
633.210 .0295281
633.970 .0295249
634.729 .0295196
635.489 .0295124
636.248 .0295030
637.006 .0294904
637.765 .0294761
638.523 .0294606
639.280 .0294438
640.038 .0294251
640.795 .0294069
641.552 .0293884
642.309 .0293694
643.065 .0293498
643.821 .0293296
644.577 .0293085
645.332 .0292868
646.088 .0292641
646.843 .0292412
647.597 .0292179
648.352 .0291948
649.106 .0291729
649.860 .0291520
650.613 .0291327
651.367 .0291159
652.120 .0291016
652.872 .0290897
653.625 .0290793
654.377 .0290698
655.129 .0290609
655.881 .0290517
656.632 .0290423
657.384 .0290322
658.135 .0290219
658.885 .0290114
659.636 .0290009
660.386 .0289910
661.136 .0289822
661.885 .0289745
662.635 .0289679
663.384 .0289618
664.133 .0289551
664.881 .0289469
665.630 .0289373
666.378 .0289257
667.126 .0289117
667.874 .0288949
668.621 .0288765
669.368 .0288567
670.115 .0288367
670.862 .0288176
671.608 .0287999
672.354 .0287843
673.100 .0287702
673.846 .0287573
674.591 .0287449
675.337 .0287324
676.082 .0287195
676.826 .0287052
677.571 .0286905
678.315 .0286744
679.059 .0286583
679.803 .0286429
680.547 .0286293
681.290 .0286169
682.033 .0286053
682.776 .0285943
683.518 .0285824
684.261 .0285691
685.003 .0285537
685.745 .0285362
686.487 .0285172
687.228 .0284955
687.969 .0284725
688.710 .0284485
689.451 .0284246
690.192 .0284010
690.932 .0283783
691.672 .0283561
692.412 .0283341
693.152 .0283124
693.891 .0282913
694.630 .0282707
695.369 .0282513
696.108 .0282329
696.846 .0282153
697.585 .0281988
698.323 .0281828
699.061 .0281668
699.798 .0281515
700.536 .0281363
701.273 .0281210
702.010 .0281064
702.746 .0280923
703.483 .0280792
704.219 .0280671
704.955 .0280561
705.691 .0280444
706.427 .0280311
707.162 .0280159
707.897 .0279979
708.632 .0279773
709.367 .0279551
710.101 .0279308
710.835 .0279067
711.569 .0278829
712.303 .0278599
713.037 .0278379
713.770 .0278176
714.503 .0277980
715.236 .0277782
715.969 .0277581
716.702 .0277376
717.434 .0277163
718.166 .0276956
718.898 .0276754
719.629 .0276565
720.361 .0276392
721.092 .0276240
721.823 .0276108
722.554 .0275997
723.284 .0275895
724.014 .0275796
724.744 .0275692
725.474 .0275585
726.204 .0275464
726.933 .0275331
727.662 .0275189
728.391 .0275033
729.120 .0274864
729.849 .0274685
730.577 .0274501
731.305 .0274316
732.033 .0274129
732.760 .0273943
733.488 .0273752
734.215 .0273561
734.942 .0273364
735.669 .0273156
736.395 .0272944
737.122 .0272730
737.848 .0272507
738.573 .0272280
739.299 .0272052
740.024 .0271832
740.750 .0271616
741.474 .0271410
742.199 .0271213
742.924 .0271026
743.648 .0270852
744.372 .0270689
745.096 .0270537
745.819 .0270398
746.543 .0270273
747.266 .0270162
747.989 .0270069
748.711 .0269989
749.434 .0269925
750.156 .0269877
750.878 .0269846
751.599 .0269829
752.321 .0269817
753.042 .0269818
753.763 .0269830
754.484 .0269847
755.205 .0269860
755.925 .0269870
756.645 .0269877
757.365 .0269870
758.085 .0269850
758.804 .0269807
759.523 .0269742
760.242 .0269659
760.961 .0269552
761.679 .0269433
762.397 .0269295
763.115 .0269141
763.833 .0268973
764.551 .0268788
765.268 .0268588
765.985 .0268371
766.702 .0268144
767.418 .0267911
768.134 .0267677
768.850 .0267438
769.566 .0267205
770.282 .0266975
770.997 .0266751
771.712 .0266530
772.427 .0266315
773.142 .0266110
773.856 .0265909
774.570 .0265720
775.284 .0265542
775.998 .0265371
776.711 .0265217
777.424 .0265063
778.137 .0264914
778.849 .0264763
779.562 .0264604
780.274 .0264435
780.986 .0264267
781.697 .0264096
782.409 .0263934
783.120 .0263786
783.831 .0263656
784.541 .0263543
785.252 .0263448
785.962 .0263364
786.671 .0263283
787.381 .0263198
788.090 .0263104
788.799 .0262995
789.508 .0262877
790.217 .0262747
790.925 .0262620
791.633 .0262500
792.341 .0262389
793.048 .0262283
793.755 .0262184
794.462 .0262075
795.169 .0261956
795.875 .0261819
796.581 .0261664
797.287 .0261493
797.993 .0261307
798.698 .0261117
799.403 .0260933
800.108 .0260757
800.812 .0260596
801.517 .0260446
802.221 .0260311
802.924 .0260179
803.628 .0260056
804.331 .0259936
805.034 .0259817
805.736 .0259696
806.439 .0259574
807.141 .0259448
807.843 .0259328
808.544 .0259208
809.245 .0259082
809.946 .0258957
810.647 .0258829
811.347 .0258696
812.047 .0258562
812.747 .0258428
813.447 .0258297
814.146 .0258163
814.845 .0258035
815.543 .0257895
816.242 .0257753
816.940 .0257604
817.638 .0257443
818.335 .0257272
819.032 .0257089
819.729 .0256895
820.426 .0256692
821.122 .0256486
821.818 .0256271
822.514 .0256047
823.209 .0255828
823.905 .0255606
824.599 .0255382
825.294 .0255162
825.988 .0254947
826.682 .0254740
827.376 .0254541
828.069 .0254346
828.762 .0254155
829.455 .0253970
830.147 .0253787
830.840 .0253608
831.531 .0253441
832.223 .0253291
832.914 .0253158
833.605 .0253052
834.296 .0252966
834.986 .0252892
835.676 .0252831
836.366 .0252767
837.055 .0252695
837.744 .0252609
838.433 .0252496
839.121 .0252367
839.809 .0252227
840.497 .0252081
841.185 .0251938
841.872 .0251815
842.559 .0251712
843.245 .0251618
843.932 .0251529
844.617 .0251443
845.303 .0251347
845.988 .0251244
846.673 .0251129
847.358 .0251003
848.042 .0250884
848.726 .0250772
849.410 .0250673
850.093 .0250593
850.776 .0250529
851.459 .0250475
852.141 .0250419
852.823 .0250356
853.505 .0250277
854.186 .0250179
854.867 .0250070
855.548 .0249945
856.228 .0249812
856.908 .0249678
857.588 .0249544
858.267 .0249417
858.946 .0249293
859.625 .0249173
860.303 .0249053
860.981 .0248933
861.659 .0248810
862.336 .0248680
863.013 .0248551
863.690 .0248424
864.366 .0248300
865.042 .0248180
865.718 .0248070
866.393 .0247964
867.068 .0247861
867.743 .0247757
868.417 .0247646
869.091 .0247528
869.765 .0247401
870.438 .0247271
871.111 .0247133
871.783 .0246997
872.456 .0246861
873.127 .0246726
873.799 .0246600
874.470 .0246479
875.141 .0246366
875.811 .0246263
876.481 .0246174
877.151 .0246094
877.820 .0246026
878.489 .0245976
879.158 .0245933
879.826 .0245893
880.494 .0245859
881.162 .0245823
881.829 .0245781
882.496 .0245739
883.163 .0245694
883.829 .0245650
884.495 .0245610
885.160 .0245578
885.825 .0245549
886.490 .0245528
887.154 .0245513
887.818 .0245495
888.482 .0245478
889.145 .0245457
889.808 .0245432
890.471 .0245408
891.133 .0245391
891.795 .0245377
892.456 .0245370
893.117 .0245371
893.778 .0245370
894.439 .0245367
895.099 .0245362
895.758 .0245347
896.417 .0245320
897.076 .0245284
897.735 .0245233
898.393 .0245170
899.051 .0245104
899.708 .0245029
900.365 .0244951
901.022 .0244871
901.678 .0244787
902.334 .0244704
902.990 .0244622
903.645 .0244541
904.300 .0244453
904.954 .0244365
905.608 .0244275
906.262 .0244180
906.915 .0244089
907.568 .0244002
908.221 .0243922
908.873 .0243855
909.525 .0243796
910.176 .0243740
910.828 .0243680
911.478 .0243614
912.129 .0243536
912.778 .0243447
913.428 .0243347
914.077 .0243243
914.726 .0243140
915.375 .0243050
916.023 .0242974
916.670 .0242915
917.318 .0242875
917.964 .0242850
918.611 .0242825
919.257 .0242799
919.903 .0242765
920.548 .0242722
921.193 .0242670
921.838 .0242623
922.482 .0242576
923.126 .0242541
923.770 .0242517
924.413 .0242500
925.056 .0242484
925.698 .0242463
926.340 .0242429
926.982 .0242382
927.623 .0242320
928.264 .0242248
928.904 .0242166
929.544 .0242091
930.184 .0242015
930.823 .0241942
931.462 .0241867
932.101 .0241784
932.739 .0241685
933.377 .0241568
934.014 .0241431
934.651 .0241285
935.288 .0241134
935.924 .0240983
936.560 .0240833
937.196 .0240695
937.831 .0240560
938.466 .0240422
939.100 .0240277
939.734 .0240116
940.368 .0239932
941.001 .0239734
941.634 .0239520
942.266 .0239302
942.899 .0239094
943.530 .0238901
944.162 .0238719
944.793 .0238549
945.423 .0238376
946.053 .0238191
946.683 .0237990
947.313 .0237768
947.942 .0237523
948.571 .0237263
949.199 .0236999
949.827 .0236733
950.455 .0236479
951.082 .0236246
951.709 .0236029
952.335 .0235827
952.961 .0235636
953.587 .0235441
954.212 .0235245
954.837 .0235054
955.462 .0234865
956.086 .0234683
956.710 .0234517
957.334 .0234372
957.957 .0234245
958.579 .0234137
959.202 .0234045
959.824 .0233959
960.445 .0233876
961.067 .0233779
961.688 .0233662
962.308 .0233530
962.928 .0233385
963.548 .0233230
964.168 .0233066
964.787 .0232894
965.406 .0232721
966.024 .0232550
966.642 .0232382
967.260 .0232217
967.877 .0232059
968.494 .0231908
969.110 .0231761
969.727 .0231613
970.342 .0231467
970.958 .0231327
971.573 .0231210
972.188 .0231114
972.802 .0231034
973.416 .0230978
974.030 .0230941
974.643 .0230926
975.256 .0230928
975.869 .0230931
976.481 .0230933
977.093 .0230925
977.705 .0230912
978.316 .0230884
978.927 .0230848
979.538 .0230814
980.148 .0230779
980.758 .0230743
981.367 .0230707
981.977 .0230664
982.586 .0230620
983.194 .0230573
983.802 .0230520
984.410 .0230454
985.018 .0230376
985.625 .0230290
986.232 .0230200
986.838 .0230112
987.445 .0230034
988.050 .0229960
988.656 .0229892
989.261 .0229830
989.866 .0229768
990.471 .0229706
991.075 .0229642
991.679 .0229578
992.282 .0229519
992.886 .0229458
993.489 .0229394
994.091 .0229323
994.694 .0229263
995.296 .0229210
995.897 .0229156
996.499 .0229104
997.100 .0229050
997.701 .0229001
998.301 .0228957
998.901 .0228923
999.501 .0228899
1000.101 .0228882
1000.700 .0228874
1001.299 .0228865
1001.898 .0228855
1002.496 .0228839
1003.094 .0228817
1003.692 .0228790
1004.289 .0228755
1004.887 .0228712
1005.484 .0228660
1006.080 .0228606
1006.677 .0228552
1007.273 .0228491
1007.868 .0228427
1008.464 .0228362
1009.059 .0228298
1009.654 .0228240
1010.249 .0228196
1010.843 .0228164
1011.437 .0228151
1012.031 .0228155
1012.625 .0228170
1013.218 .0228192
1013.811 .0228220
1014.404 .0228251
1014.997 .0228283
1015.589 .0228310
1016.181 .0228339
1016.773 .0228364
1017.365 .0228400
1017.956 .0228432
1018.547 .0228463
1019.138 .0228487
1019.728 .0228497
1020.319 .0228487
1020.909 .0228463
1021.499 .0228423
1022.088 .0228363
1022.678 .0228282
1023.267 .0228187
1023.856 .0228085
1024.445 .0227979
1025.033 .0227875
1025.621 .0227778
1026.209 .0227693
1026.797 .0227614
1027.385 .0227542
1027.972 .0227483
1028.560 .0227432
1029.147 .0227389
1029.734 .0227355
1030.320 .0227314
1030.907 .0227271
1031.493 .0227226
1032.079 .0227183
1032.665 .0227141
1033.250 .0227112
1033.836 .0227084
1034.421 .0227072
1035.006 .0227078
1035.591 .0227102
1036.176 .0227131
1036.761 .0227184
1037.345 .0227237
1037.929 .0227280
1038.514 .0227300
1039.097 .0227298
1039.681 .0227277
1040.265 .0227259
1040.848 .0227233
1041.432 .0227213
1042.015 .0227199
1042.598 .0227201
1043.181 .0227209
1043.764 .0227234
1044.346 .0227264
1044.929 .0227295
1045.511 .0227325
1046.094 .0227347
1046.676 .0227359
1047.258 .0227361
1047.840 .0227359
1048.422 .0227361
1049.003 .0227365
1049.585 .0227370
1050.166 .0227371
1050.748 .0227382
1051.329 .0227399
1051.910 .0227422
1052.491 .0227454
1053.072 .0227488
1053.653 .0227525
1054.234 .0227554
1054.815 .0227566
1055.396 .0227562
1055.976 .0227549
1056.557 .0227512
1057.138 .0227467
1057.718 .0227408
1058.298 .0227344
1058.879 .0227275
1059.459 .0227210
1060.039 .0227147
1060.620 .0227079
1061.200 .0226993
1061.780 .0226883
1062.360 .0226743
1062.940 .0226588
1063.520 .0226408
1064.101 .0226226
1064.681 .0226048
1065.261 .0225881
1065.841 .0225726
1066.421 .0225599
1067.001 .0225491
1067.581 .0225406
1068.161 .0225333
1068.741 .0225266
1069.321 .0225207
1069.901 .0225152
1070.482 .0225118
1071.062 .0225101
1071.642 .0225118
1072.222 .0225154
1072.803 .0225209
1073.383 .0225300
1073.963 .0225412
1074.544 .0225543
1075.124 .0225680
1075.705 .0225806
1076.286 .0225921
1076.866 .0226016
1077.447 .0226096
1078.028 .0226165
1078.609 .0226247
1079.190 .0226321
1079.771 .0226390
1080.352 .0226454
1080.934 .0226530
1081.515 .0226615
1082.097 .0226716
1082.679 .0226820
1083.260 .0226917
1083.842 .0227012
1084.424 .0227082
1085.007 .0227139
1085.589 .0227198
1086.172 .0227239
1086.754 .0227276
1087.337 .0227298
1087.920 .0227329
1088.503 .0227349
1089.087 .0227375
1089.670 .0227389
1090.254 .0227402
1090.838 .0227401
1091.422 .0227374
1092.006 .0227318
1092.590 .0227256
1093.175 .0227183
1093.760 .0227110
1094.345 .0227049
1094.930 .0226998
1095.516 .0226957
1096.102 .0226964
1096.688 .0227002
1097.274 .0227090
1097.860 .0227208
1098.447 .0227340
1099.034 .0227472
1099.622 .0227591
1100.209 .0227688
1100.797 .0227761
1101.385 .0227823
1101.973 .0227893
1102.562 .0227983
1103.151 .0228114
1103.740 .0228279
1104.330 .0228489
1104.920 .0228739
1105.510 .0228995
1106.101 .0229221
1106.691 .0229381
1107.283 .0229462
1107.874 .0229473
1108.466 .0229437
1109.058 .0229358
1109.651 .0229277
1110.244 .0229226
1110.837 .0229244
1111.431 .0229324
1112.025 .0229449
1112.620 .0229608
1113.215 .0229772
1113.810 .0229915
1114.406 .0230026
1115.002 .0230077
1115.599 .0230107
1116.196 .0230133
1116.793 .0230180
1117.391 .0230204
1117.989 .0230211
1118.588 .0230218
1119.187 .0230190
1119.787 .0230115
1120.387 .0229989
1120.988 .0229781
1121.589 .0229528
1122.190 .0229261
1122.793 .0228970
1123.395 .0228676
1123.998 .0228424
1124.602 .0228190
1125.206 .0227976
1125.811 .0227808
1126.416 .0227649
1127.022 .0227475
1127.628 .0227367
1128.235 .0227285
1128.843 .0227215
1129.451 .0227217
1130.059 .0227268
1130.669 .0227340
1131.278 .0227440
1131.889 .0227514
1132.500 .0227543
1133.112 .0227580
1133.724 .0227625
1134.337 .0227615
1134.950 .0227638
1135.564 .0227704
1136.179 .0227783
1136.795 .0227951
1137.411 .0228200
1138.028 .0228497
1138.645 .0228877
1139.263 .0229383
1139.882 .0229967
1140.502 .0230740
1141.122 .0231539
1141.743 .0232530
1142.365 .0233734
1142.987 .0234460
1143.611 .0237410
1144.235 .0234232
1144.859 .0239508
1145.485 .0243623
