Measurement Sequence started on: 10-20-44-796
Integration time: 35
Scans to Average: 2 
>>>>>Begin Spectral Data<<<<<
432.953 .0311214
433.882 .0275838
434.810 .0326464
435.737 .0334583
436.662 .0322908
437.586 .0318588
438.509 .0318616
439.431 .0318839
440.351 .0317577
441.269 .0316593
442.187 .0316309
443.103 .0316308
444.018 .0316692
444.932 .0317319
445.844 .0317903
446.756 .0318575
447.666 .0319315
448.575 .0319935
449.482 .0320620
450.388 .0321187
451.294 .0321566
452.198 .0321796
453.100 .0321826
454.002 .0321725
454.902 .0321512
455.801 .0321180
456.699 .0320768
457.596 .0320358
458.492 .0319953
459.387 .0319500
460.280 .0319049
461.172 .0318613
462.064 .0318172
462.954 .0317730
463.843 .0317341
464.730 .0316998
465.617 .0316768
466.503 .0316618
467.387 .0316497
468.271 .0316416
469.153 .0316365
470.035 .0316341
470.915 .0316328
471.794 .0316345
472.673 .0316374
473.550 .0316394
474.426 .0316413
475.301 .0316415
476.175 .0316380
477.048 .0316276
477.920 .0316093
478.791 .0315860
479.661 .0315577
480.530 .0315272
481.398 .0314951
482.266 .0314683
483.132 .0314470
483.997 .0314269
484.861 .0314039
485.724 .0313821
486.587 .0313582
487.448 .0313281
488.308 .0312933
489.168 .0312573
490.026 .0312184
490.884 .0311821
491.741 .0311489
492.597 .0311208
493.452 .0310972
494.306 .0310797
495.159 .0310621
496.011 .0310472
496.862 .0310324
497.713 .0310134
498.562 .0309919
499.411 .0309699
500.259 .0309410
501.106 .0309057
501.952 .0308671
502.798 .0308245
503.642 .0307764
504.486 .0307289
505.329 .0306780
506.171 .0306238
507.012 .0305684
507.852 .0305070
508.692 .0304369
509.531 .0303584
510.369 .0302703
511.206 .0301728
512.043 .0300673
512.878 .0299515
513.713 .0298268
514.547 .0296995
515.381 .0295697
516.213 .0294367
517.045 .0293022
517.876 .0291691
518.706 .0290351
519.536 .0288997
520.365 .0287670
521.193 .0286286
522.020 .0284909
522.847 .0283449
523.673 .0281882
524.498 .0280224
525.323 .0278404
526.146 .0276578
526.969 .0274807
527.792 .0273153
528.614 .0271608
529.435 .0270242
530.255 .0269080
531.075 .0268013
531.894 .0267047
532.712 .0266073
533.530 .0265060
534.347 .0264007
535.163 .0262908
535.979 .0261867
536.794 .0260959
537.608 .0260289
538.422 .0259792
539.235 .0259581
540.048 .0259514
540.860 .0259545
541.671 .0259670
542.481 .0259800
543.292 .0259886
544.101 .0259915
544.910 .0259906
545.718 .0259902
546.526 .0259900
547.333 .0259942
548.139 .0260026
548.945 .0260227
549.750 .0260481
550.555 .0260822
551.359 .0261246
552.162 .0261748
552.965 .0262240
553.768 .0262743
554.569 .0263249
555.371 .0263680
556.171 .0264048
556.972 .0264358
557.771 .0264650
558.570 .0264994
559.369 .0265383
560.167 .0265898
560.964 .0266556
561.761 .0267330
562.558 .0268206
563.354 .0269127
564.149 .0270068
564.944 .0271003
565.738 .0271904
566.532 .0272782
567.325 .0273634
568.118 .0274477
568.910 .0275330
569.702 .0276231
570.494 .0277188
571.285 .0278157
572.075 .0279143
572.865 .0280127
573.654 .0281032
574.443 .0281880
575.232 .0282662
576.020 .0283365
576.807 .0284010
577.594 .0284610
578.381 .0285153
579.167 .0285693
579.952 .0286256
580.738 .0286846
581.522 .0287440
582.307 .0288053
583.091 .0288642
583.874 .0289216
584.657 .0289763
585.440 .0290273
586.222 .0290713
587.004 .0291116
587.785 .0291454
588.566 .0291745
589.346 .0292000
590.126 .0292241
590.906 .0292464
591.685 .0292682
592.464 .0292869
593.242 .0293019
594.020 .0293117
594.797 .0293187
595.575 .0293202
596.351 .0293180
597.128 .0293120
597.904 .0293033
598.679 .0292929
599.454 .0292821
600.229 .0292719
601.004 .0292638
601.778 .0292568
602.551 .0292509
603.325 .0292447
604.097 .0292386
604.870 .0292311
605.642 .0292222
606.414 .0292119
607.185 .0292003
607.956 .0291872
608.727 .0291737
609.497 .0291606
610.267 .0291488
611.037 .0291384
611.806 .0291296
612.575 .0291220
613.344 .0291147
614.112 .0291064
614.880 .0290967
615.647 .0290848
616.414 .0290709
617.181 .0290549
617.948 .0290380
618.714 .0290216
619.480 .0290060
620.245 .0289914
621.011 .0289778
621.775 .0289653
622.540 .0289526
623.304 .0289395
624.068 .0289256
624.832 .0289107
625.595 .0288951
626.358 .0288789
627.120 .0288627
627.883 .0288466
628.645 .0288313
629.406 .0288168
630.168 .0288026
630.929 .0287892
631.689 .0287756
632.450 .0287620
633.210 .0287480
633.970 .0287335
634.729 .0287177
635.489 .0287003
636.248 .0286809
637.006 .0286601
637.765 .0286375
638.523 .0286140
639.280 .0285899
640.038 .0285663
640.795 .0285442
641.552 .0285235
642.309 .0285040
643.065 .0284861
643.821 .0284688
644.577 .0284519
645.332 .0284345
646.088 .0284176
646.843 .0284009
647.597 .0283854
648.352 .0283718
649.106 .0283604
649.860 .0283513
650.613 .0283436
651.367 .0283368
652.120 .0283299
652.872 .0283210
653.625 .0283097
654.377 .0282962
655.129 .0282808
655.881 .0282637
656.632 .0282455
657.384 .0282272
658.135 .0282094
658.885 .0281926
659.636 .0281766
660.386 .0281613
661.136 .0281469
661.885 .0281327
662.635 .0281185
663.384 .0281050
664.133 .0280916
664.881 .0280786
665.630 .0280658
666.378 .0280535
667.126 .0280412
667.874 .0280290
668.621 .0280166
669.368 .0280043
670.115 .0279919
670.862 .0279797
671.608 .0279676
672.354 .0279564
673.100 .0279454
673.846 .0279344
674.591 .0279234
675.337 .0279122
676.082 .0279008
676.826 .0278891
677.571 .0278776
678.315 .0278671
679.059 .0278577
679.803 .0278494
680.547 .0278424
681.290 .0278366
682.033 .0278309
682.776 .0278248
683.518 .0278177
684.261 .0278092
685.003 .0277993
685.745 .0277883
686.487 .0277769
687.228 .0277652
687.969 .0277535
688.710 .0277415
689.451 .0277294
690.192 .0277170
690.932 .0277035
691.672 .0276886
692.412 .0276726
693.152 .0276557
693.891 .0276382
694.630 .0276212
695.369 .0276051
696.108 .0275900
696.846 .0275758
697.585 .0275621
698.323 .0275485
699.061 .0275346
699.798 .0275205
700.536 .0275059
701.273 .0274914
702.010 .0274768
702.746 .0274622
703.483 .0274488
704.219 .0274365
704.955 .0274248
705.691 .0274137
706.427 .0274027
707.162 .0273915
707.897 .0273799
708.632 .0273676
709.367 .0273544
710.101 .0273404
710.835 .0273257
711.569 .0273100
712.303 .0272931
713.037 .0272757
713.770 .0272574
714.503 .0272385
715.236 .0272191
715.969 .0271987
716.702 .0271780
717.434 .0271573
718.166 .0271366
718.898 .0271161
719.629 .0270960
720.361 .0270767
721.092 .0270573
721.823 .0270386
722.554 .0270196
723.284 .0270006
724.014 .0269813
724.744 .0269615
725.474 .0269409
726.204 .0269201
726.933 .0268992
727.662 .0268782
728.391 .0268573
729.120 .0268369
729.849 .0268162
730.577 .0267957
731.305 .0267746
732.033 .0267528
732.760 .0267302
733.488 .0267075
734.215 .0266844
734.942 .0266619
735.669 .0266399
736.395 .0266188
737.122 .0265985
737.848 .0265793
738.573 .0265608
739.299 .0265430
740.024 .0265255
740.750 .0265085
741.474 .0264916
742.199 .0264755
742.924 .0264596
743.648 .0264448
744.372 .0264304
745.096 .0264163
745.819 .0264020
746.543 .0263878
747.266 .0263734
747.989 .0263596
748.711 .0263466
749.434 .0263347
750.156 .0263236
750.878 .0263139
751.599 .0263050
752.321 .0262968
753.042 .0262890
753.763 .0262806
754.484 .0262711
755.205 .0262611
755.925 .0262502
756.645 .0262387
757.365 .0262273
758.085 .0262161
758.804 .0262049
759.523 .0261933
760.242 .0261806
760.961 .0261667
761.679 .0261521
762.397 .0261362
763.115 .0261190
763.833 .0261009
764.551 .0260826
765.268 .0260637
765.985 .0260451
766.702 .0260266
767.418 .0260081
768.134 .0259896
768.850 .0259707
769.566 .0259515
770.282 .0259321
770.997 .0259126
771.712 .0258934
772.427 .0258749
773.142 .0258573
773.856 .0258397
774.570 .0258225
775.284 .0258057
775.998 .0257887
776.711 .0257716
777.424 .0257548
778.137 .0257382
778.849 .0257218
779.562 .0257053
780.274 .0256890
780.986 .0256729
781.697 .0256572
782.409 .0256413
783.120 .0256258
783.831 .0256111
784.541 .0255973
785.252 .0255849
785.962 .0255742
786.671 .0255651
787.381 .0255570
788.090 .0255494
788.799 .0255417
789.508 .0255332
790.217 .0255240
790.925 .0255137
791.633 .0255027
792.341 .0254909
793.048 .0254790
793.755 .0254670
794.462 .0254553
795.169 .0254438
795.875 .0254323
796.581 .0254206
797.287 .0254083
797.993 .0253952
798.698 .0253816
799.403 .0253675
800.108 .0253533
800.812 .0253395
801.517 .0253265
802.221 .0253147
802.924 .0253040
803.628 .0252949
804.331 .0252877
805.034 .0252822
805.736 .0252780
806.439 .0252749
807.141 .0252727
807.843 .0252707
808.544 .0252682
809.245 .0252649
809.946 .0252602
810.647 .0252543
811.347 .0252470
812.047 .0252388
812.747 .0252298
813.447 .0252203
814.146 .0252105
814.845 .0252013
815.543 .0251925
816.242 .0251840
816.940 .0251755
817.638 .0251672
818.335 .0251591
819.032 .0251505
819.729 .0251418
820.426 .0251331
821.122 .0251247
821.818 .0251164
822.514 .0251082
823.209 .0251007
823.905 .0250938
824.599 .0250877
825.294 .0250820
825.988 .0250761
826.682 .0250698
827.376 .0250627
828.069 .0250543
828.762 .0250449
829.455 .0250342
830.147 .0250228
830.840 .0250111
831.531 .0249995
832.223 .0249887
832.914 .0249788
833.605 .0249703
834.296 .0249630
834.986 .0249563
835.676 .0249498
836.366 .0249430
837.055 .0249357
837.744 .0249275
838.433 .0249189
839.121 .0249099
839.809 .0249005
840.497 .0248913
841.185 .0248828
841.872 .0248744
842.559 .0248666
843.245 .0248592
843.932 .0248517
844.617 .0248439
845.303 .0248357
845.988 .0248268
846.673 .0248176
847.358 .0248084
848.042 .0247994
848.726 .0247907
849.410 .0247828
850.093 .0247751
850.776 .0247675
851.459 .0247602
852.141 .0247526
852.823 .0247442
853.505 .0247356
854.186 .0247262
854.867 .0247166
855.548 .0247071
856.228 .0246977
856.908 .0246889
857.588 .0246811
858.267 .0246736
858.946 .0246660
859.625 .0246582
860.303 .0246503
860.981 .0246422
861.659 .0246343
862.336 .0246265
863.013 .0246191
863.690 .0246123
864.366 .0246056
865.042 .0245988
865.718 .0245921
866.393 .0245850
867.068 .0245774
867.743 .0245693
868.417 .0245606
869.091 .0245516
869.765 .0245426
870.438 .0245334
871.111 .0245239
871.783 .0245137
872.456 .0245030
873.127 .0244914
873.799 .0244793
874.470 .0244664
875.141 .0244528
875.811 .0244399
876.481 .0244270
877.151 .0244148
877.820 .0244033
878.489 .0243926
879.158 .0243820
879.826 .0243717
880.494 .0243615
881.162 .0243510
881.829 .0243412
882.496 .0243318
883.163 .0243228
883.829 .0243148
884.495 .0243080
885.160 .0243021
885.825 .0242968
886.490 .0242922
887.154 .0242868
887.818 .0242811
888.482 .0242746
889.145 .0242672
889.808 .0242591
890.471 .0242505
891.133 .0242413
891.795 .0242314
892.456 .0242211
893.117 .0242101
893.778 .0241986
894.439 .0241864
895.099 .0241734
895.758 .0241595
896.417 .0241448
897.076 .0241297
897.735 .0241145
898.393 .0240998
899.051 .0240856
899.708 .0240720
900.365 .0240591
901.022 .0240466
901.678 .0240347
902.334 .0240231
902.990 .0240124
903.645 .0240023
904.300 .0239929
904.954 .0239841
905.608 .0239759
906.262 .0239687
906.915 .0239619
907.568 .0239551
908.221 .0239486
908.873 .0239418
909.525 .0239347
910.176 .0239269
910.828 .0239186
911.478 .0239096
912.129 .0238997
912.778 .0238884
913.428 .0238762
914.077 .0238632
914.726 .0238497
915.375 .0238356
916.023 .0238219
916.670 .0238090
917.318 .0237961
917.964 .0237836
918.611 .0237719
919.257 .0237603
919.903 .0237487
920.548 .0237369
921.193 .0237254
921.838 .0237141
922.482 .0237035
923.126 .0236933
923.770 .0236842
924.413 .0236763
925.056 .0236684
925.698 .0236605
926.340 .0236524
926.982 .0236432
927.623 .0236326
928.264 .0236208
928.904 .0236075
929.544 .0235927
930.184 .0235773
930.823 .0235608
931.462 .0235437
932.101 .0235265
932.739 .0235088
933.377 .0234905
934.014 .0234718
934.651 .0234525
935.288 .0234324
935.924 .0234127
936.560 .0233932
937.196 .0233742
937.831 .0233566
938.466 .0233405
939.100 .0233254
939.734 .0233118
940.368 .0232989
941.001 .0232862
941.634 .0232736
942.266 .0232610
942.899 .0232473
943.530 .0232329
944.162 .0232177
944.793 .0232021
945.423 .0231861
946.053 .0231701
946.683 .0231531
947.313 .0231357
947.942 .0231176
948.571 .0230983
949.199 .0230776
949.827 .0230558
950.455 .0230325
951.082 .0230086
951.709 .0229841
952.335 .0229599
952.961 .0229361
953.587 .0229136
954.212 .0228918
954.837 .0228707
955.462 .0228499
956.086 .0228290
956.710 .0228084
957.334 .0227878
957.957 .0227675
958.579 .0227479
959.202 .0227290
959.824 .0227107
960.445 .0226937
961.067 .0226781
961.688 .0226632
962.308 .0226494
962.928 .0226369
963.548 .0226251
964.168 .0226141
964.787 .0226037
965.406 .0225942
966.024 .0225857
966.642 .0225783
967.260 .0225712
967.877 .0225648
968.494 .0225589
969.110 .0225531
969.727 .0225470
970.342 .0225408
970.958 .0225342
971.573 .0225273
972.188 .0225203
972.802 .0225131
973.416 .0225053
974.030 .0224978
974.643 .0224898
975.256 .0224824
975.869 .0224750
976.481 .0224678
977.093 .0224612
977.705 .0224552
978.316 .0224504
978.927 .0224465
979.538 .0224434
980.148 .0224415
980.758 .0224399
981.367 .0224394
981.977 .0224393
982.586 .0224402
983.194 .0224420
983.802 .0224441
984.410 .0224458
985.018 .0224469
985.625 .0224466
986.232 .0224450
986.838 .0224421
987.445 .0224380
988.050 .0224333
988.656 .0224284
989.261 .0224238
989.866 .0224196
990.471 .0224162
991.075 .0224138
991.679 .0224114
992.282 .0224091
992.886 .0224067
993.489 .0224042
994.091 .0224024
994.694 .0224015
995.296 .0224023
995.897 .0224048
996.499 .0224090
997.100 .0224141
997.701 .0224195
998.301 .0224245
998.901 .0224289
999.501 .0224320
1000.101 .0224341
1000.700 .0224351
1001.299 .0224356
1001.898 .0224362
1002.496 .0224368
1003.094 .0224373
1003.692 .0224380
1004.289 .0224383
1004.887 .0224383
1005.484 .0224373
1006.080 .0224357
1006.677 .0224341
1007.273 .0224331
1007.868 .0224322
1008.464 .0224324
1009.059 .0224337
1009.654 .0224360
1010.249 .0224392
1010.843 .0224434
1011.437 .0224484
1012.031 .0224539
1012.625 .0224599
1013.218 .0224661
1013.811 .0224724
1014.404 .0224791
1014.997 .0224858
1015.589 .0224923
1016.181 .0224995
1016.773 .0225066
1017.365 .0225140
1017.956 .0225224
1018.547 .0225311
1019.138 .0225397
1019.728 .0225482
1020.319 .0225568
1020.909 .0225649
1021.499 .0225720
1022.088 .0225788
1022.678 .0225851
1023.267 .0225914
1023.856 .0225974
1024.445 .0226033
1025.033 .0226094
1025.621 .0226154
1026.209 .0226201
1026.797 .0226229
1027.385 .0226237
1027.972 .0226220
1028.560 .0226183
1029.147 .0226122
1029.734 .0226056
1030.320 .0225982
1030.907 .0225913
1031.493 .0225858
1032.079 .0225817
1032.665 .0225793
1033.250 .0225782
1033.836 .0225786
1034.421 .0225796
1035.006 .0225808
1035.591 .0225834
1036.176 .0225865
1036.761 .0225919
1037.345 .0225989
1037.929 .0226079
1038.514 .0226187
1039.097 .0226317
1039.681 .0226456
1040.265 .0226598
1040.848 .0226740
1041.432 .0226873
1042.015 .0226988
1042.598 .0227087
1043.181 .0227173
1043.764 .0227247
1044.346 .0227316
1044.929 .0227384
1045.511 .0227443
1046.094 .0227499
1046.676 .0227537
1047.258 .0227569
1047.840 .0227582
1048.422 .0227577
1049.003 .0227557
1049.585 .0227527
1050.166 .0227495
1050.748 .0227460
1051.329 .0227422
1051.910 .0227394
1052.491 .0227366
1053.072 .0227345
1053.653 .0227321
1054.234 .0227305
1054.815 .0227305
1055.396 .0227320
1055.976 .0227354
1056.557 .0227415
1057.138 .0227490
1057.718 .0227591
1058.298 .0227710
1058.879 .0227847
1059.459 .0227983
1060.039 .0228113
1060.620 .0228226
1061.200 .0228312
1061.780 .0228359
1062.360 .0228370
1062.940 .0228342
1063.520 .0228283
1064.101 .0228205
1064.681 .0228111
1065.261 .0228018
1065.841 .0227939
1066.421 .0227873
1067.001 .0227822
1067.581 .0227778
1068.161 .0227741
1068.741 .0227698
1069.321 .0227669
1069.901 .0227647
1070.482 .0227636
1071.062 .0227645
1071.642 .0227677
1072.222 .0227726
1072.803 .0227806
1073.383 .0227912
1073.963 .0228013
1074.544 .0228104
1075.124 .0228182
1075.705 .0228221
1076.286 .0228237
1076.866 .0228229
1077.447 .0228213
1078.028 .0228195
1078.609 .0228177
1079.190 .0228137
1079.771 .0228107
1080.352 .0228081
1080.934 .0228057
1081.515 .0228038
1082.097 .0228035
1082.679 .0228031
1083.260 .0228015
1083.842 .0227998
1084.424 .0227970
1085.007 .0227921
1085.589 .0227858
1086.172 .0227764
1086.754 .0227672
1087.337 .0227567
1087.920 .0227464
1088.503 .0227378
1089.087 .0227313
1089.670 .0227254
1090.254 .0227192
1090.838 .0227131
1091.422 .0227079
1092.006 .0227033
1092.590 .0226995
1093.175 .0226978
1093.760 .0226986
1094.345 .0227014
1094.930 .0227056
1095.516 .0227120
1096.102 .0227203
1096.688 .0227288
1097.274 .0227369
1097.860 .0227428
1098.447 .0227456
1099.034 .0227464
1099.622 .0227436
1100.209 .0227393
1100.797 .0227328
1101.385 .0227245
1101.973 .0227166
1102.562 .0227110
1103.151 .0227090
1103.740 .0227103
1104.330 .0227164
1104.920 .0227257
1105.510 .0227359
1106.101 .0227463
1106.691 .0227548
1107.283 .0227624
1107.874 .0227688
1108.466 .0227723
1109.058 .0227744
1109.651 .0227766
1110.244 .0227797
1110.837 .0227822
1111.431 .0227818
1112.025 .0227773
1112.620 .0227660
1113.215 .0227483
1113.810 .0227258
1114.406 .0227011
1115.002 .0226775
1115.599 .0226570
1116.196 .0226421
1116.793 .0226309
1117.391 .0226242
1117.989 .0226216
1118.588 .0226228
1119.187 .0226237
1119.787 .0226248
1120.387 .0226242
1120.988 .0226252
1121.589 .0226311
1122.190 .0226397
1122.793 .0226533
1123.395 .0226720
1123.998 .0226924
1124.602 .0227126
1125.206 .0227305
1125.811 .0227474
1126.416 .0227590
1127.022 .0227692
1127.628 .0227751
1128.235 .0227773
1128.843 .0227813
1129.451 .0227858
1130.059 .0227907
1130.669 .0227961
1131.278 .0227994
1131.889 .0227973
1132.500 .0227933
1133.112 .0227858
1133.724 .0227721
1134.337 .0227573
1134.950 .0227409
1135.564 .0227237
1136.179 .0227062
1136.795 .0226947
1137.411 .0226892
1138.028 .0226918
1138.645 .0227012
1139.263 .0227188
1139.882 .0227449
1140.502 .0227846
1141.122 .0228390
1141.743 .0229086
1142.365 .0230229
1142.987 .0229600
1143.611 .0231600
1144.235 .0233959
1144.859 .0234923
1145.485 .0244196
