Measurement Sequence started on: 10-20-44-796
Integration time: 35
Scans to Average: 2 
>>>>>Begin Spectral Data<<<<<
432.953 .0456648
433.882 .0383798
434.810 .0373106
435.737 .0374912
436.662 .0365714
437.586 .0364547
438.509 .0357937
439.431 .0354367
440.351 .0351633
441.269 .0349284
442.187 .0347729
443.103 .0346778
444.018 .0346367
444.932 .0346247
445.844 .0346434
446.756 .0346822
447.666 .0347233
448.575 .0347451
449.482 .0347537
450.388 .0347433
451.294 .0347205
452.198 .0346812
453.100 .0346356
454.002 .0345932
454.902 .0345583
455.801 .0345318
456.699 .0345227
457.596 .0345245
458.492 .0345299
459.387 .0345259
460.280 .0345159
461.172 .0345029
462.064 .0344789
462.954 .0344511
463.843 .0344201
464.730 .0343946
465.617 .0343758
466.503 .0343657
467.387 .0343651
468.271 .0343749
469.153 .0343910
470.035 .0344079
470.915 .0344196
471.794 .0344251
472.673 .0344193
473.550 .0344044
474.426 .0343847
475.301 .0343586
476.175 .0343284
477.048 .0343014
477.920 .0342768
478.791 .0342550
479.661 .0342340
480.530 .0342126
481.398 .0341850
482.266 .0341526
483.132 .0341130
483.997 .0340643
484.861 .0340120
485.724 .0339635
486.587 .0339179
487.448 .0338788
488.308 .0338446
489.168 .0338161
490.026 .0337925
490.884 .0337718
491.741 .0337495
492.597 .0337258
493.452 .0337011
494.306 .0336736
495.159 .0336438
496.011 .0336161
496.862 .0335891
497.713 .0335617
498.562 .0335312
499.411 .0334994
500.259 .0334602
501.106 .0334145
501.952 .0333617
502.798 .0333060
503.642 .0332446
504.486 .0331762
505.329 .0331019
506.171 .0330257
507.012 .0329477
507.852 .0328687
508.692 .0327903
509.531 .0327126
510.369 .0326350
511.206 .0325581
512.043 .0324795
512.878 .0324023
513.713 .0323195
514.547 .0322283
515.381 .0321262
516.213 .0320131
517.045 .0318863
517.876 .0317429
518.706 .0315907
519.536 .0314292
520.365 .0312575
521.193 .0310747
522.020 .0308821
522.847 .0306804
523.673 .0304664
524.498 .0302413
525.323 .0300039
526.146 .0297645
526.969 .0295293
527.792 .0293004
528.614 .0290842
529.435 .0288934
530.255 .0287294
531.075 .0285851
531.894 .0284709
532.712 .0283817
533.530 .0283057
534.347 .0282507
535.163 .0282112
535.979 .0281946
536.794 .0281937
537.608 .0282102
538.422 .0282377
539.235 .0282754
540.048 .0283196
540.860 .0283557
541.671 .0283824
542.481 .0284018
543.292 .0283995
544.101 .0283801
544.910 .0283503
545.718 .0283206
546.526 .0282904
547.333 .0282680
548.139 .0282499
548.945 .0282374
549.750 .0282216
550.555 .0282078
551.359 .0281924
552.162 .0281760
552.965 .0281642
553.768 .0281559
554.569 .0281607
555.371 .0281828
556.171 .0282175
556.972 .0282660
557.771 .0283224
558.570 .0283791
559.369 .0284272
560.167 .0284655
560.964 .0284973
561.761 .0285183
562.558 .0285381
563.354 .0285612
564.149 .0285876
564.944 .0286226
565.738 .0286713
566.532 .0287275
567.325 .0287936
568.118 .0288655
568.910 .0289418
569.702 .0290245
570.494 .0291138
571.285 .0292086
572.075 .0293107
572.865 .0294197
573.654 .0295345
574.443 .0296492
575.232 .0297652
576.020 .0298789
576.807 .0299887
577.594 .0300926
578.381 .0301885
579.167 .0302764
579.952 .0303560
580.738 .0304266
581.522 .0304893
582.307 .0305428
583.091 .0305889
583.874 .0306300
584.657 .0306662
585.440 .0306986
586.222 .0307279
587.004 .0307525
587.785 .0307753
588.566 .0307952
589.346 .0308133
590.126 .0308284
590.906 .0308419
591.685 .0308541
592.464 .0308642
593.242 .0308723
594.020 .0308774
594.797 .0308805
595.575 .0308821
596.351 .0308809
597.128 .0308773
597.904 .0308724
598.679 .0308676
599.454 .0308622
600.229 .0308577
601.004 .0308532
601.778 .0308501
602.551 .0308465
603.325 .0308420
604.097 .0308366
604.870 .0308298
605.642 .0308214
606.414 .0308118
607.185 .0308016
607.956 .0307902
608.727 .0307774
609.497 .0307640
610.267 .0307496
611.037 .0307343
611.806 .0307174
612.575 .0306998
613.344 .0306815
614.112 .0306627
614.880 .0306421
615.647 .0306204
616.414 .0305977
617.181 .0305737
617.948 .0305485
618.714 .0305224
619.480 .0304967
620.245 .0304713
621.011 .0304462
621.775 .0304219
622.540 .0303983
623.304 .0303757
624.068 .0303530
624.832 .0303304
625.595 .0303072
626.358 .0302834
627.120 .0302592
627.883 .0302341
628.645 .0302089
629.406 .0301840
630.168 .0301592
630.929 .0301355
631.689 .0301126
632.450 .0300901
633.210 .0300679
633.970 .0300457
634.729 .0300232
635.489 .0300003
636.248 .0299760
637.006 .0299506
637.765 .0299238
638.523 .0298957
639.280 .0298665
640.038 .0298366
640.795 .0298074
641.552 .0297776
642.309 .0297478
643.065 .0297180
643.821 .0296879
644.577 .0296578
645.332 .0296281
646.088 .0295988
646.843 .0295713
647.597 .0295457
648.352 .0295224
649.106 .0295019
649.860 .0294846
650.613 .0294694
651.367 .0294559
652.120 .0294429
652.872 .0294303
653.625 .0294168
654.377 .0294039
655.129 .0293913
655.881 .0293792
656.632 .0293679
657.384 .0293567
658.135 .0293456
658.885 .0293339
659.636 .0293214
660.386 .0293085
661.136 .0292948
661.885 .0292805
662.635 .0292659
663.384 .0292520
664.133 .0292396
664.881 .0292287
665.630 .0292185
666.378 .0292091
667.126 .0292001
667.874 .0291906
668.621 .0291803
669.368 .0291696
670.115 .0291586
670.862 .0291474
671.608 .0291368
672.354 .0291264
673.100 .0291159
673.846 .0291058
674.591 .0290951
675.337 .0290840
676.082 .0290719
676.826 .0290583
677.571 .0290435
678.315 .0290280
679.059 .0290120
679.803 .0289960
680.547 .0289809
681.290 .0289665
682.033 .0289522
682.776 .0289386
683.518 .0289250
684.261 .0289111
685.003 .0288967
685.745 .0288817
686.487 .0288660
687.228 .0288498
687.969 .0288328
688.710 .0288157
689.451 .0287987
690.192 .0287818
690.932 .0287645
691.672 .0287473
692.412 .0287297
693.152 .0287120
693.891 .0286939
694.630 .0286759
695.369 .0286576
696.108 .0286397
696.846 .0286216
697.585 .0286035
698.323 .0285857
699.061 .0285677
699.798 .0285497
700.536 .0285322
701.273 .0285142
702.010 .0284958
702.746 .0284768
703.483 .0284574
704.219 .0284371
704.955 .0284167
705.691 .0283955
706.427 .0283741
707.162 .0283527
707.897 .0283317
708.632 .0283107
709.367 .0282905
710.101 .0282709
710.835 .0282519
711.569 .0282338
712.303 .0282161
713.037 .0281989
713.770 .0281827
714.503 .0281668
715.236 .0281516
715.969 .0281367
716.702 .0281224
717.434 .0281077
718.166 .0280930
718.898 .0280777
719.629 .0280616
720.361 .0280445
721.092 .0280264
721.823 .0280072
722.554 .0279870
723.284 .0279659
724.014 .0279432
724.744 .0279196
725.474 .0278951
726.204 .0278695
726.933 .0278437
727.662 .0278180
728.391 .0277931
729.120 .0277697
729.849 .0277483
730.577 .0277289
731.305 .0277114
732.033 .0276962
732.760 .0276821
733.488 .0276689
734.215 .0276562
734.942 .0276437
735.669 .0276307
736.395 .0276181
737.122 .0276051
737.848 .0275921
738.573 .0275790
739.299 .0275654
740.024 .0275515
740.750 .0275370
741.474 .0275215
742.199 .0275052
742.924 .0274881
743.648 .0274707
744.372 .0274523
745.096 .0274341
745.819 .0274162
746.543 .0273990
747.266 .0273826
747.989 .0273675
748.711 .0273533
749.434 .0273410
750.156 .0273300
750.878 .0273208
751.599 .0273139
752.321 .0273089
753.042 .0273056
753.763 .0273035
754.484 .0273027
755.205 .0273019
755.925 .0273009
756.645 .0272990
757.365 .0272955
758.085 .0272904
758.804 .0272836
759.523 .0272750
760.242 .0272651
760.961 .0272538
761.679 .0272413
762.397 .0272273
763.115 .0272121
763.833 .0271948
764.551 .0271760
765.268 .0271551
765.985 .0271327
766.702 .0271086
767.418 .0270837
768.134 .0270584
768.850 .0270336
769.566 .0270095
770.282 .0269868
770.997 .0269655
771.712 .0269458
772.427 .0269279
773.142 .0269123
773.856 .0268977
774.570 .0268847
775.284 .0268727
775.998 .0268618
776.711 .0268513
777.424 .0268414
778.137 .0268320
778.849 .0268229
779.562 .0268140
780.274 .0268052
780.986 .0267968
781.697 .0267893
782.409 .0267820
783.120 .0267756
783.831 .0267691
784.541 .0267625
785.252 .0267555
785.962 .0267480
786.671 .0267403
787.381 .0267319
788.090 .0267226
788.799 .0267130
789.508 .0267027
790.217 .0266915
790.925 .0266790
791.633 .0266657
792.341 .0266514
793.048 .0266360
793.755 .0266195
794.462 .0266022
795.169 .0265846
795.875 .0265673
796.581 .0265499
797.287 .0265328
797.993 .0265162
798.698 .0264994
799.403 .0264835
800.108 .0264680
800.812 .0264533
801.517 .0264399
802.221 .0264278
802.924 .0264173
803.628 .0264080
804.331 .0264002
805.034 .0263936
805.736 .0263877
806.439 .0263821
807.141 .0263758
807.843 .0263692
808.544 .0263620
809.245 .0263537
809.946 .0263441
810.647 .0263337
811.347 .0263223
812.047 .0263097
812.747 .0262962
813.447 .0262818
814.146 .0262671
814.845 .0262522
815.543 .0262376
816.242 .0262233
816.940 .0262102
817.638 .0261984
818.335 .0261878
819.032 .0261787
819.729 .0261705
820.426 .0261625
821.122 .0261541
821.818 .0261449
822.514 .0261352
823.209 .0261244
823.905 .0261131
824.599 .0261012
825.294 .0260895
825.988 .0260780
826.682 .0260668
827.376 .0260557
828.069 .0260444
828.762 .0260323
829.455 .0260181
830.147 .0260018
830.840 .0259840
831.531 .0259648
832.223 .0259455
832.914 .0259270
833.605 .0259103
834.296 .0258957
834.986 .0258837
835.676 .0258741
836.366 .0258665
837.055 .0258603
837.744 .0258543
838.433 .0258477
839.121 .0258410
839.809 .0258333
840.497 .0258254
841.185 .0258181
841.872 .0258119
842.559 .0258063
843.245 .0258014
843.932 .0257970
844.617 .0257927
845.303 .0257879
845.988 .0257821
846.673 .0257750
847.358 .0257669
848.042 .0257576
848.726 .0257471
849.410 .0257362
850.093 .0257255
850.776 .0257145
851.459 .0257039
852.141 .0256927
852.823 .0256808
853.505 .0256679
854.186 .0256543
854.867 .0256403
855.548 .0256262
856.228 .0256128
856.908 .0256009
857.588 .0255903
858.267 .0255815
858.946 .0255738
859.625 .0255676
860.303 .0255622
860.981 .0255566
861.659 .0255507
862.336 .0255446
863.013 .0255383
863.690 .0255326
864.366 .0255278
865.042 .0255245
865.718 .0255224
866.393 .0255210
867.068 .0255194
867.743 .0255166
868.417 .0255120
869.091 .0255050
869.765 .0254955
870.438 .0254841
871.111 .0254710
871.783 .0254574
872.456 .0254441
873.127 .0254316
873.799 .0254203
874.470 .0254097
875.141 .0253995
875.811 .0253894
876.481 .0253788
877.151 .0253682
877.820 .0253577
878.489 .0253474
879.158 .0253379
879.826 .0253295
880.494 .0253226
881.162 .0253169
881.829 .0253125
882.496 .0253086
883.163 .0253048
883.829 .0253010
884.495 .0252963
885.160 .0252913
885.825 .0252859
886.490 .0252801
887.154 .0252743
887.818 .0252688
888.482 .0252634
889.145 .0252578
889.808 .0252531
890.471 .0252487
891.133 .0252445
891.795 .0252407
892.456 .0252373
893.117 .0252339
893.778 .0252307
894.439 .0252272
895.099 .0252228
895.758 .0252186
896.417 .0252143
897.076 .0252098
897.735 .0252060
898.393 .0252027
899.051 .0252000
899.708 .0251977
900.365 .0251958
901.022 .0251935
901.678 .0251907
902.334 .0251873
902.990 .0251831
903.645 .0251786
904.300 .0251741
904.954 .0251699
905.608 .0251661
906.262 .0251631
906.915 .0251609
907.568 .0251589
908.221 .0251571
908.873 .0251552
909.525 .0251530
910.176 .0251498
910.828 .0251460
911.478 .0251415
912.129 .0251361
912.778 .0251305
913.428 .0251245
914.077 .0251179
914.726 .0251109
915.375 .0251032
916.023 .0250948
916.670 .0250860
917.318 .0250765
917.964 .0250662
918.611 .0250557
919.257 .0250446
919.903 .0250327
920.548 .0250206
921.193 .0250086
921.838 .0249962
922.482 .0249840
923.126 .0249717
923.770 .0249594
924.413 .0249471
925.056 .0249351
925.698 .0249231
926.340 .0249119
926.982 .0249012
927.623 .0248915
928.264 .0248831
928.904 .0248758
929.544 .0248689
930.184 .0248627
930.823 .0248563
931.462 .0248494
932.101 .0248413
932.739 .0248323
933.377 .0248221
934.014 .0248110
934.651 .0247992
935.288 .0247866
935.924 .0247740
936.560 .0247620
937.196 .0247499
937.831 .0247381
938.466 .0247266
939.100 .0247150
939.734 .0247032
940.368 .0246910
941.001 .0246782
941.634 .0246645
942.266 .0246505
942.899 .0246362
943.530 .0246214
944.162 .0246070
944.793 .0245932
945.423 .0245798
946.053 .0245668
946.683 .0245533
947.313 .0245392
947.942 .0245237
948.571 .0245066
949.199 .0244875
949.827 .0244668
950.455 .0244452
951.082 .0244238
951.709 .0244031
952.335 .0243843
952.961 .0243669
953.587 .0243515
954.212 .0243372
954.837 .0243235
955.462 .0243096
956.086 .0242954
956.710 .0242812
957.334 .0242673
957.957 .0242538
958.579 .0242416
959.202 .0242308
959.824 .0242214
960.445 .0242128
961.067 .0242044
961.688 .0241955
962.308 .0241857
962.928 .0241748
963.548 .0241628
964.168 .0241498
964.787 .0241368
965.406 .0241242
966.024 .0241124
966.642 .0241017
967.260 .0240923
967.877 .0240836
968.494 .0240752
969.110 .0240670
969.727 .0240584
970.342 .0240493
970.958 .0240400
971.573 .0240307
972.188 .0240216
972.802 .0240130
973.416 .0240051
974.030 .0239980
974.643 .0239914
975.256 .0239848
975.869 .0239778
976.481 .0239708
977.093 .0239630
977.705 .0239547
978.316 .0239459
978.927 .0239373
979.538 .0239280
980.148 .0239186
980.758 .0239088
981.367 .0238987
981.977 .0238877
982.586 .0238758
983.194 .0238632
983.802 .0238503
984.410 .0238371
985.018 .0238236
985.625 .0238104
986.232 .0237979
986.838 .0237858
987.445 .0237742
988.050 .0237629
988.656 .0237524
989.261 .0237420
989.866 .0237316
990.471 .0237212
991.075 .0237108
991.679 .0237007
992.282 .0236908
992.886 .0236811
993.489 .0236720
994.091 .0236629
994.694 .0236546
995.296 .0236467
995.897 .0236392
996.499 .0236321
997.100 .0236250
997.701 .0236185
998.301 .0236129
998.901 .0236084
999.501 .0236049
1000.101 .0236031
1000.700 .0236031
1001.299 .0236038
1001.898 .0236052
1002.496 .0236076
1003.094 .0236104
1003.692 .0236132
1004.289 .0236156
1004.887 .0236170
1005.484 .0236176
1006.080 .0236176
1006.677 .0236159
1007.273 .0236138
1007.868 .0236109
1008.464 .0236073
1009.059 .0236027
1009.654 .0235984
1010.249 .0235940
1010.843 .0235898
1011.437 .0235863
1012.031 .0235827
1012.625 .0235794
1013.218 .0235763
1013.811 .0235727
1014.404 .0235699
1014.997 .0235675
1015.589 .0235655
1016.181 .0235633
1016.773 .0235620
1017.365 .0235609
1017.956 .0235598
1018.547 .0235582
1019.138 .0235555
1019.728 .0235513
1020.319 .0235458
1020.909 .0235391
1021.499 .0235321
1022.088 .0235254
1022.678 .0235194
1023.267 .0235142
1023.856 .0235104
1024.445 .0235070
1025.033 .0235042
1025.621 .0235015
1026.209 .0234992
1026.797 .0234962
1027.385 .0234924
1027.972 .0234887
1028.560 .0234860
1029.147 .0234844
1029.734 .0234851
1030.320 .0234879
1030.907 .0234922
1031.493 .0234970
1032.079 .0235023
1032.665 .0235068
1033.250 .0235106
1033.836 .0235127
1034.421 .0235134
1035.006 .0235129
1035.591 .0235123
1036.176 .0235108
1036.761 .0235090
1037.345 .0235074
1037.929 .0235038
1038.514 .0234977
1039.097 .0234895
1039.681 .0234783
1040.265 .0234646
1040.848 .0234499
1041.432 .0234350
1042.015 .0234209
1042.598 .0234083
1043.181 .0233974
1043.764 .0233890
1044.346 .0233829
1044.929 .0233779
1045.511 .0233741
1046.094 .0233717
1046.676 .0233708
1047.258 .0233702
1047.840 .0233707
1048.422 .0233718
1049.003 .0233740
1049.585 .0233755
1050.166 .0233760
1050.748 .0233755
1051.329 .0233737
1051.910 .0233698
1052.491 .0233648
1053.072 .0233592
1053.653 .0233528
1054.234 .0233464
1054.815 .0233408
1055.396 .0233354
1055.976 .0233313
1056.557 .0233274
1057.138 .0233249
1057.718 .0233239
1058.298 .0233241
1058.879 .0233241
1059.459 .0233243
1060.039 .0233246
1060.620 .0233228
1061.200 .0233191
1061.780 .0233137
1062.360 .0233061
1062.940 .0232978
1063.520 .0232879
1064.101 .0232774
1064.681 .0232672
1065.261 .0232565
1065.841 .0232443
1066.421 .0232314
1067.001 .0232177
1067.581 .0232025
1068.161 .0231874
1068.741 .0231740
1069.321 .0231628
1069.901 .0231548
1070.482 .0231501
1071.062 .0231475
1071.642 .0231465
1072.222 .0231460
1072.803 .0231435
1073.383 .0231405
1073.963 .0231363
1074.544 .0231310
1075.124 .0231253
1075.705 .0231199
1076.286 .0231155
1076.866 .0231112
1077.447 .0231075
1078.028 .0231035
1078.609 .0230993
1079.190 .0230945
1079.771 .0230892
1080.352 .0230850
1080.934 .0230817
1081.515 .0230813
1082.097 .0230837
1082.679 .0230886
1083.260 .0230951
1083.842 .0231024
1084.424 .0231093
1085.007 .0231163
1085.589 .0231237
1086.172 .0231297
1086.754 .0231370
1087.337 .0231459
1087.920 .0231564
1088.503 .0231685
1089.087 .0231812
1089.670 .0231934
1090.254 .0232032
1090.838 .0232105
1091.422 .0232129
1092.006 .0232117
1092.590 .0232091
1093.175 .0232052
1093.760 .0231998
1094.345 .0231945
1094.930 .0231876
1095.516 .0231792
1096.102 .0231703
1096.688 .0231595
1097.274 .0231469
1097.860 .0231342
1098.447 .0231202
1099.034 .0231071
1099.622 .0230954
1100.209 .0230862
1100.797 .0230796
1101.385 .0230775
1101.973 .0230797
1102.562 .0230829
1103.151 .0230870
1103.740 .0230903
1104.330 .0230920
1104.920 .0230912
1105.510 .0230856
1106.101 .0230782
1106.691 .0230687
1107.283 .0230579
1107.874 .0230452
1108.466 .0230312
1109.058 .0230199
1109.651 .0230087
1110.244 .0229992
1110.837 .0229902
1111.431 .0229821
1112.025 .0229746
1112.620 .0229693
1113.215 .0229684
1113.810 .0229732
1114.406 .0229832
1115.002 .0230001
1115.599 .0230229
1116.196 .0230487
1116.793 .0230746
1117.391 .0231007
1117.989 .0231252
1118.588 .0231486
1119.187 .0231660
1119.787 .0231810
1120.387 .0231938
1120.988 .0232068
1121.589 .0232183
1122.190 .0232297
1122.793 .0232414
1123.395 .0232520
1123.998 .0232608
1124.602 .0232718
1125.206 .0232850
1125.811 .0233020
1126.416 .0233244
1127.022 .0233522
1127.628 .0233860
1128.235 .0234250
1128.843 .0234649
1129.451 .0235073
1130.059 .0235486
1130.669 .0235860
1131.278 .0236166
1131.889 .0236402
1132.500 .0236581
1133.112 .0236699
1133.724 .0236771
1134.337 .0236830
1134.950 .0236880
1135.564 .0236949
1136.179 .0237060
1136.795 .0237218
1137.411 .0237459
1138.028 .0237759
1138.645 .0238147
1139.263 .0238594
1139.882 .0239092
1140.502 .0239692
1141.122 .0240453
1141.743 .0241405
1142.365 .0242600
1142.987 .0242036
1143.611 .0244334
1144.235 .0247863
1144.859 .0249959
1145.485 .0252290
