Measurement Sequence started on: 10-20-44-796
Integration time: 35
Scans to Average: 2 
>>>>>Begin Spectral Data<<<<<
432.953 .0506866
433.882 .0345054
434.810 .0276732
435.737 .0324605
436.662 .0334147
437.586 .0330466
438.509 .0323204
439.431 .0321396
440.351 .0320600
441.269 .0317879
442.187 .0315139
443.103 .0312959
444.018 .0311279
444.932 .0310201
445.844 .0309468
446.756 .0309106
447.666 .0308729
448.575 .0308351
449.482 .0307927
450.388 .0307526
451.294 .0307304
452.198 .0307138
453.100 .0307029
454.002 .0307172
454.902 .0307425
455.801 .0307853
456.699 .0308391
457.596 .0309014
458.492 .0309478
459.387 .0309725
460.280 .0309741
461.172 .0309512
462.064 .0309123
462.954 .0308626
463.843 .0308095
464.730 .0307582
465.617 .0307153
466.503 .0306778
467.387 .0306450
468.271 .0306209
469.153 .0305986
470.035 .0305775
470.915 .0305619
471.794 .0305492
472.673 .0305397
473.550 .0305389
474.426 .0305510
475.301 .0305684
476.175 .0305964
477.048 .0306289
477.920 .0306616
478.791 .0306929
479.661 .0307201
480.530 .0307365
481.398 .0307423
482.266 .0307413
483.132 .0307296
483.997 .0307132
484.861 .0306949
485.724 .0306759
486.587 .0306577
487.448 .0306447
488.308 .0306335
489.168 .0306199
490.026 .0306054
490.884 .0305863
491.741 .0305614
492.597 .0305357
493.452 .0305098
494.306 .0304904
495.159 .0304806
496.011 .0304832
496.862 .0304966
497.713 .0305159
498.562 .0305351
499.411 .0305476
500.259 .0305461
501.106 .0305293
501.952 .0304937
502.798 .0304448
503.642 .0303915
504.486 .0303370
505.329 .0302858
506.171 .0302382
507.012 .0301954
507.852 .0301521
508.692 .0301022
509.531 .0300438
510.369 .0299713
511.206 .0298861
512.043 .0297908
512.878 .0296830
513.713 .0295699
514.547 .0294566
515.381 .0293428
516.213 .0292337
517.045 .0291192
517.876 .0289953
518.706 .0288636
519.536 .0287196
520.365 .0285605
521.193 .0283823
522.020 .0281916
522.847 .0279918
523.673 .0277780
524.498 .0275634
525.323 .0273410
526.146 .0271315
526.969 .0269348
527.792 .0267475
528.614 .0265653
529.435 .0263963
530.255 .0262329
531.075 .0260822
531.894 .0259342
532.712 .0257887
533.530 .0256412
534.347 .0254990
535.163 .0253613
535.979 .0252321
536.794 .0251194
537.608 .0250340
538.422 .0249645
539.235 .0249184
540.048 .0248818
540.860 .0248638
541.671 .0248640
542.481 .0248812
543.292 .0249093
544.101 .0249449
544.910 .0249915
545.718 .0250428
546.526 .0251004
547.333 .0251617
548.139 .0252221
548.945 .0252805
549.750 .0253298
550.555 .0253707
551.359 .0253996
552.162 .0254299
552.965 .0254587
553.768 .0254865
554.569 .0255189
555.371 .0255572
556.171 .0256060
556.972 .0256633
557.771 .0257229
558.570 .0257876
559.369 .0258564
560.167 .0259273
560.964 .0259953
561.761 .0260681
562.558 .0261501
563.354 .0262442
564.149 .0263455
564.944 .0264609
565.738 .0265827
566.532 .0267136
567.325 .0268424
568.118 .0269635
568.910 .0270754
569.702 .0271790
570.494 .0272704
571.285 .0273513
572.075 .0274184
572.865 .0274785
573.654 .0275279
574.443 .0275749
575.232 .0276168
576.020 .0276606
576.807 .0277061
577.594 .0277567
578.381 .0278127
579.167 .0278798
579.952 .0279538
580.738 .0280380
581.522 .0281259
582.307 .0282159
583.091 .0283029
583.874 .0283861
584.657 .0284647
585.440 .0285422
586.222 .0286151
587.004 .0286849
587.785 .0287513
588.566 .0288162
589.346 .0288743
590.126 .0289272
590.906 .0289726
591.685 .0290115
592.464 .0290411
593.242 .0290635
594.020 .0290804
594.797 .0290942
595.575 .0291046
596.351 .0291128
597.128 .0291190
597.904 .0291245
598.679 .0291283
599.454 .0291309
600.229 .0291316
601.004 .0291327
601.778 .0291317
602.551 .0291298
603.325 .0291285
604.097 .0291274
604.870 .0291266
605.642 .0291272
606.414 .0291286
607.185 .0291294
607.956 .0291311
608.727 .0291331
609.497 .0291337
610.267 .0291348
611.037 .0291361
611.806 .0291362
612.575 .0291359
613.344 .0291350
614.112 .0291326
614.880 .0291293
615.647 .0291243
616.414 .0291163
617.181 .0291057
617.948 .0290923
618.714 .0290758
619.480 .0290559
620.245 .0290350
621.011 .0290120
621.775 .0289881
622.540 .0289638
623.304 .0289391
624.068 .0289139
624.832 .0288885
625.595 .0288635
626.358 .0288395
627.120 .0288159
627.883 .0287943
628.645 .0287741
629.406 .0287564
630.168 .0287406
630.929 .0287268
631.689 .0287147
632.450 .0287042
633.210 .0286940
633.970 .0286836
634.729 .0286718
635.489 .0286598
636.248 .0286457
637.006 .0286297
637.765 .0286119
638.523 .0285929
639.280 .0285725
640.038 .0285511
640.795 .0285287
641.552 .0285062
642.309 .0284836
643.065 .0284609
643.821 .0284375
644.577 .0284140
645.332 .0283912
646.088 .0283684
646.843 .0283462
647.597 .0283255
648.352 .0283064
649.106 .0282900
649.860 .0282756
650.613 .0282637
651.367 .0282533
652.120 .0282443
652.872 .0282359
653.625 .0282267
654.377 .0282176
655.129 .0282069
655.881 .0281957
656.632 .0281845
657.384 .0281732
658.135 .0281622
658.885 .0281516
659.636 .0281415
660.386 .0281314
661.136 .0281206
661.885 .0281095
662.635 .0280983
663.384 .0280876
664.133 .0280773
664.881 .0280675
665.630 .0280592
666.378 .0280524
667.126 .0280458
667.874 .0280399
668.621 .0280335
669.368 .0280268
670.115 .0280183
670.862 .0280081
671.608 .0279977
672.354 .0279867
673.100 .0279761
673.846 .0279657
674.591 .0279555
675.337 .0279460
676.082 .0279364
676.826 .0279265
677.571 .0279159
678.315 .0279043
679.059 .0278918
679.803 .0278787
680.547 .0278662
681.290 .0278541
682.033 .0278423
682.776 .0278323
683.518 .0278232
684.261 .0278133
685.003 .0278034
685.745 .0277929
686.487 .0277819
687.228 .0277705
687.969 .0277587
688.710 .0277463
689.451 .0277338
690.192 .0277215
690.932 .0277084
691.672 .0276947
692.412 .0276809
693.152 .0276660
693.891 .0276509
694.630 .0276357
695.369 .0276207
696.108 .0276063
696.846 .0275933
697.585 .0275819
698.323 .0275716
699.061 .0275628
699.798 .0275549
700.536 .0275475
701.273 .0275412
702.010 .0275354
702.746 .0275300
703.483 .0275261
704.219 .0275238
704.955 .0275232
705.691 .0275236
706.427 .0275250
707.162 .0275265
707.897 .0275274
708.632 .0275273
709.367 .0275249
710.101 .0275197
710.835 .0275112
711.569 .0274991
712.303 .0274844
713.037 .0274672
713.770 .0274480
714.503 .0274274
715.236 .0274070
715.969 .0273867
716.702 .0273664
717.434 .0273456
718.166 .0273250
718.898 .0273041
719.629 .0272825
720.361 .0272600
721.092 .0272368
721.823 .0272141
722.554 .0271915
723.284 .0271696
724.014 .0271488
724.744 .0271282
725.474 .0271079
726.204 .0270872
726.933 .0270662
727.662 .0270436
728.391 .0270203
729.120 .0269964
729.849 .0269715
730.577 .0269465
731.305 .0269210
732.033 .0268956
732.760 .0268714
733.488 .0268486
734.215 .0268264
734.942 .0268060
735.669 .0267867
736.395 .0267680
737.122 .0267498
737.848 .0267312
738.573 .0267120
739.299 .0266918
740.024 .0266709
740.750 .0266488
741.474 .0266266
742.199 .0266054
742.924 .0265845
743.648 .0265652
744.372 .0265477
745.096 .0265310
745.819 .0265154
746.543 .0265001
747.266 .0264848
747.989 .0264698
748.711 .0264554
749.434 .0264415
750.156 .0264293
750.878 .0264188
751.599 .0264103
752.321 .0264030
753.042 .0263970
753.763 .0263910
754.484 .0263844
755.205 .0263771
755.925 .0263684
756.645 .0263576
757.365 .0263451
758.085 .0263309
758.804 .0263157
759.523 .0262994
760.242 .0262821
760.961 .0262640
761.679 .0262456
762.397 .0262262
763.115 .0262056
763.833 .0261841
764.551 .0261619
765.268 .0261386
765.985 .0261150
766.702 .0260915
767.418 .0260686
768.134 .0260468
768.850 .0260268
769.566 .0260086
770.282 .0259922
770.997 .0259769
771.712 .0259624
772.427 .0259484
773.142 .0259347
773.856 .0259204
774.570 .0259057
775.284 .0258914
775.998 .0258767
776.711 .0258619
777.424 .0258470
778.137 .0258327
778.849 .0258182
779.562 .0258040
780.274 .0257899
780.986 .0257752
781.697 .0257604
782.409 .0257454
783.120 .0257297
783.831 .0257143
784.541 .0256987
785.252 .0256827
785.962 .0256674
786.671 .0256528
787.381 .0256382
788.090 .0256236
788.799 .0256099
789.508 .0255962
790.217 .0255825
790.925 .0255694
791.633 .0255559
792.341 .0255419
793.048 .0255282
793.755 .0255131
794.462 .0254973
795.169 .0254817
795.875 .0254659
796.581 .0254500
797.287 .0254356
797.993 .0254227
798.698 .0254111
799.403 .0254016
800.108 .0253942
800.812 .0253870
801.517 .0253805
802.221 .0253738
802.924 .0253658
803.628 .0253575
804.331 .0253485
805.034 .0253392
805.736 .0253305
806.439 .0253227
807.141 .0253157
807.843 .0253094
808.544 .0253038
809.245 .0252974
809.946 .0252902
810.647 .0252825
811.347 .0252734
812.047 .0252638
812.747 .0252546
813.447 .0252461
814.146 .0252387
814.845 .0252330
815.543 .0252282
816.242 .0252247
816.940 .0252221
817.638 .0252194
818.335 .0252165
819.032 .0252133
819.729 .0252099
820.426 .0252061
821.122 .0252025
821.818 .0251989
822.514 .0251949
823.209 .0251916
823.905 .0251886
824.599 .0251858
825.294 .0251833
825.988 .0251801
826.682 .0251767
827.376 .0251723
828.069 .0251665
828.762 .0251589
829.455 .0251496
830.147 .0251388
830.840 .0251260
831.531 .0251120
832.223 .0250978
832.914 .0250836
833.605 .0250693
834.296 .0250551
834.986 .0250409
835.676 .0250264
836.366 .0250114
837.055 .0249962
837.744 .0249810
838.433 .0249662
839.121 .0249527
839.809 .0249410
840.497 .0249316
841.185 .0249253
841.872 .0249212
842.559 .0249198
843.245 .0249206
843.932 .0249228
844.617 .0249257
845.303 .0249293
845.988 .0249329
846.673 .0249362
847.358 .0249392
848.042 .0249418
848.726 .0249430
849.410 .0249431
850.093 .0249413
850.776 .0249379
851.459 .0249328
852.141 .0249254
852.823 .0249157
853.505 .0249050
854.186 .0248929
854.867 .0248803
855.548 .0248675
856.228 .0248546
856.908 .0248421
857.588 .0248298
858.267 .0248174
858.946 .0248048
859.625 .0247921
860.303 .0247797
860.981 .0247674
861.659 .0247562
862.336 .0247452
863.013 .0247350
863.690 .0247261
864.366 .0247178
865.042 .0247103
865.718 .0247032
866.393 .0246962
867.068 .0246892
867.743 .0246820
868.417 .0246746
869.091 .0246669
869.765 .0246598
870.438 .0246528
871.111 .0246462
871.783 .0246399
872.456 .0246334
873.127 .0246264
873.799 .0246194
874.470 .0246113
875.141 .0246023
875.811 .0245925
876.481 .0245816
877.151 .0245697
877.820 .0245571
878.489 .0245435
879.158 .0245295
879.826 .0245156
880.494 .0245020
881.162 .0244883
881.829 .0244759
882.496 .0244636
883.163 .0244521
883.829 .0244416
884.495 .0244307
885.160 .0244189
885.825 .0244070
886.490 .0243949
887.154 .0243825
887.818 .0243703
888.482 .0243582
889.145 .0243464
889.808 .0243354
890.471 .0243245
891.133 .0243130
891.795 .0243014
892.456 .0242892
893.117 .0242756
893.778 .0242613
894.439 .0242459
895.099 .0242297
895.758 .0242137
896.417 .0241979
897.076 .0241823
897.735 .0241675
898.393 .0241537
899.051 .0241409
899.708 .0241294
900.365 .0241188
901.022 .0241089
901.678 .0241002
902.334 .0240921
902.990 .0240841
903.645 .0240765
904.300 .0240690
904.954 .0240615
905.608 .0240537
906.262 .0240461
906.915 .0240385
907.568 .0240309
908.221 .0240235
908.873 .0240157
909.525 .0240076
910.176 .0239987
910.828 .0239883
911.478 .0239768
912.129 .0239642
912.778 .0239505
913.428 .0239356
914.077 .0239197
914.726 .0239039
915.375 .0238878
916.023 .0238718
916.670 .0238564
917.318 .0238411
917.964 .0238262
918.611 .0238116
919.257 .0237969
919.903 .0237820
920.548 .0237664
921.193 .0237509
921.838 .0237346
922.482 .0237176
923.126 .0237002
923.770 .0236831
924.413 .0236665
925.056 .0236514
925.698 .0236370
926.340 .0236241
926.982 .0236120
927.623 .0236009
928.264 .0235901
928.904 .0235796
929.544 .0235692
930.184 .0235585
930.823 .0235473
931.462 .0235359
932.101 .0235237
932.739 .0235117
933.377 .0234989
934.014 .0234853
934.651 .0234702
935.288 .0234541
935.924 .0234372
936.560 .0234200
937.196 .0234025
937.831 .0233854
938.466 .0233678
939.100 .0233496
939.734 .0233306
940.368 .0233109
941.001 .0232910
941.634 .0232709
942.266 .0232510
942.899 .0232316
943.530 .0232132
944.162 .0231963
944.793 .0231802
945.423 .0231648
946.053 .0231489
946.683 .0231316
947.313 .0231127
947.942 .0230917
948.571 .0230694
949.199 .0230466
949.827 .0230240
950.455 .0230021
951.082 .0229815
951.709 .0229620
952.335 .0229437
952.961 .0229255
953.587 .0229066
954.212 .0228867
954.837 .0228660
955.462 .0228447
956.086 .0228233
956.710 .0228029
957.334 .0227841
957.957 .0227667
958.579 .0227512
959.202 .0227363
959.824 .0227216
960.445 .0227067
961.067 .0226915
961.688 .0226759
962.308 .0226607
962.928 .0226464
963.548 .0226339
964.168 .0226232
964.787 .0226143
965.406 .0226066
966.024 .0225999
966.642 .0225939
967.260 .0225878
967.877 .0225810
968.494 .0225740
969.110 .0225669
969.727 .0225594
970.342 .0225522
970.958 .0225453
971.573 .0225381
972.188 .0225309
972.802 .0225227
973.416 .0225134
974.030 .0225029
974.643 .0224919
975.256 .0224802
975.869 .0224685
976.481 .0224570
977.093 .0224461
977.705 .0224366
978.316 .0224293
978.927 .0224231
979.538 .0224182
980.148 .0224142
980.758 .0224113
981.367 .0224085
981.977 .0224069
982.586 .0224060
983.194 .0224071
983.802 .0224091
984.410 .0224126
985.018 .0224166
985.625 .0224217
986.232 .0224271
986.838 .0224323
987.445 .0224367
988.050 .0224402
988.656 .0224422
989.261 .0224432
989.866 .0224429
990.471 .0224432
991.075 .0224431
991.679 .0224437
992.282 .0224447
992.886 .0224467
993.489 .0224493
994.091 .0224525
994.694 .0224559
995.296 .0224590
995.897 .0224609
996.499 .0224617
997.100 .0224613
997.701 .0224605
998.301 .0224598
998.901 .0224593
999.501 .0224597
1000.101 .0224612
1000.700 .0224627
1001.299 .0224638
1001.898 .0224645
1002.496 .0224640
1003.094 .0224615
1003.692 .0224567
1004.289 .0224507
1004.887 .0224435
1005.484 .0224362
1006.080 .0224293
1006.677 .0224235
1007.273 .0224194
1007.868 .0224167
1008.464 .0224151
1009.059 .0224152
1009.654 .0224170
1010.249 .0224201
1010.843 .0224241
1011.437 .0224300
1012.031 .0224366
1012.625 .0224437
1013.218 .0224510
1013.811 .0224582
1014.404 .0224657
1014.997 .0224733
1015.589 .0224807
1016.181 .0224894
1016.773 .0224993
1017.365 .0225106
1017.956 .0225226
1018.547 .0225350
1019.138 .0225468
1019.728 .0225576
1020.319 .0225670
1020.909 .0225753
1021.499 .0225827
1022.088 .0225903
1022.678 .0225975
1023.267 .0226063
1023.856 .0226161
1024.445 .0226266
1025.033 .0226376
1025.621 .0226494
1026.209 .0226610
1026.797 .0226717
1027.385 .0226819
1027.972 .0226910
1028.560 .0226994
1029.147 .0227075
1029.734 .0227141
1030.320 .0227202
1030.907 .0227257
1031.493 .0227308
1032.079 .0227356
1032.665 .0227409
1033.250 .0227462
1033.836 .0227513
1034.421 .0227564
1035.006 .0227609
1035.591 .0227645
1036.176 .0227668
1036.761 .0227683
1037.345 .0227687
1037.929 .0227676
1038.514 .0227654
1039.097 .0227615
1039.681 .0227579
1040.265 .0227536
1040.848 .0227493
1041.432 .0227447
1042.015 .0227408
1042.598 .0227389
1043.181 .0227391
1043.764 .0227408
1044.346 .0227448
1044.929 .0227503
1045.511 .0227577
1046.094 .0227661
1046.676 .0227754
1047.258 .0227854
1047.840 .0227961
1048.422 .0228078
1049.003 .0228212
1049.585 .0228349
1050.166 .0228498
1050.748 .0228638
1051.329 .0228763
1051.910 .0228863
1052.491 .0228926
1053.072 .0228955
1053.653 .0228963
1054.234 .0228961
1054.815 .0228950
1055.396 .0228942
1055.976 .0228956
1056.557 .0228978
1057.138 .0229007
1057.718 .0229036
1058.298 .0229047
1058.879 .0229040
1059.459 .0229028
1060.039 .0229001
1060.620 .0228967
1061.200 .0228935
1061.780 .0228907
1062.360 .0228881
1062.940 .0228853
1063.520 .0228827
1064.101 .0228794
1064.681 .0228772
1065.261 .0228747
1065.841 .0228698
1066.421 .0228647
1067.001 .0228591
1067.581 .0228532
1068.161 .0228470
1068.741 .0228412
1069.321 .0228362
1069.901 .0228327
1070.482 .0228306
1071.062 .0228307
1071.642 .0228323
1072.222 .0228343
1072.803 .0228353
1073.383 .0228351
1073.963 .0228327
1074.544 .0228289
1075.124 .0228251
1075.705 .0228232
1076.286 .0228238
1076.866 .0228284
1077.447 .0228369
1078.028 .0228493
1078.609 .0228645
1079.190 .0228790
1079.771 .0228926
1080.352 .0229059
1080.934 .0229176
1081.515 .0229281
1082.097 .0229385
1082.679 .0229496
1083.260 .0229607
1083.842 .0229711
1084.424 .0229784
1085.007 .0229805
1085.589 .0229763
1086.172 .0229657
1086.754 .0229484
1087.337 .0229278
1087.920 .0229070
1088.503 .0228871
1089.087 .0228702
1089.670 .0228556
1090.254 .0228429
1090.838 .0228311
1091.422 .0228195
1092.006 .0228089
1092.590 .0227974
1093.175 .0227873
1093.760 .0227795
1094.345 .0227764
1094.930 .0227779
1095.516 .0227838
1096.102 .0227914
1096.688 .0227987
1097.274 .0228024
1097.860 .0228004
1098.447 .0227908
1099.034 .0227783
1099.622 .0227650
1100.209 .0227519
1100.797 .0227409
1101.385 .0227330
1101.973 .0227287
1102.562 .0227292
1103.151 .0227315
1103.740 .0227355
1104.330 .0227392
1104.920 .0227455
1105.510 .0227535
1106.101 .0227642
1106.691 .0227773
1107.283 .0227950
1107.874 .0228156
1108.466 .0228390
1109.058 .0228600
1109.651 .0228774
1110.244 .0228913
1110.837 .0229026
1111.431 .0229099
1112.025 .0229125
1112.620 .0229139
1113.215 .0229130
1113.810 .0229077
1114.406 .0229029
1115.002 .0228929
1115.599 .0228803
1116.196 .0228644
1116.793 .0228470
1117.391 .0228266
1117.989 .0228057
1118.588 .0227851
1119.187 .0227642
1119.787 .0227485
1120.387 .0227348
1120.988 .0227209
1121.589 .0227098
1122.190 .0227023
1122.793 .0226946
1123.395 .0226843
1123.998 .0226751
1124.602 .0226613
1125.206 .0226458
1125.811 .0226278
1126.416 .0226105
1127.022 .0225964
1127.628 .0225909
1128.235 .0225912
1128.843 .0225994
1129.451 .0226189
1130.059 .0226428
1130.669 .0226729
1131.278 .0227085
1131.889 .0227476
1132.500 .0227921
1133.112 .0228400
1133.724 .0228987
1134.337 .0229593
1134.950 .0230236
1135.564 .0230894
1136.179 .0231502
1136.795 .0232115
1137.411 .0232639
1138.028 .0233100
1138.645 .0233556
1139.263 .0233968
1139.882 .0234333
1140.502 .0234596
1141.122 .0234763
1141.743 .0234984
1142.365 .0235202
1142.987 .0235304
1143.611 .0234008
1144.235 .0232614
1144.859 .0237379
1145.485 .0239079
