Measurement Sequence started on: 10-20-44-796
Integration time: 35
Scans to Average: 2 
>>>>>Begin Spectral Data<<<<<
432.953 .0257322
433.882 .0271671
434.810 .0297396
435.737 .0310584
436.662 .0321001
437.586 .0321732
438.509 .0328574
439.431 .0333379
440.351 .0336440
441.269 .0338555
442.187 .0340145
443.103 .0341454
444.018 .0342744
444.932 .0344025
445.844 .0345137
446.756 .0345964
447.666 .0346326
448.575 .0346122
449.482 .0345599
450.388 .0344784
451.294 .0343836
452.198 .0342926
453.100 .0342161
454.002 .0341610
454.902 .0341287
455.801 .0341149
456.699 .0341078
457.596 .0341002
458.492 .0340797
459.387 .0340478
460.280 .0340025
461.172 .0339494
462.064 .0338908
462.954 .0338316
463.843 .0337759
464.730 .0337255
465.617 .0336834
466.503 .0336507
467.387 .0336223
468.271 .0335972
469.153 .0335744
470.035 .0335410
470.915 .0335038
471.794 .0334637
472.673 .0334189
473.550 .0333773
474.426 .0333398
475.301 .0333101
476.175 .0332921
477.048 .0332861
477.920 .0332914
478.791 .0333042
479.661 .0333264
480.530 .0333456
481.398 .0333578
482.266 .0333672
483.132 .0333685
483.997 .0333575
484.861 .0333445
485.724 .0333300
486.587 .0333141
487.448 .0332975
488.308 .0332789
489.168 .0332602
490.026 .0332404
490.884 .0332181
491.741 .0331857
492.597 .0331453
493.452 .0331009
494.306 .0330471
495.159 .0329899
496.011 .0329321
496.862 .0328742
497.713 .0328181
498.562 .0327681
499.411 .0327190
500.259 .0326699
501.106 .0326180
501.952 .0325648
502.798 .0325074
503.642 .0324437
504.486 .0323768
505.329 .0323049
506.171 .0322333
507.012 .0321630
507.852 .0320846
508.692 .0320040
509.531 .0319158
510.369 .0318241
511.206 .0317216
512.043 .0316090
512.878 .0314862
513.713 .0313623
514.547 .0312400
515.381 .0311257
516.213 .0310172
517.045 .0309146
517.876 .0308105
518.706 .0306962
519.536 .0305684
520.365 .0304266
521.193 .0302688
522.020 .0301057
522.847 .0299302
523.673 .0297519
524.498 .0295685
525.323 .0293837
526.146 .0292068
526.969 .0290316
527.792 .0288501
528.614 .0286541
529.435 .0284476
530.255 .0282342
531.075 .0280047
531.894 .0277714
532.712 .0275370
533.530 .0272981
534.347 .0270621
535.163 .0268259
535.979 .0266060
536.794 .0264107
537.608 .0262451
538.422 .0261113
539.235 .0260163
540.048 .0259559
540.860 .0259314
541.671 .0259378
542.481 .0259749
543.292 .0260304
544.101 .0260977
544.910 .0261757
545.718 .0262666
546.526 .0263675
547.333 .0264819
548.139 .0266091
548.945 .0267545
549.750 .0268966
550.555 .0270398
551.359 .0271784
552.162 .0273091
552.965 .0274272
553.768 .0275320
554.569 .0276200
555.371 .0276970
556.171 .0277588
556.972 .0278035
557.771 .0278348
558.570 .0278617
559.369 .0278838
560.167 .0279095
560.964 .0279440
561.761 .0279935
562.558 .0280542
563.354 .0281383
564.149 .0282314
564.944 .0283298
565.738 .0284331
566.532 .0285354
567.325 .0286297
568.118 .0287169
568.910 .0287952
569.702 .0288730
570.494 .0289525
571.285 .0290369
572.075 .0291232
572.865 .0292195
573.654 .0293208
574.443 .0294220
575.232 .0295185
576.020 .0296120
576.807 .0296937
577.594 .0297674
578.381 .0298315
579.167 .0298884
579.952 .0299423
580.738 .0299975
581.522 .0300527
582.307 .0301096
583.091 .0301659
583.874 .0302222
584.657 .0302727
585.440 .0303188
586.222 .0303576
587.004 .0303887
587.785 .0304140
588.566 .0304353
589.346 .0304516
590.126 .0304667
590.906 .0304797
591.685 .0304927
592.464 .0305042
593.242 .0305165
594.020 .0305284
594.797 .0305392
595.575 .0305498
596.351 .0305594
597.128 .0305668
597.904 .0305734
598.679 .0305782
599.454 .0305793
600.229 .0305763
601.004 .0305696
601.778 .0305582
602.551 .0305440
603.325 .0305263
604.097 .0305074
604.870 .0304876
605.642 .0304682
606.414 .0304481
607.185 .0304280
607.956 .0304086
608.727 .0303893
609.497 .0303696
610.267 .0303495
611.037 .0303294
611.806 .0303100
612.575 .0302912
613.344 .0302741
614.112 .0302588
614.880 .0302450
615.647 .0302319
616.414 .0302201
617.181 .0302073
617.948 .0301935
618.714 .0301781
619.480 .0301613
620.245 .0301436
621.011 .0301251
621.775 .0301056
622.540 .0300861
623.304 .0300674
624.068 .0300483
624.832 .0300287
625.595 .0300092
626.358 .0299888
627.120 .0299680
627.883 .0299461
628.645 .0299237
629.406 .0298994
630.168 .0298744
630.929 .0298483
631.689 .0298208
632.450 .0297916
633.210 .0297606
633.970 .0297286
634.729 .0296966
635.489 .0296646
636.248 .0296331
637.006 .0296036
637.765 .0295762
638.523 .0295513
639.280 .0295288
640.038 .0295079
640.795 .0294894
641.552 .0294724
642.309 .0294580
643.065 .0294452
643.821 .0294340
644.577 .0294247
645.332 .0294165
646.088 .0294095
646.843 .0294019
647.597 .0293931
648.352 .0293823
649.106 .0293690
649.860 .0293526
650.613 .0293334
651.367 .0293122
652.120 .0292907
652.872 .0292695
653.625 .0292494
654.377 .0292304
655.129 .0292130
655.881 .0291970
656.632 .0291819
657.384 .0291670
658.135 .0291529
658.885 .0291383
659.636 .0291242
660.386 .0291108
661.136 .0290982
661.885 .0290872
662.635 .0290780
663.384 .0290703
664.133 .0290644
664.881 .0290587
665.630 .0290533
666.378 .0290472
667.126 .0290414
667.874 .0290337
668.621 .0290243
669.368 .0290136
670.115 .0290014
670.862 .0289888
671.608 .0289764
672.354 .0289644
673.100 .0289534
673.846 .0289434
674.591 .0289341
675.337 .0289251
676.082 .0289169
676.826 .0289078
677.571 .0288980
678.315 .0288864
679.059 .0288731
679.803 .0288580
680.547 .0288426
681.290 .0288270
682.033 .0288112
682.776 .0287967
683.518 .0287823
684.261 .0287683
685.003 .0287553
685.745 .0287424
686.487 .0287293
687.228 .0287153
687.969 .0286997
688.710 .0286821
689.451 .0286628
690.192 .0286424
690.932 .0286209
691.672 .0285997
692.412 .0285793
693.152 .0285597
693.891 .0285416
694.630 .0285256
695.369 .0285107
696.108 .0284967
696.846 .0284824
697.585 .0284675
698.323 .0284513
699.061 .0284346
699.798 .0284179
700.536 .0284016
701.273 .0283866
702.010 .0283728
702.746 .0283599
703.483 .0283474
704.219 .0283345
704.955 .0283205
705.691 .0283052
706.427 .0282886
707.162 .0282706
707.897 .0282520
708.632 .0282334
709.367 .0282150
710.101 .0281973
710.835 .0281801
711.569 .0281628
712.303 .0281443
713.037 .0281248
713.770 .0281039
714.503 .0280816
715.236 .0280590
715.969 .0280364
716.702 .0280140
717.434 .0279925
718.166 .0279710
718.898 .0279501
719.629 .0279291
720.361 .0279077
721.092 .0278857
721.823 .0278635
722.554 .0278408
723.284 .0278176
724.014 .0277941
724.744 .0277707
725.474 .0277465
726.204 .0277219
726.933 .0276972
727.662 .0276718
728.391 .0276465
729.120 .0276210
729.849 .0275953
730.577 .0275704
731.305 .0275452
732.033 .0275201
732.760 .0274949
733.488 .0274693
734.215 .0274428
734.942 .0274160
735.669 .0273894
736.395 .0273631
737.122 .0273381
737.848 .0273152
738.573 .0272931
739.299 .0272724
740.024 .0272526
740.750 .0272331
741.474 .0272145
742.199 .0271956
742.924 .0271766
743.648 .0271583
744.372 .0271410
745.096 .0271253
745.819 .0271112
746.543 .0270993
747.266 .0270883
747.989 .0270783
748.711 .0270692
749.434 .0270597
750.156 .0270506
750.878 .0270420
751.599 .0270339
752.321 .0270268
753.042 .0270211
753.763 .0270162
754.484 .0270125
755.205 .0270088
755.925 .0270048
756.645 .0269994
757.365 .0269922
758.085 .0269835
758.804 .0269730
759.523 .0269610
760.242 .0269479
760.961 .0269335
761.679 .0269189
762.397 .0269039
763.115 .0268885
763.833 .0268716
764.551 .0268535
765.268 .0268336
765.985 .0268123
766.702 .0267900
767.418 .0267673
768.134 .0267446
768.850 .0267225
769.566 .0267014
770.282 .0266804
770.997 .0266607
771.712 .0266419
772.427 .0266239
773.142 .0266069
773.856 .0265898
774.570 .0265730
775.284 .0265567
775.998 .0265417
776.711 .0265282
777.424 .0265160
778.137 .0265048
778.849 .0264944
779.562 .0264845
780.274 .0264749
780.986 .0264652
781.697 .0264558
782.409 .0264472
783.120 .0264390
783.831 .0264316
784.541 .0264256
785.252 .0264213
785.962 .0264184
786.671 .0264163
787.381 .0264145
788.090 .0264126
788.799 .0264102
789.508 .0264064
790.217 .0264012
790.925 .0263956
791.633 .0263894
792.341 .0263824
793.048 .0263752
793.755 .0263680
794.462 .0263598
795.169 .0263507
795.875 .0263406
796.581 .0263293
797.287 .0263170
797.993 .0263040
798.698 .0262909
799.403 .0262784
800.108 .0262672
800.812 .0262569
801.517 .0262486
802.221 .0262426
802.924 .0262379
803.628 .0262339
804.331 .0262314
805.034 .0262293
805.736 .0262267
806.439 .0262239
807.141 .0262208
807.843 .0262175
808.544 .0262135
809.245 .0262086
809.946 .0262033
810.647 .0261979
811.347 .0261922
812.047 .0261855
812.747 .0261785
813.447 .0261709
814.146 .0261620
814.845 .0261526
815.543 .0261431
816.242 .0261340
816.940 .0261255
817.638 .0261182
818.335 .0261121
819.032 .0261071
819.729 .0261025
820.426 .0260981
821.122 .0260938
821.818 .0260886
822.514 .0260819
823.209 .0260744
823.905 .0260659
824.599 .0260566
825.294 .0260461
825.988 .0260347
826.682 .0260221
827.376 .0260084
828.069 .0259927
828.762 .0259754
829.455 .0259569
830.147 .0259378
830.840 .0259183
831.531 .0258997
832.223 .0258828
832.914 .0258677
833.605 .0258548
834.296 .0258439
834.986 .0258341
835.676 .0258249
836.366 .0258157
837.055 .0258069
837.744 .0257979
838.433 .0257887
839.121 .0257799
839.809 .0257715
840.497 .0257645
841.185 .0257578
841.872 .0257519
842.559 .0257471
843.245 .0257430
843.932 .0257387
844.617 .0257337
845.303 .0257279
845.988 .0257210
846.673 .0257133
847.358 .0257049
848.042 .0256958
848.726 .0256867
849.410 .0256778
850.093 .0256693
850.776 .0256606
851.459 .0256525
852.141 .0256433
852.823 .0256330
853.505 .0256209
854.186 .0256062
854.867 .0255896
855.548 .0255718
856.228 .0255535
856.908 .0255352
857.588 .0255182
858.267 .0255027
858.946 .0254882
859.625 .0254757
860.303 .0254641
860.981 .0254533
861.659 .0254431
862.336 .0254337
863.013 .0254239
863.690 .0254145
864.366 .0254057
865.042 .0253976
865.718 .0253906
866.393 .0253841
867.068 .0253773
867.743 .0253701
868.417 .0253617
869.091 .0253512
869.765 .0253394
870.438 .0253267
871.111 .0253128
871.783 .0252981
872.456 .0252829
873.127 .0252674
873.799 .0252520
874.470 .0252368
875.141 .0252221
875.811 .0252073
876.481 .0251932
877.151 .0251793
877.820 .0251662
878.489 .0251535
879.158 .0251409
879.826 .0251285
880.494 .0251158
881.162 .0251018
881.829 .0250870
882.496 .0250712
883.163 .0250555
883.829 .0250401
884.495 .0250254
885.160 .0250121
885.825 .0250005
886.490 .0249900
887.154 .0249805
887.818 .0249715
888.482 .0249629
889.145 .0249529
889.808 .0249427
890.471 .0249319
891.133 .0249209
891.795 .0249094
892.456 .0248986
893.117 .0248881
893.778 .0248780
894.439 .0248678
895.099 .0248572
895.758 .0248465
896.417 .0248357
897.076 .0248235
897.735 .0248109
898.393 .0247980
899.051 .0247848
899.708 .0247709
900.365 .0247572
901.022 .0247439
901.678 .0247313
902.334 .0247192
902.990 .0247090
903.645 .0246996
904.300 .0246915
904.954 .0246846
905.608 .0246783
906.262 .0246726
906.915 .0246665
907.568 .0246593
908.221 .0246516
908.873 .0246423
909.525 .0246320
910.176 .0246197
910.828 .0246069
911.478 .0245931
912.129 .0245782
912.778 .0245625
913.428 .0245466
914.077 .0245303
914.726 .0245140
915.375 .0244972
916.023 .0244804
916.670 .0244633
917.318 .0244458
917.964 .0244277
918.611 .0244089
919.257 .0243892
919.903 .0243696
920.548 .0243501
921.193 .0243318
921.838 .0243148
922.482 .0242997
923.126 .0242867
923.770 .0242753
924.413 .0242654
925.056 .0242566
925.698 .0242488
926.340 .0242421
926.982 .0242360
927.623 .0242307
928.264 .0242260
928.904 .0242222
929.544 .0242188
930.184 .0242160
930.823 .0242123
931.462 .0242074
932.101 .0242009
932.739 .0241924
933.377 .0241812
934.014 .0241677
934.651 .0241521
935.288 .0241340
935.924 .0241138
936.560 .0240920
937.196 .0240689
937.831 .0240454
938.466 .0240216
939.100 .0239979
939.734 .0239749
940.368 .0239536
941.001 .0239335
941.634 .0239158
942.266 .0239010
942.899 .0238877
943.530 .0238761
944.162 .0238651
944.793 .0238541
945.423 .0238431
946.053 .0238321
946.683 .0238207
947.313 .0238095
947.942 .0237981
948.571 .0237865
949.199 .0237740
949.827 .0237613
950.455 .0237470
951.082 .0237317
951.709 .0237147
952.335 .0236955
952.961 .0236747
953.587 .0236537
954.212 .0236326
954.837 .0236136
955.462 .0235961
956.086 .0235807
956.710 .0235670
957.334 .0235551
957.957 .0235436
958.579 .0235326
959.202 .0235213
959.824 .0235098
960.445 .0234973
961.067 .0234852
961.688 .0234734
962.308 .0234631
962.928 .0234546
963.548 .0234475
964.168 .0234408
964.787 .0234346
965.406 .0234275
966.024 .0234203
966.642 .0234127
967.260 .0234054
967.877 .0233982
968.494 .0233920
969.110 .0233864
969.727 .0233807
970.342 .0233756
970.958 .0233704
971.573 .0233645
972.188 .0233577
972.802 .0233498
973.416 .0233416
974.030 .0233332
974.643 .0233256
975.256 .0233184
975.869 .0233127
976.481 .0233077
977.093 .0233026
977.705 .0232970
978.316 .0232905
978.927 .0232827
979.538 .0232737
980.148 .0232641
980.758 .0232543
981.367 .0232448
981.977 .0232372
982.586 .0232312
983.194 .0232281
983.802 .0232275
984.410 .0232281
985.018 .0232290
985.625 .0232302
986.232 .0232306
986.838 .0232296
987.445 .0232283
988.050 .0232267
988.656 .0232254
989.261 .0232253
989.866 .0232255
990.471 .0232269
991.075 .0232295
991.679 .0232329
992.282 .0232353
992.886 .0232363
993.489 .0232365
994.091 .0232353
994.694 .0232338
995.296 .0232323
995.897 .0232310
996.499 .0232300
997.100 .0232299
997.701 .0232302
998.301 .0232307
998.901 .0232321
999.501 .0232337
1000.101 .0232358
1000.700 .0232387
1001.299 .0232422
1001.898 .0232462
1002.496 .0232514
1003.094 .0232580
1003.692 .0232638
1004.289 .0232689
1004.887 .0232733
1005.484 .0232773
1006.080 .0232807
1006.677 .0232837
1007.273 .0232858
1007.868 .0232883
1008.464 .0232917
1009.059 .0232965
1009.654 .0233026
1010.249 .0233105
1010.843 .0233200
1011.437 .0233300
1012.031 .0233401
1012.625 .0233503
1013.218 .0233598
1013.811 .0233690
1014.404 .0233777
1014.997 .0233857
1015.589 .0233921
1016.181 .0233981
1016.773 .0234033
1017.365 .0234080
1017.956 .0234118
1018.547 .0234135
1019.138 .0234140
1019.728 .0234128
1020.319 .0234105
1020.909 .0234071
1021.499 .0234025
1022.088 .0233976
1022.678 .0233921
1023.267 .0233862
1023.856 .0233802
1024.445 .0233758
1025.033 .0233730
1025.621 .0233725
1026.209 .0233747
1026.797 .0233790
1027.385 .0233850
1027.972 .0233927
1028.560 .0234021
1029.147 .0234115
1029.734 .0234216
1030.320 .0234309
1030.907 .0234397
1031.493 .0234494
1032.079 .0234596
1032.665 .0234708
1033.250 .0234830
1033.836 .0234957
1034.421 .0235079
1035.006 .0235181
1035.591 .0235257
1036.176 .0235303
1036.761 .0235327
1037.345 .0235326
1037.929 .0235303
1038.514 .0235263
1039.097 .0235218
1039.681 .0235175
1040.265 .0235143
1040.848 .0235109
1041.432 .0235081
1042.015 .0235049
1042.598 .0235000
1043.181 .0234939
1043.764 .0234874
1044.346 .0234810
1044.929 .0234762
1045.511 .0234737
1046.094 .0234734
1046.676 .0234749
1047.258 .0234803
1047.840 .0234874
1048.422 .0234964
1049.003 .0235055
1049.585 .0235133
1050.166 .0235194
1050.748 .0235246
1051.329 .0235270
1051.910 .0235282
1052.491 .0235303
1053.072 .0235326
1053.653 .0235339
1054.234 .0235345
1054.815 .0235351
1055.396 .0235356
1055.976 .0235342
1056.557 .0235315
1057.138 .0235263
1057.718 .0235207
1058.298 .0235136
1058.879 .0235072
1059.459 .0235028
1060.039 .0235013
1060.620 .0235017
1061.200 .0235028
1061.780 .0235044
1062.360 .0235034
1062.940 .0234991
1063.520 .0234925
1064.101 .0234839
1064.681 .0234735
1065.261 .0234628
1065.841 .0234548
1066.421 .0234506
1067.001 .0234496
1067.581 .0234516
1068.161 .0234548
1068.741 .0234594
1069.321 .0234632
1069.901 .0234648
1070.482 .0234640
1071.062 .0234623
1071.642 .0234589
1072.222 .0234565
1072.803 .0234549
1073.383 .0234542
1073.963 .0234548
1074.544 .0234566
1075.124 .0234582
1075.705 .0234596
1076.286 .0234607
1076.866 .0234622
1077.447 .0234625
1078.028 .0234623
1078.609 .0234588
1079.190 .0234542
1079.771 .0234476
1080.352 .0234385
1080.934 .0234293
1081.515 .0234212
1082.097 .0234148
1082.679 .0234130
1083.260 .0234159
1083.842 .0234222
1084.424 .0234306
1085.007 .0234390
1085.589 .0234443
1086.172 .0234445
1086.754 .0234379
1087.337 .0234245
1087.920 .0234081
1088.503 .0233913
1089.087 .0233722
1089.670 .0233535
1090.254 .0233391
1090.838 .0233252
1091.422 .0233107
1092.006 .0232947
1092.590 .0232758
1093.175 .0232531
1093.760 .0232283
1094.345 .0231999
1094.930 .0231716
1095.516 .0231479
1096.102 .0231283
1096.688 .0231159
1097.274 .0231127
1097.860 .0231160
1098.447 .0231221
1099.034 .0231324
1099.622 .0231443
1100.209 .0231544
1100.797 .0231652
1101.385 .0231766
1101.973 .0231888
1102.562 .0232028
1103.151 .0232161
1103.740 .0232301
1104.330 .0232459
1104.920 .0232602
1105.510 .0232706
1106.101 .0232784
1106.691 .0232811
1107.283 .0232792
1107.874 .0232730
1108.466 .0232655
1109.058 .0232563
1109.651 .0232486
1110.244 .0232427
1110.837 .0232387
1111.431 .0232387
1112.025 .0232425
1112.620 .0232499
1113.215 .0232627
1113.810 .0232787
1114.406 .0232981
1115.002 .0233207
1115.599 .0233420
1116.196 .0233644
1116.793 .0233876
1117.391 .0234099
1117.989 .0234311
1118.588 .0234513
1119.187 .0234687
1119.787 .0234802
1120.387 .0234856
1120.988 .0234835
1121.589 .0234728
1122.190 .0234560
1122.793 .0234336
1123.395 .0234105
1123.998 .0233906
1124.602 .0233752
1125.206 .0233678
1125.811 .0233726
1126.416 .0233826
1127.022 .0233936
1127.628 .0234059
1128.235 .0234180
1128.843 .0234303
1129.451 .0234421
1130.059 .0234569
1130.669 .0234790
1131.278 .0235054
1131.889 .0235338
1132.500 .0235661
1133.112 .0235995
1133.724 .0236321
1134.337 .0236624
1134.950 .0236902
1135.564 .0237139
1136.179 .0237341
1136.795 .0237568
1137.411 .0237813
1138.028 .0238124
1138.645 .0238472
1139.263 .0238939
1139.882 .0239564
1140.502 .0240337
1141.122 .0241231
1141.743 .0242097
1142.365 .0243122
1142.987 .0245087
1143.611 .0246708
1144.235 .0247000
1144.859 .0243362
1145.485 .0248533
