Measurement Sequence started on: 10-20-44-796
Integration time: 35
Scans to Average: 2 
>>>>>Begin Spectral Data<<<<<
432.953 .0443075
433.882 .0417157
434.810 .0348569
435.737 .0325862
436.662 .0319534
437.586 .0331797
438.509 .0323254
439.431 .0317888
440.351 .0315698
441.269 .0314637
442.187 .0314120
443.103 .0314004
444.018 .0314455
444.932 .0315281
445.844 .0316549
446.756 .0318091
447.666 .0319726
448.575 .0321296
449.482 .0322795
450.388 .0324171
451.294 .0325459
452.198 .0326579
453.100 .0327574
454.002 .0328455
454.902 .0329204
455.801 .0329842
456.699 .0330341
457.596 .0330793
458.492 .0331055
459.387 .0331129
460.280 .0331032
461.172 .0330717
462.064 .0330285
462.954 .0329684
463.843 .0328967
464.730 .0328161
465.617 .0327395
466.503 .0326622
467.387 .0325866
468.271 .0325179
469.153 .0324547
470.035 .0323952
470.915 .0323436
471.794 .0322939
472.673 .0322442
473.550 .0322012
474.426 .0321638
475.301 .0321281
476.175 .0320996
477.048 .0320732
477.920 .0320484
478.791 .0320234
479.661 .0319961
480.530 .0319621
481.398 .0319254
482.266 .0318911
483.132 .0318563
483.997 .0318247
484.861 .0318000
485.724 .0317797
486.587 .0317678
487.448 .0317604
488.308 .0317517
489.168 .0317413
490.026 .0317269
490.884 .0317051
491.741 .0316747
492.597 .0316406
493.452 .0316030
494.306 .0315632
495.159 .0315245
496.011 .0314830
496.862 .0314393
497.713 .0313913
498.562 .0313333
499.411 .0312629
500.259 .0311814
501.106 .0310854
501.952 .0309802
502.798 .0308724
503.642 .0307666
504.486 .0306675
505.329 .0305796
506.171 .0305019
507.012 .0304332
507.852 .0303706
508.692 .0303105
509.531 .0302461
510.369 .0301801
511.206 .0301062
512.043 .0300263
512.878 .0299407
513.713 .0298539
514.547 .0297645
515.381 .0296753
516.213 .0295801
517.045 .0294775
517.876 .0293583
518.706 .0292226
519.536 .0290702
520.365 .0289068
521.193 .0287329
522.020 .0285568
522.847 .0283830
523.673 .0282153
524.498 .0280511
525.323 .0278964
526.146 .0277430
526.969 .0275967
527.792 .0274471
528.614 .0272936
529.435 .0271406
530.255 .0269937
531.075 .0268499
531.894 .0267169
532.712 .0265952
533.530 .0264800
534.347 .0263681
535.163 .0262621
535.979 .0261571
536.794 .0260559
537.608 .0259598
538.422 .0258750
539.235 .0257973
540.048 .0257357
540.860 .0256869
541.671 .0256548
542.481 .0256359
543.292 .0256225
544.101 .0256143
544.910 .0256110
545.718 .0256111
546.526 .0256133
547.333 .0256203
548.139 .0256349
548.945 .0256544
549.750 .0256807
550.555 .0257175
551.359 .0257642
552.162 .0258182
552.965 .0258821
553.768 .0259572
554.569 .0260426
555.371 .0261337
556.171 .0262306
556.972 .0263354
557.771 .0264414
558.570 .0265492
559.369 .0266615
560.167 .0267770
560.964 .0268951
561.761 .0270121
562.558 .0271280
563.354 .0272445
564.149 .0273571
564.944 .0274641
565.738 .0275656
566.532 .0276623
567.325 .0277523
568.118 .0278356
568.910 .0279156
569.702 .0279922
570.494 .0280671
571.285 .0281421
572.075 .0282170
572.865 .0282931
573.654 .0283700
574.443 .0284472
575.232 .0285237
576.020 .0286005
576.807 .0286730
577.594 .0287445
578.381 .0288137
579.167 .0288792
579.952 .0289414
580.738 .0290027
581.522 .0290624
582.307 .0291182
583.091 .0291738
583.874 .0292274
584.657 .0292795
585.440 .0293315
586.222 .0293803
587.004 .0294252
587.785 .0294662
588.566 .0295018
589.346 .0295303
590.126 .0295533
590.906 .0295692
591.685 .0295785
592.464 .0295848
593.242 .0295878
594.020 .0295886
594.797 .0295889
595.575 .0295905
596.351 .0295918
597.128 .0295927
597.904 .0295922
598.679 .0295903
599.454 .0295873
600.229 .0295837
601.004 .0295801
601.778 .0295777
602.551 .0295761
603.325 .0295752
604.097 .0295749
604.870 .0295751
605.642 .0295751
606.414 .0295741
607.185 .0295712
607.956 .0295674
608.727 .0295622
609.497 .0295554
610.267 .0295475
611.037 .0295387
611.806 .0295273
612.575 .0295139
613.344 .0294979
614.112 .0294795
614.880 .0294590
615.647 .0294380
616.414 .0294169
617.181 .0293965
617.948 .0293778
618.714 .0293609
619.480 .0293462
620.245 .0293334
621.011 .0293211
621.775 .0293095
622.540 .0292981
623.304 .0292868
624.068 .0292758
624.832 .0292650
625.595 .0292549
626.358 .0292457
627.120 .0292372
627.883 .0292295
628.645 .0292225
629.406 .0292159
630.168 .0292092
630.929 .0292024
631.689 .0291946
632.450 .0291854
633.210 .0291750
633.970 .0291633
634.729 .0291500
635.489 .0291355
636.248 .0291199
637.006 .0291037
637.765 .0290876
638.523 .0290718
639.280 .0290563
640.038 .0290417
640.795 .0290275
641.552 .0290136
642.309 .0289995
643.065 .0289853
643.821 .0289702
644.577 .0289550
645.332 .0289396
646.088 .0289243
646.843 .0289090
647.597 .0288944
648.352 .0288811
649.106 .0288687
649.860 .0288566
650.613 .0288454
651.367 .0288342
652.120 .0288223
652.872 .0288095
653.625 .0287959
654.377 .0287817
655.129 .0287674
655.881 .0287533
656.632 .0287395
657.384 .0287268
658.135 .0287157
658.885 .0287052
659.636 .0286956
660.386 .0286865
661.136 .0286767
661.885 .0286668
662.635 .0286573
663.384 .0286481
664.133 .0286386
664.881 .0286302
665.630 .0286221
666.378 .0286144
667.126 .0286061
667.874 .0285970
668.621 .0285864
669.368 .0285746
670.115 .0285604
670.862 .0285445
671.608 .0285284
672.354 .0285127
673.100 .0284972
673.846 .0284831
674.591 .0284698
675.337 .0284573
676.082 .0284452
676.826 .0284330
677.571 .0284202
678.315 .0284071
679.059 .0283935
679.803 .0283796
680.547 .0283667
681.290 .0283541
682.033 .0283422
682.776 .0283312
683.518 .0283201
684.261 .0283084
685.003 .0282960
685.745 .0282824
686.487 .0282682
687.228 .0282534
687.969 .0282382
688.710 .0282223
689.451 .0282066
690.192 .0281906
690.932 .0281739
691.672 .0281568
692.412 .0281393
693.152 .0281210
693.891 .0281034
694.630 .0280861
695.369 .0280700
696.108 .0280552
696.846 .0280419
697.585 .0280291
698.323 .0280169
699.061 .0280041
699.798 .0279904
700.536 .0279754
701.273 .0279594
702.010 .0279426
702.746 .0279254
703.483 .0279085
704.219 .0278916
704.955 .0278749
705.691 .0278583
706.427 .0278410
707.162 .0278230
707.897 .0278040
708.632 .0277844
709.367 .0277645
710.101 .0277446
710.835 .0277255
711.569 .0277074
712.303 .0276903
713.037 .0276740
713.770 .0276585
714.503 .0276431
715.236 .0276282
715.969 .0276135
716.702 .0275992
717.434 .0275855
718.166 .0275725
718.898 .0275602
719.629 .0275484
720.361 .0275373
721.092 .0275259
721.823 .0275139
722.554 .0275012
723.284 .0274879
724.014 .0274734
724.744 .0274578
725.474 .0274413
726.204 .0274240
726.933 .0274062
727.662 .0273876
728.391 .0273684
729.120 .0273488
729.849 .0273288
730.577 .0273087
731.305 .0272879
732.033 .0272675
732.760 .0272464
733.488 .0272256
734.215 .0272049
734.942 .0271846
735.669 .0271643
736.395 .0271451
737.122 .0271266
737.848 .0271093
738.573 .0270922
739.299 .0270759
740.024 .0270594
740.750 .0270434
741.474 .0270272
742.199 .0270108
742.924 .0269943
743.648 .0269783
744.372 .0269622
745.096 .0269468
745.819 .0269316
746.543 .0269169
747.266 .0269024
747.989 .0268881
748.711 .0268737
749.434 .0268595
750.156 .0268459
750.878 .0268337
751.599 .0268232
752.321 .0268149
753.042 .0268087
753.763 .0268048
754.484 .0268027
755.205 .0268014
755.925 .0268003
756.645 .0267984
757.365 .0267951
758.085 .0267901
758.804 .0267832
759.523 .0267741
760.242 .0267636
760.961 .0267510
761.679 .0267375
762.397 .0267225
763.115 .0267062
763.833 .0266883
764.551 .0266689
765.268 .0266476
765.985 .0266245
766.702 .0265998
767.418 .0265742
768.134 .0265484
768.850 .0265227
769.566 .0264975
770.282 .0264731
770.997 .0264497
771.712 .0264271
772.427 .0264050
773.142 .0263836
773.856 .0263620
774.570 .0263412
775.284 .0263211
775.998 .0263016
776.711 .0262835
777.424 .0262670
778.137 .0262516
778.849 .0262369
779.562 .0262228
780.274 .0262087
780.986 .0261947
781.697 .0261808
782.409 .0261671
783.120 .0261541
783.831 .0261423
784.541 .0261314
785.252 .0261216
785.962 .0261133
786.671 .0261053
787.381 .0260971
788.090 .0260890
788.799 .0260800
789.508 .0260702
790.217 .0260595
790.925 .0260479
791.633 .0260357
792.341 .0260229
793.048 .0260095
793.755 .0259954
794.462 .0259808
795.169 .0259652
795.875 .0259496
796.581 .0259338
797.287 .0259184
797.993 .0259028
798.698 .0258875
799.403 .0258725
800.108 .0258572
800.812 .0258417
801.517 .0258263
802.221 .0258114
802.924 .0257972
803.628 .0257840
804.331 .0257727
805.034 .0257631
805.736 .0257557
806.439 .0257498
807.141 .0257451
807.843 .0257405
808.544 .0257358
809.245 .0257301
809.946 .0257237
810.647 .0257170
811.347 .0257099
812.047 .0257029
812.747 .0256967
813.447 .0256908
814.146 .0256848
814.845 .0256793
815.543 .0256738
816.242 .0256675
816.940 .0256611
817.638 .0256537
818.335 .0256459
819.032 .0256376
819.729 .0256290
820.426 .0256198
821.122 .0256103
821.818 .0256004
822.514 .0255890
823.209 .0255772
823.905 .0255652
824.599 .0255520
825.294 .0255385
825.988 .0255243
826.682 .0255094
827.376 .0254937
828.069 .0254775
828.762 .0254604
829.455 .0254426
830.147 .0254246
830.840 .0254064
831.531 .0253884
832.223 .0253716
832.914 .0253557
833.605 .0253404
834.296 .0253262
834.986 .0253126
835.676 .0252986
836.366 .0252847
837.055 .0252702
837.744 .0252551
838.433 .0252392
839.121 .0252232
839.809 .0252066
840.497 .0251899
841.185 .0251738
841.872 .0251576
842.559 .0251418
843.245 .0251263
843.932 .0251110
844.617 .0250962
845.303 .0250823
845.988 .0250690
846.673 .0250565
847.358 .0250454
848.042 .0250357
848.726 .0250272
849.410 .0250199
850.093 .0250136
850.776 .0250079
851.459 .0250027
852.141 .0249972
852.823 .0249914
853.505 .0249857
854.186 .0249796
854.867 .0249735
855.548 .0249668
856.228 .0249599
856.908 .0249525
857.588 .0249446
858.267 .0249362
858.946 .0249271
859.625 .0249174
860.303 .0249074
860.981 .0248973
861.659 .0248870
862.336 .0248767
863.013 .0248663
863.690 .0248560
864.366 .0248454
865.042 .0248341
865.718 .0248220
866.393 .0248091
867.068 .0247955
867.743 .0247812
868.417 .0247665
869.091 .0247516
869.765 .0247365
870.438 .0247211
871.111 .0247051
871.783 .0246893
872.456 .0246728
873.127 .0246561
873.799 .0246392
874.470 .0246221
875.141 .0246048
875.811 .0245877
876.481 .0245709
877.151 .0245544
877.820 .0245387
878.489 .0245232
879.158 .0245076
879.826 .0244921
880.494 .0244766
881.162 .0244607
881.829 .0244446
882.496 .0244283
883.163 .0244115
883.829 .0243950
884.495 .0243784
885.160 .0243625
885.825 .0243476
886.490 .0243339
887.154 .0243216
887.818 .0243105
888.482 .0243004
889.145 .0242914
889.808 .0242830
890.471 .0242754
891.133 .0242683
891.795 .0242614
892.456 .0242544
893.117 .0242478
893.778 .0242413
894.439 .0242352
895.099 .0242291
895.758 .0242232
896.417 .0242169
897.076 .0242102
897.735 .0242029
898.393 .0241949
899.051 .0241865
899.708 .0241774
900.365 .0241678
901.022 .0241583
901.678 .0241487
902.334 .0241391
902.990 .0241301
903.645 .0241214
904.300 .0241130
904.954 .0241050
905.608 .0240970
906.262 .0240893
906.915 .0240819
907.568 .0240745
908.221 .0240669
908.873 .0240595
909.525 .0240518
910.176 .0240435
910.828 .0240352
911.478 .0240262
912.129 .0240169
912.778 .0240079
913.428 .0239989
914.077 .0239898
914.726 .0239811
915.375 .0239725
916.023 .0239642
916.670 .0239563
917.318 .0239487
917.964 .0239415
918.611 .0239348
919.257 .0239287
919.903 .0239230
920.548 .0239176
921.193 .0239126
921.838 .0239079
922.482 .0239036
923.126 .0238988
923.770 .0238938
924.413 .0238885
925.056 .0238828
925.698 .0238771
926.340 .0238708
926.982 .0238636
927.623 .0238559
928.264 .0238475
928.904 .0238383
929.544 .0238288
930.184 .0238198
930.823 .0238109
931.462 .0238025
932.101 .0237948
932.739 .0237875
933.377 .0237808
934.014 .0237743
934.651 .0237673
935.288 .0237593
935.924 .0237505
936.560 .0237408
937.196 .0237308
937.831 .0237209
938.466 .0237109
939.100 .0237011
939.734 .0236911
940.368 .0236803
941.001 .0236681
941.634 .0236544
942.266 .0236392
942.899 .0236217
943.530 .0236025
944.162 .0235818
944.793 .0235607
945.423 .0235396
946.053 .0235191
946.683 .0234999
947.313 .0234821
947.942 .0234651
948.571 .0234487
949.199 .0234329
949.827 .0234175
950.455 .0234020
951.082 .0233871
951.709 .0233725
952.335 .0233589
952.961 .0233465
953.587 .0233355
954.212 .0233260
954.837 .0233178
955.462 .0233100
956.086 .0233024
956.710 .0232946
957.334 .0232864
957.957 .0232777
958.579 .0232690
959.202 .0232602
959.824 .0232516
960.445 .0232436
961.067 .0232360
961.688 .0232293
962.308 .0232235
962.928 .0232183
963.548 .0232133
964.168 .0232086
964.787 .0232033
965.406 .0231977
966.024 .0231923
966.642 .0231865
967.260 .0231808
967.877 .0231754
968.494 .0231697
969.110 .0231638
969.727 .0231582
970.342 .0231524
970.958 .0231463
971.573 .0231405
972.188 .0231340
972.802 .0231273
973.416 .0231207
974.030 .0231141
974.643 .0231073
975.256 .0231012
975.869 .0230951
976.481 .0230888
977.093 .0230837
977.705 .0230798
978.316 .0230769
978.927 .0230757
979.538 .0230755
980.148 .0230760
980.758 .0230766
981.367 .0230766
981.977 .0230755
982.586 .0230736
983.194 .0230703
983.802 .0230654
984.410 .0230592
985.018 .0230534
985.625 .0230479
986.232 .0230431
986.838 .0230401
987.445 .0230380
988.050 .0230368
988.656 .0230354
989.261 .0230335
989.866 .0230307
990.471 .0230265
991.075 .0230220
991.679 .0230173
992.282 .0230132
992.886 .0230109
993.489 .0230108
994.091 .0230132
994.694 .0230180
995.296 .0230234
995.897 .0230284
996.499 .0230330
997.100 .0230356
997.701 .0230361
998.301 .0230350
998.901 .0230336
999.501 .0230321
1000.101 .0230315
1000.700 .0230321
1001.299 .0230326
1001.898 .0230336
1002.496 .0230341
1003.094 .0230326
1003.692 .0230295
1004.289 .0230248
1004.887 .0230188
1005.484 .0230130
1006.080 .0230083
1006.677 .0230043
1007.273 .0230018
1007.868 .0230008
1008.464 .0229997
1009.059 .0229983
1009.654 .0229958
1010.249 .0229929
1010.843 .0229892
1011.437 .0229861
1012.031 .0229833
1012.625 .0229818
1013.218 .0229820
1013.811 .0229831
1014.404 .0229853
1014.997 .0229881
1015.589 .0229907
1016.181 .0229927
1016.773 .0229944
1017.365 .0229961
1017.956 .0229975
1018.547 .0229992
1019.138 .0230006
1019.728 .0230023
1020.319 .0230036
1020.909 .0230048
1021.499 .0230055
1022.088 .0230059
1022.678 .0230055
1023.267 .0230048
1023.856 .0230038
1024.445 .0230023
1025.033 .0230004
1025.621 .0229980
1026.209 .0229945
1026.797 .0229898
1027.385 .0229831
1027.972 .0229753
1028.560 .0229661
1029.147 .0229567
1029.734 .0229463
1030.320 .0229361
1030.907 .0229262
1031.493 .0229172
1032.079 .0229092
1032.665 .0229030
1033.250 .0228978
1033.836 .0228936
1034.421 .0228901
1035.006 .0228873
1035.591 .0228842
1036.176 .0228812
1036.761 .0228783
1037.345 .0228754
1037.929 .0228724
1038.514 .0228702
1039.097 .0228677
1039.681 .0228669
1040.265 .0228665
1040.848 .0228658
1041.432 .0228645
1042.015 .0228623
1042.598 .0228580
1043.181 .0228517
1043.764 .0228434
1044.346 .0228332
1044.929 .0228209
1045.511 .0228082
1046.094 .0227951
1046.676 .0227824
1047.258 .0227711
1047.840 .0227620
1048.422 .0227547
1049.003 .0227506
1049.585 .0227484
1050.166 .0227477
1050.748 .0227488
1051.329 .0227506
1051.910 .0227520
1052.491 .0227536
1053.072 .0227554
1053.653 .0227575
1054.234 .0227593
1054.815 .0227618
1055.396 .0227631
1055.976 .0227637
1056.557 .0227635
1057.138 .0227612
1057.718 .0227574
1058.298 .0227523
1058.879 .0227462
1059.459 .0227398
1060.039 .0227340
1060.620 .0227282
1061.200 .0227222
1061.780 .0227167
1062.360 .0227099
1062.940 .0227021
1063.520 .0226933
1064.101 .0226854
1064.681 .0226778
1065.261 .0226721
1065.841 .0226674
1066.421 .0226638
1067.001 .0226616
1067.581 .0226584
1068.161 .0226526
1068.741 .0226451
1069.321 .0226335
1069.901 .0226185
1070.482 .0226003
1071.062 .0225809
1071.642 .0225604
1072.222 .0225412
1072.803 .0225233
1073.383 .0225076
1073.963 .0224947
1074.544 .0224849
1075.124 .0224761
1075.705 .0224700
1076.286 .0224646
1076.866 .0224602
1077.447 .0224554
1078.028 .0224509
1078.609 .0224451
1079.190 .0224395
1079.771 .0224351
1080.352 .0224307
1080.934 .0224269
1081.515 .0224246
1082.097 .0224235
1082.679 .0224236
1083.260 .0224235
1083.842 .0224249
1084.424 .0224250
1085.007 .0224243
1085.589 .0224205
1086.172 .0224142
1086.754 .0224056
1087.337 .0223961
1087.920 .0223854
1088.503 .0223728
1089.087 .0223601
1089.670 .0223463
1090.254 .0223318
1090.838 .0223168
1091.422 .0223011
1092.006 .0222834
1092.590 .0222635
1093.175 .0222437
1093.760 .0222190
1094.345 .0221922
1094.930 .0221642
1095.516 .0221357
1096.102 .0221071
1096.688 .0220781
1097.274 .0220493
1097.860 .0220223
1098.447 .0219987
1099.034 .0219767
1099.622 .0219555
1100.209 .0219380
1100.797 .0219238
1101.385 .0219114
1101.973 .0219013
1102.562 .0218954
1103.151 .0218908
1103.740 .0218884
1104.330 .0218872
1104.920 .0218888
1105.510 .0218938
1106.101 .0219032
1106.691 .0219183
1107.283 .0219396
1107.874 .0219646
1108.466 .0219924
1109.058 .0220230
1109.651 .0220557
1110.244 .0220894
1110.837 .0221215
1111.431 .0221540
1112.025 .0221884
1112.620 .0222226
1113.215 .0222563
1113.810 .0222885
1114.406 .0223219
1115.002 .0223509
1115.599 .0223750
1116.196 .0223953
1116.793 .0224083
1117.391 .0224172
1117.989 .0224209
1118.588 .0224219
1119.187 .0224173
1119.787 .0224075
1120.387 .0223946
1120.988 .0223783
1121.589 .0223615
1122.190 .0223425
1122.793 .0223244
1123.395 .0223096
1123.998 .0222997
1124.602 .0222972
1125.206 .0223019
1125.811 .0223186
1126.416 .0223432
1127.022 .0223758
1127.628 .0224156
1128.235 .0224633
1128.843 .0225153
1129.451 .0225710
1130.059 .0226296
1130.669 .0226847
1131.278 .0227349
1131.889 .0227767
1132.500 .0228091
1133.112 .0228338
1133.724 .0228519
1134.337 .0228657
1134.950 .0228730
1135.564 .0228830
1136.179 .0228923
1136.795 .0229034
1137.411 .0229182
1138.028 .0229324
1138.645 .0229473
1139.263 .0229643
1139.882 .0229842
1140.502 .0230151
1141.122 .0230523
1141.743 .0231151
1142.365 .0231983
1142.987 .0231869
1143.611 .0234378
1144.235 .0233539
1144.859 .0237932
1145.485 .0240083
