Measurement Sequence started on: 10-20-44-796
Integration time: 35
Scans to Average: 2 
>>>>>Begin Spectral Data<<<<<
432.953 .0501956
433.882 .0358442
434.810 .0285778
435.737 .0312705
436.662 .0313119
437.586 .0327734
438.509 .0322083
439.431 .0322063
440.351 .0323698
441.269 .0324159
442.187 .0324515
443.103 .0324759
444.018 .0325422
444.932 .0326111
445.844 .0326919
446.756 .0327727
447.666 .0328156
448.575 .0327967
449.482 .0327473
450.388 .0326673
451.294 .0325750
452.198 .0324815
453.100 .0323935
454.002 .0323183
454.902 .0322637
455.801 .0322107
456.699 .0321471
457.596 .0320847
458.492 .0320103
459.387 .0319102
460.280 .0318047
461.172 .0317001
462.064 .0316108
462.954 .0315377
463.843 .0314899
464.730 .0314628
465.617 .0314508
466.503 .0314513
467.387 .0314552
468.271 .0314582
469.153 .0314619
470.035 .0314604
470.915 .0314694
471.794 .0314862
472.673 .0315100
473.550 .0315448
474.426 .0315919
475.301 .0316463
476.175 .0316967
477.048 .0317399
477.920 .0317756
478.791 .0318000
479.661 .0318114
480.530 .0318091
481.398 .0318000
482.266 .0317893
483.132 .0317790
483.997 .0317665
484.861 .0317565
485.724 .0317497
486.587 .0317436
487.448 .0317352
488.308 .0317229
489.168 .0317053
490.026 .0316823
490.884 .0316531
491.741 .0316154
492.597 .0315711
493.452 .0315244
494.306 .0314768
495.159 .0314299
496.011 .0313826
496.862 .0313347
497.713 .0312816
498.562 .0312264
499.411 .0311668
500.259 .0310980
501.106 .0310228
501.952 .0309409
502.798 .0308547
503.642 .0307658
504.486 .0306747
505.329 .0305837
506.171 .0304947
507.012 .0304103
507.852 .0303269
508.692 .0302424
509.531 .0301603
510.369 .0300742
511.206 .0299892
512.043 .0299061
512.878 .0298180
513.713 .0297253
514.547 .0296307
515.381 .0295344
516.213 .0294351
517.045 .0293319
517.876 .0292199
518.706 .0290915
519.536 .0289531
520.365 .0287921
521.193 .0286133
522.020 .0284132
522.847 .0281942
523.673 .0279638
524.498 .0277294
525.323 .0274940
526.146 .0272651
526.969 .0270532
527.792 .0268567
528.614 .0266648
529.435 .0264765
530.255 .0262869
531.075 .0260913
531.894 .0258931
532.712 .0256904
533.530 .0254874
534.347 .0253039
535.163 .0251375
535.979 .0250043
536.794 .0249056
537.608 .0248371
538.422 .0248014
539.235 .0247869
540.048 .0247963
540.860 .0248153
541.671 .0248414
542.481 .0248772
543.292 .0249210
544.101 .0249772
544.910 .0250349
545.718 .0251090
546.526 .0252068
547.333 .0253200
548.139 .0254469
548.945 .0255810
549.750 .0257111
550.555 .0258396
551.359 .0259574
552.162 .0260555
552.965 .0261394
553.768 .0262101
554.569 .0262657
555.371 .0263123
556.171 .0263637
556.972 .0264203
557.771 .0264835
558.570 .0265599
559.369 .0266398
560.167 .0267249
560.964 .0268173
561.761 .0269105
562.558 .0270049
563.354 .0271001
564.149 .0271927
564.944 .0272839
565.738 .0273764
566.532 .0274679
567.325 .0275576
568.118 .0276480
568.910 .0277363
569.702 .0278169
570.494 .0278960
571.285 .0279734
572.075 .0280498
572.865 .0281277
573.654 .0282039
574.443 .0282798
575.232 .0283578
576.020 .0284341
576.807 .0285091
577.594 .0285811
578.381 .0286516
579.167 .0287168
579.952 .0287787
580.738 .0288348
581.522 .0288864
582.307 .0289360
583.091 .0289837
583.874 .0290279
584.657 .0290700
585.440 .0291109
586.222 .0291512
587.004 .0291900
587.785 .0292295
588.566 .0292668
589.346 .0293055
590.126 .0293423
590.906 .0293774
591.685 .0294107
592.464 .0294409
593.242 .0294683
594.020 .0294931
594.797 .0295156
595.575 .0295358
596.351 .0295526
597.128 .0295667
597.904 .0295764
598.679 .0295817
599.454 .0295824
600.229 .0295789
601.004 .0295722
601.778 .0295631
602.551 .0295525
603.325 .0295426
604.097 .0295335
604.870 .0295253
605.642 .0295187
606.414 .0295134
607.185 .0295072
607.956 .0295007
608.727 .0294928
609.497 .0294835
610.267 .0294736
611.037 .0294623
611.806 .0294501
612.575 .0294368
613.344 .0294239
614.112 .0294095
614.880 .0293941
615.647 .0293766
616.414 .0293562
617.181 .0293335
617.948 .0293089
618.714 .0292820
619.480 .0292543
620.245 .0292263
621.011 .0291981
621.775 .0291699
622.540 .0291430
623.304 .0291164
624.068 .0290925
624.832 .0290705
625.595 .0290515
626.358 .0290342
627.120 .0290185
627.883 .0290042
628.645 .0289915
629.406 .0289792
630.168 .0289664
630.929 .0289536
631.689 .0289412
632.450 .0289276
633.210 .0289141
633.970 .0288999
634.729 .0288854
635.489 .0288696
636.248 .0288521
637.006 .0288320
637.765 .0288110
638.523 .0287878
639.280 .0287636
640.038 .0287395
640.795 .0287165
641.552 .0286943
642.309 .0286737
643.065 .0286554
643.821 .0286383
644.577 .0286214
645.332 .0286052
646.088 .0285887
646.843 .0285728
647.597 .0285568
648.352 .0285417
649.106 .0285288
649.860 .0285173
650.613 .0285067
651.367 .0284974
652.120 .0284890
652.872 .0284811
653.625 .0284730
654.377 .0284653
655.129 .0284591
655.881 .0284542
656.632 .0284505
657.384 .0284474
658.135 .0284452
658.885 .0284431
659.636 .0284395
660.386 .0284355
661.136 .0284304
661.885 .0284245
662.635 .0284200
663.384 .0284163
664.133 .0284143
664.881 .0284138
665.630 .0284150
666.378 .0284166
667.126 .0284172
667.874 .0284154
668.621 .0284104
669.368 .0284027
670.115 .0283925
670.862 .0283799
671.608 .0283671
672.354 .0283553
673.100 .0283450
673.846 .0283367
674.591 .0283301
675.337 .0283245
676.082 .0283192
676.826 .0283133
677.571 .0283065
678.315 .0282981
679.059 .0282882
679.803 .0282778
680.547 .0282675
681.290 .0282576
682.033 .0282477
682.776 .0282391
683.518 .0282304
684.261 .0282213
685.003 .0282110
685.745 .0281989
686.487 .0281855
687.228 .0281701
687.969 .0281516
688.710 .0281314
689.451 .0281101
690.192 .0280875
690.932 .0280642
691.672 .0280411
692.412 .0280181
693.152 .0279954
693.891 .0279730
694.630 .0279519
695.369 .0279311
696.108 .0279121
696.846 .0278936
697.585 .0278754
698.323 .0278578
699.061 .0278403
699.798 .0278228
700.536 .0278060
701.273 .0277898
702.010 .0277745
702.746 .0277598
703.483 .0277469
704.219 .0277348
704.955 .0277230
705.691 .0277111
706.427 .0276979
707.162 .0276821
707.897 .0276648
708.632 .0276447
709.367 .0276233
710.101 .0276017
710.835 .0275800
711.569 .0275583
712.303 .0275376
713.037 .0275175
713.770 .0274973
714.503 .0274762
715.236 .0274547
715.969 .0274313
716.702 .0274070
717.434 .0273823
718.166 .0273575
718.898 .0273343
719.629 .0273133
720.361 .0272937
721.092 .0272763
721.823 .0272605
722.554 .0272457
723.284 .0272303
724.014 .0272141
724.744 .0271963
725.474 .0271770
726.204 .0271563
726.933 .0271354
727.662 .0271143
728.391 .0270945
729.120 .0270758
729.849 .0270584
730.577 .0270425
731.305 .0270272
732.033 .0270126
732.760 .0269984
733.488 .0269839
734.215 .0269693
734.942 .0269547
735.669 .0269412
736.395 .0269287
737.122 .0269174
737.848 .0269073
738.573 .0268979
739.299 .0268885
740.024 .0268784
740.750 .0268674
741.474 .0268552
742.199 .0268418
742.924 .0268274
743.648 .0268126
744.372 .0267972
745.096 .0267823
745.819 .0267680
746.543 .0267544
747.266 .0267421
747.989 .0267305
748.711 .0267200
749.434 .0267112
750.156 .0267039
750.878 .0266982
751.599 .0266944
752.321 .0266922
753.042 .0266905
753.763 .0266888
754.484 .0266873
755.205 .0266855
755.925 .0266835
756.645 .0266810
757.365 .0266782
758.085 .0266750
758.804 .0266709
759.523 .0266652
760.242 .0266584
760.961 .0266504
761.679 .0266407
762.397 .0266286
763.115 .0266150
763.833 .0265997
764.551 .0265835
765.268 .0265667
765.985 .0265497
766.702 .0265322
767.418 .0265144
768.134 .0264963
768.850 .0264784
769.566 .0264607
770.282 .0264435
770.997 .0264270
771.712 .0264115
772.427 .0263968
773.142 .0263831
773.856 .0263703
774.570 .0263591
775.284 .0263484
775.998 .0263378
776.711 .0263263
777.424 .0263148
778.137 .0263026
778.849 .0262898
779.562 .0262766
780.274 .0262629
780.986 .0262485
781.697 .0262339
782.409 .0262194
783.120 .0262046
783.831 .0261896
784.541 .0261751
785.252 .0261603
785.962 .0261454
786.671 .0261309
787.381 .0261164
788.090 .0261022
788.799 .0260891
789.508 .0260758
790.217 .0260625
790.925 .0260499
791.633 .0260370
792.341 .0260236
793.048 .0260097
793.755 .0259943
794.462 .0259772
795.169 .0259595
795.875 .0259412
796.581 .0259217
797.287 .0259025
797.993 .0258836
798.698 .0258648
799.403 .0258467
800.108 .0258289
800.812 .0258113
801.517 .0257945
802.221 .0257779
802.924 .0257608
803.628 .0257447
804.331 .0257303
805.034 .0257180
805.736 .0257079
806.439 .0257006
807.141 .0256951
807.843 .0256913
808.544 .0256885
809.245 .0256846
809.946 .0256790
810.647 .0256712
811.347 .0256610
812.047 .0256486
812.747 .0256347
813.447 .0256201
814.146 .0256060
814.845 .0255925
815.543 .0255793
816.242 .0255656
816.940 .0255510
817.638 .0255350
818.335 .0255169
819.032 .0254966
819.729 .0254748
820.426 .0254519
821.122 .0254289
821.818 .0254064
822.514 .0253857
823.209 .0253662
823.905 .0253488
824.599 .0253328
825.294 .0253173
825.988 .0253015
826.682 .0252857
827.376 .0252696
828.069 .0252529
828.762 .0252362
829.455 .0252189
830.147 .0252011
830.840 .0251837
831.531 .0251657
832.223 .0251477
832.914 .0251303
833.605 .0251133
834.296 .0250963
834.986 .0250800
835.676 .0250641
836.366 .0250481
837.055 .0250322
837.744 .0250162
838.433 .0249999
839.121 .0249829
839.809 .0249657
840.497 .0249491
841.185 .0249338
841.872 .0249202
842.559 .0249088
843.245 .0248994
843.932 .0248912
844.617 .0248836
845.303 .0248759
845.988 .0248673
846.673 .0248575
847.358 .0248462
848.042 .0248342
848.726 .0248229
849.410 .0248122
850.093 .0248027
850.776 .0247950
851.459 .0247883
852.141 .0247809
852.823 .0247719
853.505 .0247612
854.186 .0247480
854.867 .0247326
855.548 .0247157
856.228 .0246984
856.908 .0246817
857.588 .0246662
858.267 .0246526
858.946 .0246407
859.625 .0246301
860.303 .0246198
860.981 .0246096
861.659 .0245996
862.336 .0245894
863.013 .0245794
863.690 .0245695
864.366 .0245609
865.042 .0245527
865.718 .0245451
866.393 .0245383
867.068 .0245320
867.743 .0245256
868.417 .0245189
869.091 .0245119
869.765 .0245046
870.438 .0244973
871.111 .0244905
871.783 .0244833
872.456 .0244764
873.127 .0244690
873.799 .0244618
874.470 .0244546
875.141 .0244483
875.811 .0244429
876.481 .0244384
877.151 .0244354
877.820 .0244336
878.489 .0244331
879.158 .0244336
879.826 .0244344
880.494 .0244350
881.162 .0244347
881.829 .0244334
882.496 .0244303
883.163 .0244263
883.829 .0244214
884.495 .0244155
885.160 .0244090
885.825 .0244028
886.490 .0243967
887.154 .0243912
887.818 .0243867
888.482 .0243825
889.145 .0243789
889.808 .0243757
890.471 .0243728
891.133 .0243705
891.795 .0243680
892.456 .0243659
893.117 .0243644
893.778 .0243639
894.439 .0243640
895.099 .0243647
895.758 .0243666
896.417 .0243687
897.076 .0243706
897.735 .0243713
898.393 .0243707
899.051 .0243688
899.708 .0243651
900.365 .0243596
901.022 .0243531
901.678 .0243457
902.334 .0243383
902.990 .0243318
903.645 .0243255
904.300 .0243195
904.954 .0243141
905.608 .0243085
906.262 .0243029
906.915 .0242970
907.568 .0242915
908.221 .0242863
908.873 .0242827
909.525 .0242801
910.176 .0242784
910.828 .0242785
911.478 .0242796
912.129 .0242805
912.778 .0242812
913.428 .0242805
914.077 .0242781
914.726 .0242742
915.375 .0242688
916.023 .0242617
916.670 .0242542
917.318 .0242457
917.964 .0242366
918.611 .0242266
919.257 .0242155
919.903 .0242030
920.548 .0241898
921.193 .0241757
921.838 .0241607
922.482 .0241460
923.126 .0241323
923.770 .0241198
924.413 .0241095
925.056 .0241009
925.698 .0240945
926.340 .0240896
926.982 .0240857
927.623 .0240819
928.264 .0240787
928.904 .0240752
929.544 .0240716
930.184 .0240677
930.823 .0240638
931.462 .0240594
932.101 .0240544
932.739 .0240480
933.377 .0240403
934.014 .0240303
934.651 .0240184
935.288 .0240040
935.924 .0239887
936.560 .0239723
937.196 .0239560
937.831 .0239395
938.466 .0239234
939.100 .0239069
939.734 .0238900
940.368 .0238716
941.001 .0238525
941.634 .0238315
942.266 .0238092
942.899 .0237856
943.530 .0237619
944.162 .0237376
944.793 .0237139
945.423 .0236901
946.053 .0236671
946.683 .0236436
947.313 .0236201
947.942 .0235956
948.571 .0235704
949.199 .0235441
949.827 .0235168
950.455 .0234889
951.082 .0234615
951.709 .0234340
952.335 .0234076
952.961 .0233819
953.587 .0233573
954.212 .0233332
954.837 .0233095
955.462 .0232853
956.086 .0232612
956.710 .0232363
957.334 .0232113
957.957 .0231861
958.579 .0231620
959.202 .0231391
959.824 .0231176
960.445 .0230981
961.067 .0230800
961.688 .0230636
962.308 .0230494
962.928 .0230363
963.548 .0230248
964.168 .0230142
964.787 .0230044
965.406 .0229951
966.024 .0229871
966.642 .0229793
967.260 .0229713
967.877 .0229634
968.494 .0229547
969.110 .0229452
969.727 .0229353
970.342 .0229249
970.958 .0229142
971.573 .0229043
972.188 .0228943
972.802 .0228838
973.416 .0228738
974.030 .0228641
974.643 .0228543
975.256 .0228445
975.869 .0228342
976.481 .0228230
977.093 .0228119
977.705 .0228007
978.316 .0227888
978.927 .0227772
979.538 .0227657
980.148 .0227538
980.758 .0227420
981.367 .0227304
981.977 .0227185
982.586 .0227076
983.194 .0226972
983.802 .0226872
984.410 .0226773
985.018 .0226681
985.625 .0226594
986.232 .0226507
986.838 .0226430
987.445 .0226350
988.050 .0226275
988.656 .0226205
989.261 .0226130
989.866 .0226049
990.471 .0225964
991.075 .0225871
991.679 .0225763
992.282 .0225644
992.886 .0225520
993.489 .0225393
994.091 .0225272
994.694 .0225158
995.296 .0225054
995.897 .0224955
996.499 .0224871
997.100 .0224783
997.701 .0224702
998.301 .0224627
998.901 .0224555
999.501 .0224488
1000.101 .0224425
1000.700 .0224370
1001.299 .0224320
1001.898 .0224285
1002.496 .0224258
1003.094 .0224230
1003.692 .0224214
1004.289 .0224199
1004.887 .0224186
1005.484 .0224175
1006.080 .0224164
1006.677 .0224152
1007.273 .0224137
1007.868 .0224124
1008.464 .0224105
1009.059 .0224099
1009.654 .0224111
1010.249 .0224134
1010.843 .0224171
1011.437 .0224217
1012.031 .0224254
1012.625 .0224291
1013.218 .0224313
1013.811 .0224316
1014.404 .0224302
1014.997 .0224282
1015.589 .0224256
1016.181 .0224234
1016.773 .0224235
1017.365 .0224256
1017.956 .0224293
1018.547 .0224358
1019.138 .0224424
1019.728 .0224493
1020.319 .0224568
1020.909 .0224645
1021.499 .0224727
1022.088 .0224825
1022.678 .0224932
1023.267 .0225045
1023.856 .0225163
1024.445 .0225284
1025.033 .0225380
1025.621 .0225464
1026.209 .0225534
1026.797 .0225571
1027.385 .0225588
1027.972 .0225591
1028.560 .0225584
1029.147 .0225575
1029.734 .0225570
1030.320 .0225565
1030.907 .0225555
1031.493 .0225546
1032.079 .0225528
1032.665 .0225503
1033.250 .0225488
1033.836 .0225470
1034.421 .0225451
1035.006 .0225446
1035.591 .0225450
1036.176 .0225461
1036.761 .0225490
1037.345 .0225531
1037.929 .0225585
1038.514 .0225639
1039.097 .0225702
1039.681 .0225771
1040.265 .0225849
1040.848 .0225941
1041.432 .0226035
1042.015 .0226138
1042.598 .0226251
1043.181 .0226363
1043.764 .0226479
1044.346 .0226592
1044.929 .0226702
1045.511 .0226790
1046.094 .0226852
1046.676 .0226897
1047.258 .0226921
1047.840 .0226937
1048.422 .0226943
1049.003 .0226943
1049.585 .0226957
1050.166 .0226987
1050.748 .0227022
1051.329 .0227067
1051.910 .0227113
1052.491 .0227161
1053.072 .0227202
1053.653 .0227236
1054.234 .0227266
1054.815 .0227299
1055.396 .0227344
1055.976 .0227404
1056.557 .0227466
1057.138 .0227544
1057.718 .0227623
1058.298 .0227703
1058.879 .0227766
1059.459 .0227793
1060.039 .0227793
1060.620 .0227764
1061.200 .0227720
1061.780 .0227673
1062.360 .0227627
1062.940 .0227598
1063.520 .0227590
1064.101 .0227597
1064.681 .0227622
1065.261 .0227660
1065.841 .0227713
1066.421 .0227782
1067.001 .0227851
1067.581 .0227908
1068.161 .0227958
1068.741 .0228020
1069.321 .0228095
1069.901 .0228160
1070.482 .0228232
1071.062 .0228303
1071.642 .0228363
1072.222 .0228417
1072.803 .0228455
1073.383 .0228492
1073.963 .0228515
1074.544 .0228496
1075.124 .0228439
1075.705 .0228347
1076.286 .0228238
1076.866 .0228129
1077.447 .0228025
1078.028 .0227959
1078.609 .0227912
1079.190 .0227891
1079.771 .0227900
1080.352 .0227927
1080.934 .0227973
1081.515 .0228039
1082.097 .0228107
1082.679 .0228181
1083.260 .0228241
1083.842 .0228307
1084.424 .0228380
1085.007 .0228469
1085.589 .0228555
1086.172 .0228625
1086.754 .0228685
1087.337 .0228741
1087.920 .0228762
1088.503 .0228778
1089.087 .0228787
1089.670 .0228783
1090.254 .0228763
1090.838 .0228714
1091.422 .0228615
1092.006 .0228508
1092.590 .0228379
1093.175 .0228251
1093.760 .0228118
1094.345 .0228016
1094.930 .0227936
1095.516 .0227893
1096.102 .0227903
1096.688 .0227914
1097.274 .0227940
1097.860 .0227971
1098.447 .0227956
1099.034 .0227900
1099.622 .0227806
1100.209 .0227696
1100.797 .0227562
1101.385 .0227426
1101.973 .0227257
1102.562 .0227076
1103.151 .0226899
1103.740 .0226725
1104.330 .0226560
1104.920 .0226427
1105.510 .0226333
1106.101 .0226231
1106.691 .0226152
1107.283 .0226083
1107.874 .0226012
1108.466 .0225965
1109.058 .0225930
1109.651 .0225914
1110.244 .0225929
1110.837 .0225980
1111.431 .0226056
1112.025 .0226143
1112.620 .0226253
1113.215 .0226328
1113.810 .0226403
1114.406 .0226494
1115.002 .0226600
1115.599 .0226748
1116.196 .0226948
1116.793 .0227162
1117.391 .0227395
1117.989 .0227598
1118.588 .0227764
1119.187 .0227833
1119.787 .0227865
1120.387 .0227808
1120.988 .0227728
1121.589 .0227673
1122.190 .0227693
1122.793 .0227800
1123.395 .0227982
1123.998 .0228209
1124.602 .0228446
1125.206 .0228645
1125.811 .0228809
1126.416 .0228892
1127.022 .0228972
1127.628 .0229017
1128.235 .0229085
1128.843 .0229145
1129.451 .0229301
1130.059 .0229496
1130.669 .0229733
1131.278 .0229971
1131.889 .0230230
1132.500 .0230480
1133.112 .0230716
1133.724 .0230999
1134.337 .0231294
1134.950 .0231585
1135.564 .0231890
1136.179 .0232126
1136.795 .0232398
1137.411 .0232695
1138.028 .0233029
1138.645 .0233445
1139.263 .0233944
1139.882 .0234557
1140.502 .0235186
1141.122 .0235819
1141.743 .0236595
1142.365 .0237596
1142.987 .0238532
1143.611 .0238200
1144.235 .0236974
1144.859 .0242464
1145.485 .0248364
