Measurement Sequence started on: 10-20-44-796
Integration time: 35
Scans to Average: 2 
>>>>>Begin Spectral Data<<<<<
432.953 .0373116
433.882 .0393990
434.810 .0374396
435.737 .0362273
436.662 .0349890
437.586 .0351974
438.509 .0347348
439.431 .0343020
440.351 .0339825
441.269 .0337355
442.187 .0335308
443.103 .0333432
444.018 .0331487
444.932 .0329650
445.844 .0327971
446.756 .0326497
447.666 .0325231
448.575 .0324236
449.482 .0323425
450.388 .0322977
451.294 .0322723
452.198 .0322749
453.100 .0322943
454.002 .0323316
454.902 .0323752
455.801 .0324235
456.699 .0324727
457.596 .0325258
458.492 .0325722
459.387 .0326175
460.280 .0326595
461.172 .0326931
462.064 .0327206
462.954 .0327472
463.843 .0327625
464.730 .0327711
465.617 .0327675
466.503 .0327541
467.387 .0327279
468.271 .0326914
469.153 .0326483
470.035 .0325991
470.915 .0325516
471.794 .0325030
472.673 .0324543
473.550 .0324137
474.426 .0323769
475.301 .0323469
476.175 .0323237
477.048 .0323039
477.920 .0322864
478.791 .0322680
479.661 .0322513
480.530 .0322349
481.398 .0322191
482.266 .0322036
483.132 .0321901
483.997 .0321783
484.861 .0321685
485.724 .0321620
486.587 .0321602
487.448 .0321608
488.308 .0321616
489.168 .0321625
490.026 .0321611
490.884 .0321571
491.741 .0321488
492.597 .0321341
493.452 .0321144
494.306 .0320882
495.159 .0320554
496.011 .0320183
496.862 .0319796
497.713 .0319364
498.562 .0318878
499.411 .0318342
500.259 .0317733
501.106 .0317042
501.952 .0316277
502.798 .0315437
503.642 .0314524
504.486 .0313561
505.329 .0312533
506.171 .0311471
507.012 .0310392
507.852 .0309292
508.692 .0308188
509.531 .0307055
510.369 .0305898
511.206 .0304707
512.043 .0303500
512.878 .0302266
513.713 .0300984
514.547 .0299677
515.381 .0298330
516.213 .0296953
517.045 .0295585
517.876 .0294213
518.706 .0292846
519.536 .0291495
520.365 .0290113
521.193 .0288667
522.020 .0287171
522.847 .0285552
523.673 .0283837
524.498 .0282019
525.323 .0280063
526.146 .0278038
526.969 .0276030
527.792 .0274103
528.614 .0272198
529.435 .0270399
530.255 .0268703
531.075 .0266998
531.894 .0265377
532.712 .0263800
533.530 .0262306
534.347 .0260953
535.163 .0259755
535.979 .0258820
536.794 .0258178
537.608 .0257864
538.422 .0257809
539.235 .0257993
540.048 .0258391
540.860 .0258825
541.671 .0259303
542.481 .0259829
543.292 .0260384
544.101 .0260939
544.910 .0261522
545.718 .0262120
546.526 .0262727
547.333 .0263366
548.139 .0264021
548.945 .0264654
549.750 .0265256
550.555 .0265793
551.359 .0266272
552.162 .0266669
552.965 .0267027
553.768 .0267324
554.569 .0267671
555.371 .0268072
556.171 .0268509
556.972 .0269039
557.771 .0269685
558.570 .0270422
559.369 .0271232
560.167 .0272053
560.964 .0272905
561.761 .0273748
562.558 .0274585
563.354 .0275404
564.149 .0276218
564.944 .0277033
565.738 .0277856
566.532 .0278684
567.325 .0279523
568.118 .0280331
568.910 .0281143
569.702 .0281945
570.494 .0282731
571.285 .0283499
572.075 .0284237
572.865 .0284912
573.654 .0285562
574.443 .0286148
575.232 .0286697
576.020 .0287215
576.807 .0287736
577.594 .0288272
578.381 .0288841
579.167 .0289452
579.952 .0290135
580.738 .0290862
581.522 .0291650
582.307 .0292404
583.091 .0293127
583.874 .0293767
584.657 .0294309
585.440 .0294746
586.222 .0295100
587.004 .0295386
587.785 .0295649
588.566 .0295895
589.346 .0296150
590.126 .0296409
590.906 .0296684
591.685 .0296943
592.464 .0297181
593.242 .0297367
594.020 .0297503
594.797 .0297573
595.575 .0297600
596.351 .0297589
597.128 .0297567
597.904 .0297540
598.679 .0297516
599.454 .0297502
600.229 .0297492
601.004 .0297473
601.778 .0297438
602.551 .0297374
603.325 .0297282
604.097 .0297151
604.870 .0296998
605.642 .0296828
606.414 .0296657
607.185 .0296488
607.956 .0296335
608.727 .0296196
609.497 .0296067
610.267 .0295937
611.037 .0295806
611.806 .0295671
612.575 .0295521
613.344 .0295367
614.112 .0295212
614.880 .0295060
615.647 .0294916
616.414 .0294778
617.181 .0294655
617.948 .0294541
618.714 .0294431
619.480 .0294328
620.245 .0294228
621.011 .0294130
621.775 .0294029
622.540 .0293935
623.304 .0293852
624.068 .0293771
624.832 .0293688
625.595 .0293608
626.358 .0293517
627.120 .0293415
627.883 .0293294
628.645 .0293161
629.406 .0293021
630.168 .0292874
630.929 .0292721
631.689 .0292573
632.450 .0292429
633.210 .0292291
633.970 .0292148
634.729 .0292005
635.489 .0291851
636.248 .0291686
637.006 .0291512
637.765 .0291330
638.523 .0291137
639.280 .0290946
640.038 .0290755
640.795 .0290577
641.552 .0290404
642.309 .0290240
643.065 .0290084
643.821 .0289937
644.577 .0289789
645.332 .0289641
646.088 .0289483
646.843 .0289320
647.597 .0289149
648.352 .0288969
649.106 .0288786
649.860 .0288602
650.613 .0288427
651.367 .0288266
652.120 .0288112
652.872 .0287967
653.625 .0287831
654.377 .0287709
655.129 .0287591
655.881 .0287469
656.632 .0287347
657.384 .0287223
658.135 .0287092
658.885 .0286953
659.636 .0286808
660.386 .0286663
661.136 .0286517
661.885 .0286376
662.635 .0286247
663.384 .0286129
664.133 .0286017
664.881 .0285911
665.630 .0285806
666.378 .0285699
667.126 .0285576
667.874 .0285441
668.621 .0285296
669.368 .0285145
670.115 .0284981
670.862 .0284818
671.608 .0284664
672.354 .0284524
673.100 .0284389
673.846 .0284260
674.591 .0284133
675.337 .0284010
676.082 .0283889
676.826 .0283772
677.571 .0283660
678.315 .0283559
679.059 .0283459
679.803 .0283366
680.547 .0283274
681.290 .0283182
682.033 .0283078
682.776 .0282965
683.518 .0282842
684.261 .0282707
685.003 .0282561
685.745 .0282414
686.487 .0282272
687.228 .0282130
687.969 .0281980
688.710 .0281820
689.451 .0281652
690.192 .0281473
690.932 .0281279
691.672 .0281076
692.412 .0280871
693.152 .0280667
693.891 .0280462
694.630 .0280258
695.369 .0280065
696.108 .0279871
696.846 .0279678
697.585 .0279482
698.323 .0279285
699.061 .0279081
699.798 .0278876
700.536 .0278666
701.273 .0278452
702.010 .0278236
702.746 .0278019
703.483 .0277799
704.219 .0277589
704.955 .0277382
705.691 .0277186
706.427 .0277001
707.162 .0276830
707.897 .0276663
708.632 .0276507
709.367 .0276354
710.101 .0276203
710.835 .0276050
711.569 .0275898
712.303 .0275745
713.037 .0275597
713.770 .0275449
714.503 .0275305
715.236 .0275162
715.969 .0275024
716.702 .0274883
717.434 .0274744
718.166 .0274600
718.898 .0274463
719.629 .0274330
720.361 .0274200
721.092 .0274069
721.823 .0273940
722.554 .0273807
723.284 .0273668
724.014 .0273515
724.744 .0273353
725.474 .0273179
726.204 .0273004
726.933 .0272827
727.662 .0272652
728.391 .0272480
729.120 .0272312
729.849 .0272146
730.577 .0271981
731.305 .0271809
732.033 .0271631
732.760 .0271448
733.488 .0271264
734.215 .0271077
734.942 .0270890
735.669 .0270707
736.395 .0270533
737.122 .0270364
737.848 .0270200
738.573 .0270037
739.299 .0269877
740.024 .0269717
740.750 .0269554
741.474 .0269384
742.199 .0269211
742.924 .0269034
743.648 .0268855
744.372 .0268674
745.096 .0268497
745.819 .0268322
746.543 .0268158
747.266 .0268002
747.989 .0267858
748.711 .0267722
749.434 .0267597
750.156 .0267481
750.878 .0267383
751.599 .0267300
752.321 .0267235
753.042 .0267192
753.763 .0267168
754.484 .0267160
755.205 .0267164
755.925 .0267170
756.645 .0267173
757.365 .0267167
758.085 .0267147
758.804 .0267106
759.523 .0267048
760.242 .0266971
760.961 .0266873
761.679 .0266763
762.397 .0266631
763.115 .0266477
763.833 .0266300
764.551 .0266101
765.268 .0265879
765.985 .0265639
766.702 .0265386
767.418 .0265125
768.134 .0264867
768.850 .0264617
769.566 .0264378
770.282 .0264157
770.997 .0263955
771.712 .0263769
772.427 .0263596
773.142 .0263439
773.856 .0263285
774.570 .0263144
775.284 .0263008
775.998 .0262879
776.711 .0262757
777.424 .0262640
778.137 .0262525
778.849 .0262410
779.562 .0262293
780.274 .0262172
780.986 .0262043
781.697 .0261907
782.409 .0261761
783.120 .0261611
783.831 .0261461
784.541 .0261311
785.252 .0261166
785.962 .0261030
786.671 .0260901
787.381 .0260775
788.090 .0260655
788.799 .0260535
789.508 .0260408
790.217 .0260274
790.925 .0260131
791.633 .0259978
792.341 .0259821
793.048 .0259660
793.755 .0259495
794.462 .0259333
795.169 .0259175
795.875 .0259016
796.581 .0258861
797.287 .0258710
797.993 .0258557
798.698 .0258402
799.403 .0258247
800.108 .0258092
800.812 .0257939
801.517 .0257792
802.221 .0257654
802.924 .0257525
803.628 .0257409
804.331 .0257306
805.034 .0257214
805.736 .0257130
806.439 .0257050
807.141 .0256971
807.843 .0256894
808.544 .0256815
809.245 .0256730
809.946 .0256642
810.647 .0256554
811.347 .0256468
812.047 .0256378
812.747 .0256289
813.447 .0256198
814.146 .0256102
814.845 .0255999
815.543 .0255888
816.242 .0255768
816.940 .0255636
817.638 .0255496
818.335 .0255354
819.032 .0255209
819.729 .0255067
820.426 .0254927
821.122 .0254789
821.818 .0254650
822.514 .0254509
823.209 .0254355
823.905 .0254196
824.599 .0254026
825.294 .0253850
825.988 .0253669
826.682 .0253492
827.376 .0253322
828.069 .0253158
828.762 .0253004
829.455 .0252853
830.147 .0252701
830.840 .0252556
831.531 .0252409
832.223 .0252263
832.914 .0252119
833.605 .0251983
834.296 .0251851
834.986 .0251728
835.676 .0251613
836.366 .0251499
837.055 .0251390
837.744 .0251281
838.433 .0251167
839.121 .0251048
839.809 .0250926
840.497 .0250800
841.185 .0250674
841.872 .0250549
842.559 .0250417
843.245 .0250284
843.932 .0250152
844.617 .0250018
845.303 .0249882
845.988 .0249750
846.673 .0249625
847.358 .0249507
848.042 .0249402
848.726 .0249306
849.410 .0249223
850.093 .0249149
850.776 .0249077
851.459 .0249004
852.141 .0248929
852.823 .0248852
853.505 .0248773
854.186 .0248697
854.867 .0248627
855.548 .0248562
856.228 .0248506
856.908 .0248454
857.588 .0248406
858.267 .0248357
858.946 .0248304
859.625 .0248242
860.303 .0248170
860.981 .0248092
861.659 .0248010
862.336 .0247923
863.013 .0247841
863.690 .0247762
864.366 .0247684
865.042 .0247606
865.718 .0247525
866.393 .0247436
867.068 .0247334
867.743 .0247218
868.417 .0247086
869.091 .0246941
869.765 .0246793
870.438 .0246646
871.111 .0246506
871.783 .0246381
872.456 .0246265
873.127 .0246157
873.799 .0246061
874.470 .0245968
875.141 .0245879
875.811 .0245787
876.481 .0245693
877.151 .0245601
877.820 .0245515
878.489 .0245438
879.158 .0245372
879.826 .0245314
880.494 .0245266
881.162 .0245212
881.829 .0245154
882.496 .0245083
883.163 .0244999
883.829 .0244902
884.495 .0244795
885.160 .0244686
885.825 .0244581
886.490 .0244487
887.154 .0244408
887.818 .0244345
888.482 .0244293
889.145 .0244247
889.808 .0244206
890.471 .0244165
891.133 .0244128
891.795 .0244089
892.456 .0244050
893.117 .0244010
893.778 .0243970
894.439 .0243925
895.099 .0243876
895.758 .0243824
896.417 .0243766
897.076 .0243703
897.735 .0243632
898.393 .0243552
899.051 .0243469
899.708 .0243379
900.365 .0243283
901.022 .0243185
901.678 .0243088
902.334 .0242992
902.990 .0242901
903.645 .0242819
904.300 .0242747
904.954 .0242686
905.608 .0242634
906.262 .0242592
906.915 .0242565
907.568 .0242546
908.221 .0242531
908.873 .0242525
909.525 .0242525
910.176 .0242525
910.828 .0242521
911.478 .0242510
912.129 .0242490
912.778 .0242457
913.428 .0242410
914.077 .0242350
914.726 .0242283
915.375 .0242210
916.023 .0242137
916.670 .0242073
917.318 .0242017
917.964 .0241964
918.611 .0241913
919.257 .0241861
919.903 .0241801
920.548 .0241733
921.193 .0241656
921.838 .0241581
922.482 .0241511
923.126 .0241448
923.770 .0241396
924.413 .0241358
925.056 .0241337
925.698 .0241323
926.340 .0241313
926.982 .0241301
927.623 .0241275
928.264 .0241236
928.904 .0241177
929.544 .0241103
930.184 .0241014
930.823 .0240914
931.462 .0240803
932.101 .0240687
932.739 .0240566
933.377 .0240437
934.014 .0240298
934.651 .0240151
935.288 .0239990
935.924 .0239821
936.560 .0239641
937.196 .0239459
937.831 .0239280
938.466 .0239108
939.100 .0238939
939.734 .0238776
940.368 .0238615
941.001 .0238460
941.634 .0238305
942.266 .0238151
942.899 .0237992
943.530 .0237829
944.162 .0237665
944.793 .0237495
945.423 .0237320
946.053 .0237137
946.683 .0236946
947.313 .0236749
947.942 .0236543
948.571 .0236328
949.199 .0236108
949.827 .0235890
950.455 .0235671
951.082 .0235453
951.709 .0235234
952.335 .0235021
952.961 .0234812
953.587 .0234608
954.212 .0234406
954.837 .0234208
955.462 .0234021
956.086 .0233847
956.710 .0233688
957.334 .0233543
957.957 .0233410
958.579 .0233287
959.202 .0233167
959.824 .0233045
960.445 .0232916
961.067 .0232783
961.688 .0232646
962.308 .0232504
962.928 .0232360
963.548 .0232216
964.168 .0232077
964.787 .0231939
965.406 .0231803
966.024 .0231666
966.642 .0231532
967.260 .0231401
967.877 .0231275
968.494 .0231153
969.110 .0231041
969.727 .0230938
970.342 .0230844
970.958 .0230762
971.573 .0230688
972.188 .0230626
972.802 .0230575
973.416 .0230531
974.030 .0230494
974.643 .0230459
975.256 .0230427
975.869 .0230393
976.481 .0230357
977.093 .0230315
977.705 .0230266
978.316 .0230215
978.927 .0230163
979.538 .0230107
980.148 .0230046
980.758 .0229980
981.367 .0229907
981.977 .0229833
982.586 .0229755
983.194 .0229674
983.802 .0229599
984.410 .0229525
985.018 .0229454
985.625 .0229387
986.232 .0229324
986.838 .0229265
987.445 .0229209
988.050 .0229149
988.656 .0229081
989.261 .0229010
989.866 .0228929
990.471 .0228839
991.075 .0228749
991.679 .0228659
992.282 .0228565
992.886 .0228478
993.489 .0228405
994.091 .0228334
994.694 .0228280
995.296 .0228235
995.897 .0228195
996.499 .0228161
997.100 .0228125
997.701 .0228087
998.301 .0228054
998.901 .0228029
999.501 .0228008
1000.101 .0227994
1000.700 .0227994
1001.299 .0227993
1001.898 .0227996
1002.496 .0228000
1003.094 .0227996
1003.692 .0227979
1004.289 .0227955
1004.887 .0227920
1005.484 .0227876
1006.080 .0227832
1006.677 .0227787
1007.273 .0227748
1007.868 .0227715
1008.464 .0227685
1009.059 .0227652
1009.654 .0227621
1010.249 .0227593
1010.843 .0227564
1011.437 .0227545
1012.031 .0227535
1012.625 .0227534
1013.218 .0227543
1013.811 .0227556
1014.404 .0227570
1014.997 .0227582
1015.589 .0227591
1016.181 .0227585
1016.773 .0227569
1017.365 .0227544
1017.956 .0227506
1018.547 .0227467
1019.138 .0227426
1019.728 .0227389
1020.319 .0227353
1020.909 .0227317
1021.499 .0227280
1022.088 .0227240
1022.678 .0227198
1023.267 .0227150
1023.856 .0227098
1024.445 .0227046
1025.033 .0226993
1025.621 .0226943
1026.209 .0226902
1026.797 .0226874
1027.385 .0226856
1027.972 .0226849
1028.560 .0226853
1029.147 .0226861
1029.734 .0226864
1030.320 .0226860
1030.907 .0226843
1031.493 .0226809
1032.079 .0226757
1032.665 .0226693
1033.250 .0226618
1033.836 .0226544
1034.421 .0226473
1035.006 .0226412
1035.591 .0226363
1036.176 .0226328
1036.761 .0226298
1037.345 .0226278
1037.929 .0226260
1038.514 .0226248
1039.097 .0226244
1039.681 .0226259
1040.265 .0226287
1040.848 .0226338
1041.432 .0226401
1042.015 .0226483
1042.598 .0226577
1043.181 .0226679
1043.764 .0226783
1044.346 .0226890
1044.929 .0226994
1045.511 .0227087
1046.094 .0227168
1046.676 .0227236
1047.258 .0227280
1047.840 .0227313
1048.422 .0227320
1049.003 .0227308
1049.585 .0227282
1050.166 .0227250
1050.748 .0227220
1051.329 .0227204
1051.910 .0227200
1052.491 .0227208
1053.072 .0227227
1053.653 .0227252
1054.234 .0227275
1054.815 .0227299
1055.396 .0227327
1055.976 .0227357
1056.557 .0227391
1057.138 .0227440
1057.718 .0227498
1058.298 .0227566
1058.879 .0227638
1059.459 .0227703
1060.039 .0227750
1060.620 .0227762
1061.200 .0227739
1061.780 .0227678
1062.360 .0227571
1062.940 .0227436
1063.520 .0227288
1064.101 .0227137
1064.681 .0226989
1065.261 .0226846
1065.841 .0226721
1066.421 .0226620
1067.001 .0226525
1067.581 .0226434
1068.161 .0226334
1068.741 .0226233
1069.321 .0226118
1069.901 .0226005
1070.482 .0225911
1071.062 .0225845
1071.642 .0225821
1072.222 .0225843
1072.803 .0225898
1073.383 .0225986
1073.963 .0226098
1074.544 .0226221
1075.124 .0226338
1075.705 .0226434
1076.286 .0226501
1076.866 .0226561
1077.447 .0226614
1078.028 .0226667
1078.609 .0226724
1079.190 .0226808
1079.771 .0226910
1080.352 .0227012
1080.934 .0227118
1081.515 .0227204
1082.097 .0227271
1082.679 .0227312
1083.260 .0227315
1083.842 .0227296
1084.424 .0227258
1085.007 .0227216
1085.589 .0227174
1086.172 .0227142
1086.754 .0227109
1087.337 .0227067
1087.920 .0227034
1088.503 .0227003
1089.087 .0226963
1089.670 .0226925
1090.254 .0226899
1090.838 .0226895
1091.422 .0226915
1092.006 .0226942
1092.590 .0226997
1093.175 .0227075
1093.760 .0227160
1094.345 .0227231
1094.930 .0227291
1095.516 .0227359
1096.102 .0227426
1096.688 .0227490
1097.274 .0227576
1097.860 .0227675
1098.447 .0227786
1099.034 .0227880
1099.622 .0227965
1100.209 .0228027
1100.797 .0228045
1101.385 .0228007
1101.973 .0227946
1102.562 .0227845
1103.151 .0227716
1103.740 .0227540
1104.330 .0227359
1104.920 .0227173
1105.510 .0226960
1106.101 .0226737
1106.691 .0226519
1107.283 .0226304
1107.874 .0226115
1108.466 .0225942
1109.058 .0225840
1109.651 .0225793
1110.244 .0225791
1110.837 .0225830
1111.431 .0225912
1112.025 .0226018
1112.620 .0226133
1113.215 .0226256
1113.810 .0226422
1114.406 .0226595
1115.002 .0226777
1115.599 .0226961
1116.196 .0227152
1116.793 .0227329
1117.391 .0227474
1117.989 .0227555
1118.588 .0227598
1119.187 .0227568
1119.787 .0227465
1120.387 .0227328
1120.988 .0227187
1121.589 .0227061
1122.190 .0226946
1122.793 .0226856
1123.395 .0226820
1123.998 .0226798
1124.602 .0226825
1125.206 .0226906
1125.811 .0227072
1126.416 .0227311
1127.022 .0227602
1127.628 .0227952
1128.235 .0228372
1128.843 .0228847
1129.451 .0229369
1130.059 .0229897
1130.669 .0230420
1131.278 .0230935
1131.889 .0231403
1132.500 .0231826
1133.112 .0232230
1133.724 .0232586
1134.337 .0232932
1134.950 .0233213
1135.564 .0233458
1136.179 .0233646
1136.795 .0233822
1137.411 .0234024
1138.028 .0234231
1138.645 .0234462
1139.263 .0234754
1139.882 .0235059
1140.502 .0235500
1141.122 .0236001
1141.743 .0236719
1142.365 .0237739
1142.987 .0236410
1143.611 .0239492
1144.235 .0239918
1144.859 .0243881
1145.485 .0248906
