Measurement Sequence started on: 10-20-44-796
Integration time: 35
Scans to Average: 2 
>>>>>Begin Spectral Data<<<<<
432.953 .0268518
433.882 .0325883
434.810 .0322802
435.737 .0340907
436.662 .0359466
437.586 .0359368
438.509 .0368403
439.431 .0374554
440.351 .0379732
441.269 .0383422
442.187 .0385945
443.103 .0387775
444.018 .0388875
444.932 .0389598
445.844 .0389792
446.756 .0389466
447.666 .0388865
448.575 .0387824
449.482 .0386620
450.388 .0385314
451.294 .0384065
452.198 .0382865
453.100 .0381826
454.002 .0380956
454.902 .0380246
455.801 .0379652
456.699 .0379382
457.596 .0379317
458.492 .0379338
459.387 .0379398
460.280 .0379607
461.172 .0379782
462.064 .0379980
462.954 .0380094
463.843 .0380166
464.730 .0380219
465.617 .0380248
466.503 .0380184
467.387 .0380077
468.271 .0379900
469.153 .0379635
470.035 .0379246
470.915 .0378816
471.794 .0378247
472.673 .0377628
473.550 .0377032
474.426 .0376451
475.301 .0375870
476.175 .0375349
477.048 .0374812
477.920 .0374261
478.791 .0373656
479.661 .0372980
480.530 .0372275
481.398 .0371587
482.266 .0370943
483.132 .0370408
483.997 .0370005
484.861 .0369735
485.724 .0369544
486.587 .0369412
487.448 .0369250
488.308 .0369008
489.168 .0368677
490.026 .0368233
490.884 .0367743
491.741 .0367231
492.597 .0366724
493.452 .0366288
494.306 .0365953
495.159 .0365653
496.011 .0365371
496.862 .0365069
497.713 .0364654
498.562 .0364077
499.411 .0363385
500.259 .0362570
501.106 .0361683
501.952 .0360787
502.798 .0359911
503.642 .0359072
504.486 .0358323
505.329 .0357554
506.171 .0356780
507.012 .0355996
507.852 .0355177
508.692 .0354251
509.531 .0353313
510.369 .0352372
511.206 .0351461
512.043 .0350601
512.878 .0349798
513.713 .0348959
514.547 .0348093
515.381 .0347146
516.213 .0346061
517.045 .0344827
517.876 .0343403
518.706 .0341782
519.536 .0340103
520.365 .0338334
521.193 .0336529
522.020 .0334726
522.847 .0332910
523.673 .0331002
524.498 .0328940
525.323 .0326704
526.146 .0324306
526.969 .0321831
527.792 .0319291
528.614 .0316704
529.435 .0314270
530.255 .0312049
531.075 .0310009
531.894 .0308281
532.712 .0306816
533.530 .0305534
534.347 .0304511
535.163 .0303677
535.979 .0303056
536.794 .0302680
537.608 .0302487
538.422 .0302457
539.235 .0302547
540.048 .0302717
540.860 .0302937
541.671 .0303256
542.481 .0303674
543.292 .0304144
544.101 .0304675
544.910 .0305276
545.718 .0305909
546.526 .0306581
547.333 .0307250
548.139 .0307886
548.945 .0308537
549.750 .0309095
550.555 .0309601
551.359 .0310127
552.162 .0310657
552.965 .0311241
553.768 .0311841
554.569 .0312446
555.371 .0313063
556.171 .0313705
556.972 .0314347
557.771 .0314953
558.570 .0315558
559.369 .0316150
560.167 .0316672
560.964 .0317157
561.761 .0317582
562.558 .0317920
563.354 .0318193
564.149 .0318392
564.944 .0318521
565.738 .0318664
566.532 .0318828
567.325 .0319060
568.118 .0319370
568.910 .0319763
569.702 .0320209
570.494 .0320712
571.285 .0321248
572.075 .0321787
572.865 .0322306
573.654 .0322798
574.443 .0323259
575.232 .0323714
576.020 .0324155
576.807 .0324602
577.594 .0325072
578.381 .0325563
579.167 .0326074
579.952 .0326600
580.738 .0327125
581.522 .0327633
582.307 .0328105
583.091 .0328551
583.874 .0328933
584.657 .0329264
585.440 .0329575
586.222 .0329860
587.004 .0330133
587.785 .0330400
588.566 .0330655
589.346 .0330888
590.126 .0331082
590.906 .0331230
591.685 .0331335
592.464 .0331395
593.242 .0331427
594.020 .0331433
594.797 .0331434
595.575 .0331415
596.351 .0331374
597.128 .0331310
597.904 .0331214
598.679 .0331089
599.454 .0330945
600.229 .0330785
601.004 .0330628
601.778 .0330477
602.551 .0330343
603.325 .0330229
604.097 .0330121
604.870 .0330004
605.642 .0329874
606.414 .0329715
607.185 .0329529
607.956 .0329321
608.727 .0329107
609.497 .0328893
610.267 .0328692
611.037 .0328504
611.806 .0328326
612.575 .0328162
613.344 .0328011
614.112 .0327858
614.880 .0327706
615.647 .0327555
616.414 .0327397
617.181 .0327246
617.948 .0327098
618.714 .0326945
619.480 .0326792
620.245 .0326626
621.011 .0326440
621.775 .0326232
622.540 .0326009
623.304 .0325774
624.068 .0325539
624.832 .0325310
625.595 .0325076
626.358 .0324843
627.120 .0324611
627.883 .0324368
628.645 .0324107
629.406 .0323833
630.168 .0323544
630.929 .0323253
631.689 .0322963
632.450 .0322672
633.210 .0322399
633.970 .0322141
634.729 .0321892
635.489 .0321640
636.248 .0321380
637.006 .0321111
637.765 .0320821
638.523 .0320522
639.280 .0320205
640.038 .0319879
640.795 .0319559
641.552 .0319251
642.309 .0318958
643.065 .0318684
643.821 .0318427
644.577 .0318191
645.332 .0317975
646.088 .0317776
646.843 .0317585
647.597 .0317414
648.352 .0317258
649.106 .0317119
649.860 .0316983
650.613 .0316860
651.367 .0316744
652.120 .0316636
652.872 .0316527
653.625 .0316410
654.377 .0316289
655.129 .0316169
655.881 .0316035
656.632 .0315880
657.384 .0315705
658.135 .0315515
658.885 .0315300
659.636 .0315066
660.386 .0314814
661.136 .0314555
661.885 .0314293
662.635 .0314038
663.384 .0313781
664.133 .0313534
664.881 .0313294
665.630 .0313052
666.378 .0312816
667.126 .0312583
667.874 .0312348
668.621 .0312121
669.368 .0311911
670.115 .0311714
670.862 .0311533
671.608 .0311380
672.354 .0311245
673.100 .0311128
673.846 .0311019
674.591 .0310911
675.337 .0310804
676.082 .0310701
676.826 .0310591
677.571 .0310474
678.315 .0310358
679.059 .0310232
679.803 .0310097
680.547 .0309954
681.290 .0309796
682.033 .0309620
682.776 .0309427
683.518 .0309222
684.261 .0308994
685.003 .0308758
685.745 .0308513
686.487 .0308268
687.228 .0308027
687.969 .0307787
688.710 .0307550
689.451 .0307322
690.192 .0307106
690.932 .0306892
691.672 .0306685
692.412 .0306489
693.152 .0306294
693.891 .0306103
694.630 .0305913
695.369 .0305726
696.108 .0305534
696.846 .0305343
697.585 .0305148
698.323 .0304952
699.061 .0304752
699.798 .0304551
700.536 .0304350
701.273 .0304148
702.010 .0303942
702.746 .0303729
703.483 .0303512
704.219 .0303295
704.955 .0303072
705.691 .0302850
706.427 .0302630
707.162 .0302418
707.897 .0302212
708.632 .0302017
709.367 .0301827
710.101 .0301646
710.835 .0301470
711.569 .0301297
712.303 .0301128
713.037 .0300967
713.770 .0300808
714.503 .0300649
715.236 .0300492
715.969 .0300333
716.702 .0300170
717.434 .0300004
718.166 .0299828
718.898 .0299651
719.629 .0299470
720.361 .0299288
721.092 .0299100
721.823 .0298916
722.554 .0298732
723.284 .0298549
724.014 .0298359
724.744 .0298159
725.474 .0297943
726.204 .0297715
726.933 .0297476
727.662 .0297227
728.391 .0296976
729.120 .0296729
729.849 .0296487
730.577 .0296259
731.305 .0296036
732.033 .0295822
732.760 .0295611
733.488 .0295407
734.215 .0295197
734.942 .0294982
735.669 .0294763
736.395 .0294545
737.122 .0294330
737.848 .0294118
738.573 .0293906
739.299 .0293698
740.024 .0293492
740.750 .0293286
741.474 .0293074
742.199 .0292864
742.924 .0292654
743.648 .0292448
744.372 .0292247
745.096 .0292057
745.819 .0291878
746.543 .0291708
747.266 .0291550
747.989 .0291402
748.711 .0291265
749.434 .0291134
750.156 .0291014
750.878 .0290912
751.599 .0290830
752.321 .0290765
753.042 .0290721
753.763 .0290697
754.484 .0290690
755.205 .0290687
755.925 .0290688
756.645 .0290677
757.365 .0290651
758.085 .0290604
758.804 .0290539
759.523 .0290452
760.242 .0290347
760.961 .0290220
761.679 .0290080
762.397 .0289925
763.115 .0289758
763.833 .0289578
764.551 .0289392
765.268 .0289192
765.985 .0288977
766.702 .0288747
767.418 .0288511
768.134 .0288267
768.850 .0288031
769.566 .0287801
770.282 .0287583
770.997 .0287380
771.712 .0287197
772.427 .0287031
773.142 .0286883
773.856 .0286745
774.570 .0286610
775.284 .0286474
775.998 .0286337
776.711 .0286196
777.424 .0286055
778.137 .0285921
778.849 .0285788
779.562 .0285656
780.274 .0285524
780.986 .0285387
781.697 .0285252
782.409 .0285119
783.120 .0284988
783.831 .0284859
784.541 .0284739
785.252 .0284626
785.962 .0284521
786.671 .0284425
787.381 .0284336
788.090 .0284251
788.799 .0284169
789.508 .0284085
790.217 .0283997
790.925 .0283910
791.633 .0283825
792.341 .0283742
793.048 .0283657
793.755 .0283564
794.462 .0283461
795.169 .0283342
795.875 .0283208
796.581 .0283060
797.287 .0282902
797.993 .0282741
798.698 .0282576
799.403 .0282412
800.108 .0282247
800.812 .0282086
801.517 .0281924
802.221 .0281755
802.924 .0281583
803.628 .0281406
804.331 .0281229
805.034 .0281064
805.736 .0280914
806.439 .0280784
807.141 .0280675
807.843 .0280586
808.544 .0280504
809.245 .0280426
809.946 .0280345
810.647 .0280253
811.347 .0280154
812.047 .0280044
812.747 .0279929
813.447 .0279813
814.146 .0279704
814.845 .0279600
815.543 .0279502
816.242 .0279409
816.940 .0279315
817.638 .0279217
818.335 .0279115
819.032 .0279006
819.729 .0278895
820.426 .0278780
821.122 .0278660
821.818 .0278529
822.514 .0278390
823.209 .0278239
823.905 .0278078
824.599 .0277904
825.294 .0277722
825.988 .0277534
826.682 .0277344
827.376 .0277157
828.069 .0276969
828.762 .0276780
829.455 .0276587
830.147 .0276389
830.840 .0276192
831.531 .0275994
832.223 .0275806
832.914 .0275631
833.605 .0275476
834.296 .0275348
834.986 .0275240
835.676 .0275153
836.366 .0275085
837.055 .0275021
837.744 .0274957
838.433 .0274881
839.121 .0274796
839.809 .0274697
840.497 .0274587
841.185 .0274469
841.872 .0274341
842.559 .0274208
843.245 .0274070
843.932 .0273926
844.617 .0273780
845.303 .0273628
845.988 .0273475
846.673 .0273323
847.358 .0273175
848.042 .0273032
848.726 .0272897
849.410 .0272767
850.093 .0272644
850.776 .0272522
851.459 .0272402
852.141 .0272283
852.823 .0272164
853.505 .0272054
854.186 .0271947
854.867 .0271846
855.548 .0271748
856.228 .0271651
856.908 .0271555
857.588 .0271453
858.267 .0271346
858.946 .0271228
859.625 .0271099
860.303 .0270963
860.981 .0270822
861.659 .0270682
862.336 .0270544
863.013 .0270410
863.690 .0270286
864.366 .0270173
865.042 .0270062
865.718 .0269954
866.393 .0269851
867.068 .0269748
867.743 .0269641
868.417 .0269527
869.091 .0269408
869.765 .0269289
870.438 .0269169
871.111 .0269045
871.783 .0268921
872.456 .0268802
873.127 .0268687
873.799 .0268574
874.470 .0268465
875.141 .0268356
875.811 .0268246
876.481 .0268135
877.151 .0268023
877.820 .0267906
878.489 .0267791
879.158 .0267681
879.826 .0267580
880.494 .0267489
881.162 .0267406
881.829 .0267334
882.496 .0267269
883.163 .0267204
883.829 .0267134
884.495 .0267058
885.160 .0266981
885.825 .0266902
886.490 .0266824
887.154 .0266753
887.818 .0266690
888.482 .0266636
889.145 .0266589
889.808 .0266547
890.471 .0266508
891.133 .0266471
891.795 .0266430
892.456 .0266387
893.117 .0266341
893.778 .0266302
894.439 .0266272
895.099 .0266253
895.758 .0266245
896.417 .0266246
897.076 .0266246
897.735 .0266241
898.393 .0266228
899.051 .0266202
899.708 .0266156
900.365 .0266093
901.022 .0266012
901.678 .0265921
902.334 .0265823
902.990 .0265722
903.645 .0265621
904.300 .0265528
904.954 .0265436
905.608 .0265343
906.262 .0265253
906.915 .0265164
907.568 .0265070
908.221 .0264976
908.873 .0264878
909.525 .0264776
910.176 .0264677
910.828 .0264582
911.478 .0264492
912.129 .0264407
912.778 .0264326
913.428 .0264242
914.077 .0264156
914.726 .0264064
915.375 .0263960
916.023 .0263848
916.670 .0263731
917.318 .0263608
917.964 .0263481
918.611 .0263353
919.257 .0263228
919.903 .0263109
920.548 .0262997
921.193 .0262891
921.838 .0262794
922.482 .0262702
923.126 .0262616
923.770 .0262531
924.413 .0262447
925.056 .0262363
925.698 .0262280
926.340 .0262196
926.982 .0262109
927.623 .0262021
928.264 .0261932
928.904 .0261841
929.544 .0261755
930.184 .0261663
930.823 .0261571
931.462 .0261473
932.101 .0261369
932.739 .0261251
933.377 .0261120
934.014 .0260976
934.651 .0260821
935.288 .0260661
935.924 .0260499
936.560 .0260338
937.196 .0260191
937.831 .0260050
938.466 .0259913
939.100 .0259780
939.734 .0259646
940.368 .0259508
941.001 .0259371
941.634 .0259228
942.266 .0259084
942.899 .0258937
943.530 .0258792
944.162 .0258644
944.793 .0258495
945.423 .0258337
946.053 .0258169
946.683 .0257991
947.313 .0257801
947.942 .0257592
948.571 .0257374
949.199 .0257148
949.827 .0256917
950.455 .0256687
951.082 .0256463
951.709 .0256250
952.335 .0256048
952.961 .0255854
953.587 .0255670
954.212 .0255491
954.837 .0255319
955.462 .0255153
956.086 .0254995
956.710 .0254845
957.334 .0254701
957.957 .0254570
958.579 .0254450
959.202 .0254342
959.824 .0254243
960.445 .0254146
961.067 .0254047
961.688 .0253943
962.308 .0253826
962.928 .0253697
963.548 .0253555
964.168 .0253401
964.787 .0253239
965.406 .0253074
966.024 .0252914
966.642 .0252760
967.260 .0252616
967.877 .0252481
968.494 .0252346
969.110 .0252209
969.727 .0252063
970.342 .0251913
970.958 .0251758
971.573 .0251606
972.188 .0251462
972.802 .0251338
973.416 .0251234
974.030 .0251155
974.643 .0251098
975.256 .0251065
975.869 .0251050
976.481 .0251039
977.093 .0251038
977.705 .0251036
978.316 .0251032
978.927 .0251026
979.538 .0251013
980.148 .0250993
980.758 .0250961
981.367 .0250915
981.977 .0250854
982.586 .0250781
983.194 .0250705
983.802 .0250623
984.410 .0250540
985.018 .0250456
985.625 .0250369
986.232 .0250277
986.838 .0250187
987.445 .0250087
988.050 .0249981
988.656 .0249873
989.261 .0249760
989.866 .0249644
990.471 .0249531
991.075 .0249427
991.679 .0249332
992.282 .0249251
992.886 .0249173
993.489 .0249091
994.091 .0249013
994.694 .0248934
995.296 .0248854
995.897 .0248774
996.499 .0248699
997.100 .0248628
997.701 .0248569
998.301 .0248524
998.901 .0248490
999.501 .0248483
1000.101 .0248504
1000.700 .0248543
1001.299 .0248600
1001.898 .0248673
1002.496 .0248759
1003.094 .0248858
1003.692 .0248960
1004.289 .0249051
1004.887 .0249131
1005.484 .0249193
1006.080 .0249233
1006.677 .0249243
1007.273 .0249233
1007.868 .0249200
1008.464 .0249151
1009.059 .0249091
1009.654 .0249020
1010.249 .0248947
1010.843 .0248887
1011.437 .0248831
1012.031 .0248774
1012.625 .0248714
1013.218 .0248650
1013.811 .0248577
1014.404 .0248500
1014.997 .0248423
1015.589 .0248350
1016.181 .0248285
1016.773 .0248237
1017.365 .0248199
1017.956 .0248175
1018.547 .0248156
1019.138 .0248140
1019.728 .0248123
1020.319 .0248098
1020.909 .0248059
1021.499 .0248006
1022.088 .0247946
1022.678 .0247874
1023.267 .0247788
1023.856 .0247701
1024.445 .0247616
1025.033 .0247536
1025.621 .0247472
1026.209 .0247428
1026.797 .0247400
1027.385 .0247386
1027.972 .0247384
1028.560 .0247390
1029.147 .0247397
1029.734 .0247407
1030.320 .0247419
1030.907 .0247438
1031.493 .0247469
1032.079 .0247506
1032.665 .0247562
1033.250 .0247631
1033.836 .0247699
1034.421 .0247765
1035.006 .0247817
1035.591 .0247851
1036.176 .0247853
1036.761 .0247832
1037.345 .0247794
1037.929 .0247739
1038.514 .0247671
1039.097 .0247596
1039.681 .0247516
1040.265 .0247436
1040.848 .0247347
1041.432 .0247253
1042.015 .0247161
1042.598 .0247066
1043.181 .0246972
1043.764 .0246892
1044.346 .0246827
1044.929 .0246782
1045.511 .0246748
1046.094 .0246735
1046.676 .0246729
1047.258 .0246728
1047.840 .0246738
1048.422 .0246751
1049.003 .0246777
1049.585 .0246805
1050.166 .0246838
1050.748 .0246874
1051.329 .0246907
1051.910 .0246939
1052.491 .0246959
1053.072 .0246968
1053.653 .0246965
1054.234 .0246945
1054.815 .0246907
1055.396 .0246866
1055.976 .0246816
1056.557 .0246770
1057.138 .0246737
1057.718 .0246709
1058.298 .0246693
1058.879 .0246686
1059.459 .0246682
1060.039 .0246671
1060.620 .0246645
1061.200 .0246610
1061.780 .0246540
1062.360 .0246449
1062.940 .0246332
1063.520 .0246199
1064.101 .0246059
1064.681 .0245905
1065.261 .0245739
1065.841 .0245564
1066.421 .0245382
1067.001 .0245191
1067.581 .0244998
1068.161 .0244822
1068.741 .0244669
1069.321 .0244536
1069.901 .0244431
1070.482 .0244361
1071.062 .0244319
1071.642 .0244311
1072.222 .0244330
1072.803 .0244368
1073.383 .0244413
1073.963 .0244470
1074.544 .0244526
1075.124 .0244578
1075.705 .0244634
1076.286 .0244680
1076.866 .0244713
1077.447 .0244730
1078.028 .0244696
1078.609 .0244622
1079.190 .0244520
1079.771 .0244382
1080.352 .0244195
1080.934 .0243991
1081.515 .0243780
1082.097 .0243579
1082.679 .0243408
1083.260 .0243290
1083.842 .0243226
1084.424 .0243245
1085.007 .0243315
1085.589 .0243432
1086.172 .0243596
1086.754 .0243793
1087.337 .0244000
1087.920 .0244233
1088.503 .0244461
1089.087 .0244670
1089.670 .0244861
1090.254 .0245050
1090.838 .0245202
1091.422 .0245327
1092.006 .0245403
1092.590 .0245439
1093.175 .0245413
1093.760 .0245318
1094.345 .0245149
1094.930 .0244937
1095.516 .0244691
1096.102 .0244404
1096.688 .0244095
1097.274 .0243788
1097.860 .0243487
1098.447 .0243193
1099.034 .0242913
1099.622 .0242658
1100.209 .0242425
1100.797 .0242222
1101.385 .0242039
1101.973 .0241899
1102.562 .0241802
1103.151 .0241747
1103.740 .0241746
1104.330 .0241787
1104.920 .0241870
1105.510 .0241992
1106.101 .0242135
1106.691 .0242294
1107.283 .0242459
1107.874 .0242614
1108.466 .0242766
1109.058 .0242913
1109.651 .0243060
1110.244 .0243220
1110.837 .0243399
1111.431 .0243597
1112.025 .0243802
1112.620 .0244014
1113.215 .0244216
1113.810 .0244401
1114.406 .0244579
1115.002 .0244706
1115.599 .0244803
1116.196 .0244876
1116.793 .0244915
1117.391 .0244939
1117.989 .0244985
1118.588 .0245040
1119.187 .0245121
1119.787 .0245201
1120.387 .0245263
1120.988 .0245305
1121.589 .0245340
1122.190 .0245320
1122.793 .0245244
1123.395 .0245123
1123.998 .0244967
1124.602 .0244777
1125.206 .0244617
1125.811 .0244473
1126.416 .0244351
1127.022 .0244255
1127.628 .0244167
1128.235 .0244058
1128.843 .0243953
1129.451 .0243867
1130.059 .0243807
1130.669 .0243806
1131.278 .0243897
1131.889 .0244071
1132.500 .0244376
1133.112 .0244805
1133.724 .0245338
1134.337 .0245935
1134.950 .0246560
1135.564 .0247212
1136.179 .0247870
1136.795 .0248610
1137.411 .0249439
1138.028 .0250354
1138.645 .0251418
1139.263 .0252592
1139.882 .0253810
1140.502 .0255074
1141.122 .0256379
1141.743 .0257809
1142.365 .0259355
1142.987 .0259217
1143.611 .0261256
1144.235 .0263125
1144.859 .0267507
1145.485 .0270555
