Measurement Sequence started on: 10-20-44-796
Integration time: 35
Scans to Average: 2 
>>>>>Begin Spectral Data<<<<<
432.953 .0388093
433.882 .0308680
434.810 .0344644
435.737 .0337690
436.662 .0323122
437.586 .0332920
438.509 .0330448
439.431 .0330200
440.351 .0328905
441.269 .0327913
442.187 .0327341
443.103 .0326542
444.018 .0326000
444.932 .0325600
445.844 .0325378
446.756 .0325296
447.666 .0325230
448.575 .0325320
449.482 .0325516
450.388 .0325728
451.294 .0325898
452.198 .0325955
453.100 .0325874
454.002 .0325857
454.902 .0325730
455.801 .0325523
456.699 .0325223
457.596 .0324909
458.492 .0324520
459.387 .0324041
460.280 .0323474
461.172 .0322827
462.064 .0322087
462.954 .0321319
463.843 .0320551
464.730 .0319862
465.617 .0319254
466.503 .0318816
467.387 .0318469
468.271 .0318183
469.153 .0317965
470.035 .0317767
470.915 .0317607
471.794 .0317442
472.673 .0317262
473.550 .0317093
474.426 .0316980
475.301 .0316923
476.175 .0316875
477.048 .0316883
477.920 .0316938
478.791 .0317006
479.661 .0317083
480.530 .0317150
481.398 .0317200
482.266 .0317272
483.132 .0317378
483.997 .0317490
484.861 .0317639
485.724 .0317824
486.587 .0318005
487.448 .0318143
488.308 .0318218
489.168 .0318267
490.026 .0318232
490.884 .0318167
491.741 .0318049
492.597 .0317913
493.452 .0317774
494.306 .0317602
495.159 .0317398
496.011 .0317182
496.862 .0316906
497.713 .0316529
498.562 .0316024
499.411 .0315428
500.259 .0314720
501.106 .0313968
501.952 .0313176
502.798 .0312408
503.642 .0311613
504.486 .0310830
505.329 .0310018
506.171 .0309161
507.012 .0308238
507.852 .0307180
508.692 .0306012
509.531 .0304715
510.369 .0303306
511.206 .0301845
512.043 .0300322
512.878 .0298825
513.713 .0297335
514.547 .0295831
515.381 .0294355
516.213 .0292938
517.045 .0291504
517.876 .0290058
518.706 .0288631
519.536 .0287143
520.365 .0285651
521.193 .0284096
522.020 .0282558
522.847 .0280985
523.673 .0279457
524.498 .0277856
525.323 .0276195
526.146 .0274638
526.969 .0273056
527.792 .0271412
528.614 .0269815
529.435 .0268166
530.255 .0266560
531.075 .0264950
531.894 .0263424
532.712 .0261870
533.530 .0260473
534.347 .0259182
535.163 .0258016
535.979 .0257110
536.794 .0256480
537.608 .0256053
538.422 .0255934
539.235 .0255982
540.048 .0256087
540.860 .0256272
541.671 .0256513
542.481 .0256655
543.292 .0256794
544.101 .0256939
544.910 .0257188
545.718 .0257600
546.526 .0258274
547.333 .0259094
548.139 .0260070
548.945 .0261148
549.750 .0262156
550.555 .0263079
551.359 .0263850
552.162 .0264405
552.965 .0264806
553.768 .0265113
554.569 .0265416
555.371 .0265781
556.171 .0266303
556.972 .0266941
557.771 .0267640
558.570 .0268329
559.369 .0268941
560.167 .0269461
560.964 .0269884
561.761 .0270247
562.558 .0270562
563.354 .0270928
564.149 .0271364
564.944 .0271917
565.738 .0272624
566.532 .0273431
567.325 .0274307
568.118 .0275198
568.910 .0276079
569.702 .0276944
570.494 .0277792
571.285 .0278653
572.075 .0279544
572.865 .0280495
573.654 .0281472
574.443 .0282471
575.232 .0283474
576.020 .0284466
576.807 .0285398
577.594 .0286279
578.381 .0287131
579.167 .0287936
579.952 .0288725
580.738 .0289511
581.522 .0290298
582.307 .0291077
583.091 .0291799
583.874 .0292454
584.657 .0293026
585.440 .0293520
586.222 .0293919
587.004 .0294251
587.785 .0294574
588.566 .0294867
589.346 .0295128
590.126 .0295358
590.906 .0295561
591.685 .0295726
592.464 .0295837
593.242 .0295891
594.020 .0295900
594.797 .0295874
595.575 .0295820
596.351 .0295742
597.128 .0295669
597.904 .0295593
598.679 .0295524
599.454 .0295450
600.229 .0295372
601.004 .0295282
601.778 .0295184
602.551 .0295083
603.325 .0294975
604.097 .0294874
604.870 .0294777
605.642 .0294690
606.414 .0294618
607.185 .0294547
607.956 .0294485
608.727 .0294421
609.497 .0294362
610.267 .0294294
611.037 .0294218
611.806 .0294149
612.575 .0294078
613.344 .0294011
614.112 .0293937
614.880 .0293860
615.647 .0293775
616.414 .0293684
617.181 .0293571
617.948 .0293444
618.714 .0293301
619.480 .0293151
620.245 .0293003
621.011 .0292851
621.775 .0292711
622.540 .0292590
623.304 .0292475
624.068 .0292373
624.832 .0292261
625.595 .0292149
626.358 .0292023
627.120 .0291896
627.883 .0291765
628.645 .0291636
629.406 .0291518
630.168 .0291421
630.929 .0291334
631.689 .0291271
632.450 .0291211
633.210 .0291150
633.970 .0291086
634.729 .0291009
635.489 .0290905
636.248 .0290784
637.006 .0290646
637.765 .0290490
638.523 .0290309
639.280 .0290121
640.038 .0289911
640.795 .0289691
641.552 .0289468
642.309 .0289239
643.065 .0289006
643.821 .0288778
644.577 .0288544
645.332 .0288311
646.088 .0288078
646.843 .0287839
647.597 .0287598
648.352 .0287362
649.106 .0287138
649.860 .0286932
650.613 .0286742
651.367 .0286587
652.120 .0286449
652.872 .0286334
653.625 .0286230
654.377 .0286134
655.129 .0286040
655.881 .0285954
656.632 .0285867
657.384 .0285785
658.135 .0285699
658.885 .0285621
659.636 .0285544
660.386 .0285473
661.136 .0285401
661.885 .0285329
662.635 .0285252
663.384 .0285175
664.133 .0285085
664.881 .0284990
665.630 .0284891
666.378 .0284785
667.126 .0284668
667.874 .0284547
668.621 .0284417
669.368 .0284280
670.115 .0284138
670.862 .0283994
671.608 .0283852
672.354 .0283723
673.100 .0283608
673.846 .0283511
674.591 .0283439
675.337 .0283389
676.082 .0283352
676.826 .0283331
677.571 .0283309
678.315 .0283283
679.059 .0283246
679.803 .0283195
680.547 .0283131
681.290 .0283052
682.033 .0282956
682.776 .0282844
683.518 .0282726
684.261 .0282592
685.003 .0282445
685.745 .0282280
686.487 .0282093
687.228 .0281890
687.969 .0281665
688.710 .0281422
689.451 .0281171
690.192 .0280927
690.932 .0280687
691.672 .0280460
692.412 .0280252
693.152 .0280053
693.891 .0279878
694.630 .0279717
695.369 .0279568
696.108 .0279430
696.846 .0279304
697.585 .0279182
698.323 .0279066
699.061 .0278961
699.798 .0278845
700.536 .0278732
701.273 .0278623
702.010 .0278502
702.746 .0278373
703.483 .0278245
704.219 .0278118
704.955 .0277988
705.691 .0277856
706.427 .0277707
707.162 .0277553
707.897 .0277396
708.632 .0277229
709.367 .0277055
710.101 .0276879
710.835 .0276698
711.569 .0276518
712.303 .0276347
713.037 .0276186
713.770 .0276029
714.503 .0275885
715.236 .0275741
715.969 .0275602
716.702 .0275464
717.434 .0275333
718.166 .0275210
718.898 .0275099
719.629 .0274990
720.361 .0274886
721.092 .0274787
721.823 .0274684
722.554 .0274571
723.284 .0274448
724.014 .0274300
724.744 .0274128
725.474 .0273930
726.204 .0273716
726.933 .0273485
727.662 .0273245
728.391 .0272999
729.120 .0272746
729.849 .0272494
730.577 .0272244
731.305 .0271994
732.033 .0271753
732.760 .0271516
733.488 .0271284
734.215 .0271055
734.942 .0270839
735.669 .0270632
736.395 .0270443
737.122 .0270278
737.848 .0270126
738.573 .0269993
739.299 .0269876
740.024 .0269769
740.750 .0269664
741.474 .0269552
742.199 .0269430
742.924 .0269290
743.648 .0269136
744.372 .0268974
745.096 .0268808
745.819 .0268648
746.543 .0268492
747.266 .0268343
747.989 .0268203
748.711 .0268065
749.434 .0267924
750.156 .0267779
750.878 .0267631
751.599 .0267487
752.321 .0267349
753.042 .0267225
753.763 .0267121
754.484 .0267035
755.205 .0266969
755.925 .0266917
756.645 .0266866
757.365 .0266818
758.085 .0266763
758.804 .0266696
759.523 .0266613
760.242 .0266515
760.961 .0266401
761.679 .0266276
762.397 .0266136
763.115 .0265985
763.833 .0265822
764.551 .0265647
765.268 .0265457
765.985 .0265259
766.702 .0265054
767.418 .0264840
768.134 .0264618
768.850 .0264396
769.566 .0264170
770.282 .0263938
770.997 .0263709
771.712 .0263478
772.427 .0263256
773.142 .0263045
773.856 .0262843
774.570 .0262663
775.284 .0262495
775.998 .0262341
776.711 .0262198
777.424 .0262054
778.137 .0261910
778.849 .0261753
779.562 .0261589
780.274 .0261420
780.986 .0261245
781.697 .0261077
782.409 .0260921
783.120 .0260785
783.831 .0260674
784.541 .0260581
785.252 .0260508
785.962 .0260444
786.671 .0260380
787.381 .0260315
788.090 .0260239
788.799 .0260157
789.508 .0260071
790.217 .0259983
790.925 .0259904
791.633 .0259837
792.341 .0259787
793.048 .0259742
793.755 .0259697
794.462 .0259648
795.169 .0259583
795.875 .0259500
796.581 .0259401
797.287 .0259288
797.993 .0259166
798.698 .0259039
799.403 .0258913
800.108 .0258792
800.812 .0258679
801.517 .0258569
802.221 .0258462
802.924 .0258356
803.628 .0258249
804.331 .0258138
805.034 .0258031
805.736 .0257923
806.439 .0257815
807.141 .0257711
807.843 .0257614
808.544 .0257523
809.245 .0257431
809.946 .0257339
810.647 .0257248
811.347 .0257153
812.047 .0257049
812.747 .0256935
813.447 .0256822
814.146 .0256698
814.845 .0256568
815.543 .0256435
816.242 .0256301
816.940 .0256167
817.638 .0256036
818.335 .0255912
819.032 .0255792
819.729 .0255673
820.426 .0255555
821.122 .0255431
821.818 .0255309
822.514 .0255176
823.209 .0255037
823.905 .0254897
824.599 .0254760
825.294 .0254622
825.988 .0254495
826.682 .0254374
827.376 .0254250
828.069 .0254120
828.762 .0253979
829.455 .0253815
830.147 .0253633
830.840 .0253436
831.531 .0253228
832.223 .0253021
832.914 .0252819
833.605 .0252626
834.296 .0252456
834.986 .0252310
835.676 .0252179
836.366 .0252061
837.055 .0251960
837.744 .0251865
838.433 .0251772
839.121 .0251687
839.809 .0251600
840.497 .0251518
841.185 .0251444
841.872 .0251373
842.559 .0251310
843.245 .0251257
843.932 .0251213
844.617 .0251176
845.303 .0251138
845.988 .0251088
846.673 .0251021
847.358 .0250939
848.042 .0250838
848.726 .0250713
849.410 .0250577
850.093 .0250434
850.776 .0250292
851.459 .0250161
852.141 .0250042
852.823 .0249938
853.505 .0249846
854.186 .0249754
854.867 .0249657
855.548 .0249543
856.228 .0249412
856.908 .0249262
857.588 .0249101
858.267 .0248934
858.946 .0248765
859.625 .0248605
860.303 .0248458
860.981 .0248325
861.659 .0248200
862.336 .0248077
863.013 .0247951
863.690 .0247817
864.366 .0247668
865.042 .0247506
865.718 .0247337
866.393 .0247170
867.068 .0247012
867.743 .0246871
868.417 .0246752
869.091 .0246654
869.765 .0246575
870.438 .0246507
871.111 .0246436
871.783 .0246354
872.456 .0246252
873.127 .0246139
873.799 .0246013
874.470 .0245877
875.141 .0245737
875.811 .0245604
876.481 .0245472
877.151 .0245342
877.820 .0245205
878.489 .0245060
879.158 .0244907
879.826 .0244741
880.494 .0244560
881.162 .0244374
881.829 .0244188
882.496 .0244002
883.163 .0243817
883.829 .0243641
884.495 .0243469
885.160 .0243312
885.825 .0243174
886.490 .0243050
887.154 .0242949
887.818 .0242873
888.482 .0242809
889.145 .0242759
889.808 .0242714
890.471 .0242663
891.133 .0242608
891.795 .0242549
892.456 .0242478
893.117 .0242409
893.778 .0242349
894.439 .0242300
895.099 .0242258
895.758 .0242222
896.417 .0242180
897.076 .0242124
897.735 .0242052
898.393 .0241956
899.051 .0241836
899.708 .0241705
900.365 .0241568
901.022 .0241437
901.678 .0241322
902.334 .0241224
902.990 .0241143
903.645 .0241076
904.300 .0241012
904.954 .0240948
905.608 .0240875
906.262 .0240797
906.915 .0240711
907.568 .0240619
908.221 .0240528
908.873 .0240437
909.525 .0240349
910.176 .0240268
910.828 .0240194
911.478 .0240128
912.129 .0240059
912.778 .0239986
913.428 .0239916
914.077 .0239844
914.726 .0239775
915.375 .0239698
916.023 .0239618
916.670 .0239538
917.318 .0239453
917.964 .0239357
918.611 .0239254
919.257 .0239148
919.903 .0239045
920.548 .0238938
921.193 .0238837
921.838 .0238751
922.482 .0238681
923.126 .0238625
923.770 .0238582
924.413 .0238537
925.056 .0238487
925.698 .0238431
926.340 .0238372
926.982 .0238305
927.623 .0238233
928.264 .0238168
928.904 .0238105
929.544 .0238051
930.184 .0237999
930.823 .0237936
931.462 .0237872
932.101 .0237796
932.739 .0237694
933.377 .0237564
934.014 .0237420
934.651 .0237259
935.288 .0237087
935.924 .0236916
936.560 .0236746
937.196 .0236580
937.831 .0236421
938.466 .0236267
939.100 .0236116
939.734 .0235976
940.368 .0235837
941.001 .0235701
941.634 .0235582
942.266 .0235469
942.899 .0235362
943.530 .0235267
944.162 .0235182
944.793 .0235095
945.423 .0235006
946.053 .0234913
946.683 .0234805
947.313 .0234691
947.942 .0234563
948.571 .0234423
949.199 .0234280
949.827 .0234132
950.455 .0233983
951.082 .0233842
951.709 .0233711
952.335 .0233585
952.961 .0233461
953.587 .0233334
954.212 .0233192
954.837 .0233033
955.462 .0232852
956.086 .0232656
956.710 .0232458
957.334 .0232264
957.957 .0232079
958.579 .0231922
959.202 .0231792
959.824 .0231681
960.445 .0231589
961.067 .0231501
961.688 .0231422
962.308 .0231343
962.928 .0231264
963.548 .0231185
964.168 .0231110
964.787 .0231046
965.406 .0230987
966.024 .0230942
966.642 .0230906
967.260 .0230876
967.877 .0230853
968.494 .0230827
969.110 .0230796
969.727 .0230757
970.342 .0230715
970.958 .0230667
971.573 .0230616
972.188 .0230560
972.802 .0230505
973.416 .0230458
974.030 .0230416
974.643 .0230383
975.256 .0230363
975.869 .0230365
976.481 .0230382
977.093 .0230414
977.705 .0230459
978.316 .0230514
978.927 .0230578
979.538 .0230640
980.148 .0230693
980.758 .0230730
981.367 .0230756
981.977 .0230771
982.586 .0230777
983.194 .0230778
983.802 .0230774
984.410 .0230772
985.018 .0230775
985.625 .0230773
986.232 .0230768
986.838 .0230759
987.445 .0230746
988.050 .0230716
988.656 .0230674
989.261 .0230615
989.866 .0230552
990.471 .0230493
991.075 .0230437
991.679 .0230383
992.282 .0230342
992.886 .0230306
993.489 .0230269
994.091 .0230225
994.694 .0230173
995.296 .0230108
995.897 .0230038
996.499 .0229964
997.100 .0229897
997.701 .0229845
998.301 .0229814
998.901 .0229805
999.501 .0229814
1000.101 .0229826
1000.700 .0229836
1001.299 .0229841
1001.898 .0229840
1002.496 .0229832
1003.094 .0229813
1003.692 .0229793
1004.289 .0229782
1004.887 .0229772
1005.484 .0229760
1006.080 .0229743
1006.677 .0229715
1007.273 .0229664
1007.868 .0229588
1008.464 .0229491
1009.059 .0229375
1009.654 .0229266
1010.249 .0229171
1010.843 .0229100
1011.437 .0229066
1012.031 .0229059
1012.625 .0229074
1013.218 .0229109
1013.811 .0229151
1014.404 .0229197
1014.997 .0229246
1015.589 .0229301
1016.181 .0229362
1016.773 .0229432
1017.365 .0229509
1017.956 .0229591
1018.547 .0229676
1019.138 .0229754
1019.728 .0229811
1020.319 .0229846
1020.909 .0229852
1021.499 .0229828
1022.088 .0229777
1022.678 .0229700
1023.267 .0229603
1023.856 .0229495
1024.445 .0229377
1025.033 .0229261
1025.621 .0229153
1026.209 .0229048
1026.797 .0228949
1027.385 .0228858
1027.972 .0228775
1028.560 .0228708
1029.147 .0228662
1029.734 .0228638
1030.320 .0228635
1030.907 .0228655
1031.493 .0228695
1032.079 .0228749
1032.665 .0228815
1033.250 .0228878
1033.836 .0228932
1034.421 .0228978
1035.006 .0229002
1035.591 .0229013
1036.176 .0229018
1036.761 .0229015
1037.345 .0229002
1037.929 .0228978
1038.514 .0228942
1039.097 .0228896
1039.681 .0228843
1040.265 .0228773
1040.848 .0228682
1041.432 .0228572
1042.015 .0228447
1042.598 .0228314
1043.181 .0228187
1043.764 .0228066
1044.346 .0227954
1044.929 .0227856
1045.511 .0227780
1046.094 .0227719
1046.676 .0227690
1047.258 .0227686
1047.840 .0227709
1048.422 .0227743
1049.003 .0227781
1049.585 .0227811
1050.166 .0227850
1050.748 .0227886
1051.329 .0227923
1051.910 .0227959
1052.491 .0228002
1053.072 .0228041
1053.653 .0228093
1054.234 .0228145
1054.815 .0228198
1055.396 .0228241
1055.976 .0228274
1056.557 .0228277
1057.138 .0228268
1057.718 .0228231
1058.298 .0228160
1058.879 .0228057
1059.459 .0227933
1060.039 .0227779
1060.620 .0227598
1061.200 .0227413
1061.780 .0227233
1062.360 .0227053
1062.940 .0226898
1063.520 .0226749
1064.101 .0226610
1064.681 .0226470
1065.261 .0226313
1065.841 .0226140
1066.421 .0225961
1067.001 .0225785
1067.581 .0225603
1068.161 .0225439
1068.741 .0225315
1069.321 .0225235
1069.901 .0225209
1070.482 .0225261
1071.062 .0225355
1071.642 .0225475
1072.222 .0225614
1072.803 .0225732
1073.383 .0225825
1073.963 .0225875
1074.544 .0225884
1075.124 .0225866
1075.705 .0225821
1076.286 .0225757
1076.866 .0225690
1077.447 .0225658
1078.028 .0225655
1078.609 .0225645
1079.190 .0225642
1079.771 .0225620
1080.352 .0225570
1080.934 .0225481
1081.515 .0225338
1082.097 .0225162
1082.679 .0224971
1083.260 .0224753
1083.842 .0224543
1084.424 .0224369
1085.007 .0224225
1085.589 .0224111
1086.172 .0224023
1086.754 .0223940
1087.337 .0223850
1087.920 .0223765
1088.503 .0223692
1089.087 .0223617
1089.670 .0223553
1090.254 .0223481
1090.838 .0223419
1091.422 .0223392
1092.006 .0223355
1092.590 .0223318
1093.175 .0223293
1093.760 .0223292
1094.345 .0223285
1094.930 .0223277
1095.516 .0223286
1096.102 .0223316
1096.688 .0223359
1097.274 .0223412
1097.860 .0223441
1098.447 .0223463
1099.034 .0223466
1099.622 .0223440
1100.209 .0223380
1100.797 .0223328
1101.385 .0223248
1101.973 .0223194
1102.562 .0223162
1103.151 .0223186
1103.740 .0223228
1104.330 .0223316
1104.920 .0223427
1105.510 .0223497
1106.101 .0223498
1106.691 .0223422
1107.283 .0223262
1107.874 .0223047
1108.466 .0222753
1109.058 .0222431
1109.651 .0222111
1110.244 .0221842
1110.837 .0221580
1111.431 .0221359
1112.025 .0221166
1112.620 .0220979
1113.215 .0220763
1113.810 .0220511
1114.406 .0220251
1115.002 .0219977
1115.599 .0219745
1116.196 .0219570
1116.793 .0219466
1117.391 .0219451
1117.989 .0219483
1118.588 .0219592
1119.187 .0219725
1119.787 .0219826
1120.387 .0219888
1120.988 .0219910
1121.589 .0219921
1122.190 .0219938
1122.793 .0220020
1123.395 .0220182
1123.998 .0220451
1124.602 .0220806
1125.206 .0221269
1125.811 .0221804
1126.416 .0222380
1127.022 .0222955
1127.628 .0223493
1128.235 .0223998
1128.843 .0224460
1129.451 .0224897
1130.059 .0225370
1130.669 .0225860
1131.278 .0226396
1131.889 .0226939
1132.500 .0227472
1133.112 .0227963
1133.724 .0228354
1134.337 .0228689
1134.950 .0228875
1135.564 .0228914
1136.179 .0228875
1136.795 .0228782
1137.411 .0228714
1138.028 .0228687
1138.645 .0228743
1139.263 .0228880
1139.882 .0229036
1140.502 .0229269
1141.122 .0229526
1141.743 .0229902
1142.365 .0230377
1142.987 .0228829
1143.611 .0230967
1144.235 .0232301
1144.859 .0233512
1145.485 .0234351
