Measurement Sequence started on: 10-20-44-796
Integration time: 35
Scans to Average: 2 
>>>>>Begin Spectral Data<<<<<
432.953 .0240094
433.882 .0282711
434.810 .0262961
435.737 .0302694
436.662 .0307658
437.586 .0305873
438.509 .0311857
439.431 .0315494
440.351 .0318665
441.269 .0320120
442.187 .0321102
443.103 .0321676
444.018 .0322139
444.932 .0322366
445.844 .0322324
446.756 .0322075
447.666 .0321786
448.575 .0321539
449.482 .0321234
450.388 .0320979
451.294 .0320806
452.198 .0320675
453.100 .0320396
454.002 .0320057
454.902 .0319584
455.801 .0319042
456.699 .0318434
457.596 .0317914
458.492 .0317525
459.387 .0317328
460.280 .0317282
461.172 .0317306
462.064 .0317401
462.954 .0317459
463.843 .0317453
464.730 .0317389
465.617 .0317244
466.503 .0317061
467.387 .0316805
468.271 .0316528
469.153 .0316266
470.035 .0316004
470.915 .0315758
471.794 .0315500
472.673 .0315215
473.550 .0314875
474.426 .0314457
475.301 .0313997
476.175 .0313512
477.048 .0312974
477.920 .0312417
478.791 .0311818
479.661 .0311255
480.530 .0310720
481.398 .0310232
482.266 .0309844
483.132 .0309576
483.997 .0309408
484.861 .0309341
485.724 .0309375
486.587 .0309506
487.448 .0309662
488.308 .0309814
489.168 .0309933
490.026 .0309987
490.884 .0309965
491.741 .0309876
492.597 .0309728
493.452 .0309594
494.306 .0309457
495.159 .0309344
496.011 .0309245
496.862 .0309158
497.713 .0309036
498.562 .0308830
499.411 .0308550
500.259 .0308159
501.106 .0307641
501.952 .0307047
502.798 .0306412
503.642 .0305765
504.486 .0305126
505.329 .0304513
506.171 .0303943
507.012 .0303390
507.852 .0302821
508.692 .0302197
509.531 .0301525
510.369 .0300813
511.206 .0300015
512.043 .0299142
512.878 .0298225
513.713 .0297231
514.547 .0296159
515.381 .0295025
516.213 .0293845
517.045 .0292587
517.876 .0291326
518.706 .0290053
519.536 .0288823
520.365 .0287620
521.193 .0286436
522.020 .0285247
522.847 .0284017
523.673 .0282702
524.498 .0281220
525.323 .0279632
526.146 .0278011
526.969 .0276304
527.792 .0274539
528.614 .0272734
529.435 .0270892
530.255 .0268978
531.075 .0266960
531.894 .0264790
532.712 .0262512
533.530 .0260149
534.347 .0257743
535.163 .0255402
535.979 .0253211
536.794 .0251261
537.608 .0249541
538.422 .0248147
539.235 .0247035
540.048 .0246137
540.860 .0245542
541.671 .0245234
542.481 .0245218
543.292 .0245514
544.101 .0246085
544.910 .0247000
545.718 .0248187
546.526 .0249586
547.333 .0251101
548.139 .0252709
548.945 .0254337
549.750 .0255840
550.555 .0257226
551.359 .0258531
552.162 .0259678
552.965 .0260738
553.768 .0261707
554.569 .0262559
555.371 .0263291
556.171 .0263892
556.972 .0264379
557.771 .0264771
558.570 .0265073
559.369 .0265290
560.167 .0265492
560.964 .0265724
561.761 .0265976
562.558 .0266305
563.354 .0266753
564.149 .0267290
564.944 .0267904
565.738 .0268574
566.532 .0269297
567.325 .0270044
568.118 .0270837
568.910 .0271658
569.702 .0272518
570.494 .0273412
571.285 .0274320
572.075 .0275267
572.865 .0276235
573.654 .0277196
574.443 .0278150
575.232 .0279099
576.020 .0280021
576.807 .0280899
577.594 .0281750
578.381 .0282577
579.167 .0283395
579.952 .0284187
580.738 .0284958
581.522 .0285704
582.307 .0286430
583.091 .0287119
583.874 .0287773
584.657 .0288392
585.440 .0288973
586.222 .0289510
587.004 .0290004
587.785 .0290447
588.566 .0290839
589.346 .0291173
590.126 .0291459
590.906 .0291674
591.685 .0291841
592.464 .0291961
593.242 .0292045
594.020 .0292091
594.797 .0292125
595.575 .0292151
596.351 .0292178
597.128 .0292214
597.904 .0292248
598.679 .0292266
599.454 .0292279
600.229 .0292278
601.004 .0292271
601.778 .0292257
602.551 .0292249
603.325 .0292244
604.097 .0292254
604.870 .0292270
605.642 .0292298
606.414 .0292332
607.185 .0292371
607.956 .0292403
608.727 .0292424
609.497 .0292428
610.267 .0292412
611.037 .0292376
611.806 .0292321
612.575 .0292241
613.344 .0292143
614.112 .0292019
614.880 .0291879
615.647 .0291717
616.414 .0291537
617.181 .0291350
617.948 .0291156
618.714 .0290957
619.480 .0290757
620.245 .0290558
621.011 .0290363
621.775 .0290164
622.540 .0289968
623.304 .0289772
624.068 .0289574
624.832 .0289379
625.595 .0289184
626.358 .0288999
627.120 .0288829
627.883 .0288672
628.645 .0288537
629.406 .0288422
630.168 .0288321
630.929 .0288225
631.689 .0288124
632.450 .0288009
633.210 .0287874
633.970 .0287719
634.729 .0287546
635.489 .0287358
636.248 .0287162
637.006 .0286967
637.765 .0286772
638.523 .0286581
639.280 .0286395
640.038 .0286209
640.795 .0286029
641.552 .0285841
642.309 .0285652
643.065 .0285463
643.821 .0285278
644.577 .0285104
645.332 .0284936
646.088 .0284781
646.843 .0284625
647.597 .0284474
648.352 .0284329
649.106 .0284193
649.860 .0284064
650.613 .0283944
651.367 .0283833
652.120 .0283717
652.872 .0283590
653.625 .0283446
654.377 .0283284
655.129 .0283105
655.881 .0282904
656.632 .0282686
657.384 .0282461
658.135 .0282245
658.885 .0282033
659.636 .0281834
660.386 .0281648
661.136 .0281463
661.885 .0281278
662.635 .0281096
663.384 .0280921
664.133 .0280760
664.881 .0280622
665.630 .0280509
666.378 .0280424
667.126 .0280365
667.874 .0280320
668.621 .0280283
669.368 .0280249
670.115 .0280205
670.862 .0280143
671.608 .0280069
672.354 .0279986
673.100 .0279894
673.846 .0279807
674.591 .0279721
675.337 .0279638
676.082 .0279556
676.826 .0279471
677.571 .0279381
678.315 .0279291
679.059 .0279197
679.803 .0279105
680.547 .0279020
681.290 .0278949
682.033 .0278884
682.776 .0278828
683.518 .0278784
684.261 .0278746
685.003 .0278714
685.745 .0278679
686.487 .0278643
687.228 .0278604
687.969 .0278556
688.710 .0278497
689.451 .0278425
690.192 .0278337
690.932 .0278232
691.672 .0278110
692.412 .0277974
693.152 .0277823
693.891 .0277667
694.630 .0277506
695.369 .0277344
696.108 .0277178
696.846 .0277011
697.585 .0276839
698.323 .0276671
699.061 .0276502
699.798 .0276336
700.536 .0276177
701.273 .0276028
702.010 .0275891
702.746 .0275769
703.483 .0275663
704.219 .0275568
704.955 .0275481
705.691 .0275397
706.427 .0275302
707.162 .0275203
707.897 .0275093
708.632 .0274974
709.367 .0274846
710.101 .0274714
710.835 .0274576
711.569 .0274433
712.303 .0274283
713.037 .0274123
713.770 .0273954
714.503 .0273770
715.236 .0273568
715.969 .0273350
716.702 .0273123
717.434 .0272888
718.166 .0272650
718.898 .0272418
719.629 .0272188
720.361 .0271969
721.092 .0271757
721.823 .0271553
722.554 .0271356
723.284 .0271165
724.014 .0270976
724.744 .0270784
725.474 .0270590
726.204 .0270388
726.933 .0270184
727.662 .0269974
728.391 .0269754
729.120 .0269523
729.849 .0269285
730.577 .0269044
731.305 .0268794
732.033 .0268548
732.760 .0268303
733.488 .0268070
734.215 .0267849
734.942 .0267632
735.669 .0267422
736.395 .0267220
737.122 .0267017
737.848 .0266813
738.573 .0266607
739.299 .0266399
740.024 .0266192
740.750 .0265994
741.474 .0265799
742.199 .0265610
742.924 .0265429
743.648 .0265255
744.372 .0265076
745.096 .0264900
745.819 .0264718
746.543 .0264531
747.266 .0264348
747.989 .0264167
748.711 .0263988
749.434 .0263820
750.156 .0263671
750.878 .0263539
751.599 .0263434
752.321 .0263354
753.042 .0263297
753.763 .0263264
754.484 .0263249
755.205 .0263241
755.925 .0263233
756.645 .0263220
757.365 .0263187
758.085 .0263128
758.804 .0263045
759.523 .0262928
760.242 .0262793
760.961 .0262641
761.679 .0262480
762.397 .0262307
763.115 .0262126
763.833 .0261932
764.551 .0261719
765.268 .0261486
765.985 .0261232
766.702 .0260961
767.418 .0260680
768.134 .0260398
768.850 .0260128
769.566 .0259878
770.282 .0259656
770.997 .0259455
771.712 .0259277
772.427 .0259112
773.142 .0258950
773.856 .0258785
774.570 .0258618
775.284 .0258448
775.998 .0258277
776.711 .0258111
777.424 .0257955
778.137 .0257811
778.849 .0257679
779.562 .0257554
780.274 .0257438
780.986 .0257324
781.697 .0257209
782.409 .0257086
783.120 .0256964
783.831 .0256843
784.541 .0256730
785.252 .0256629
785.962 .0256542
786.671 .0256468
787.381 .0256401
788.090 .0256332
788.799 .0256258
789.508 .0256171
790.217 .0256068
790.925 .0255944
791.633 .0255807
792.341 .0255656
793.048 .0255502
793.755 .0255350
794.462 .0255204
795.169 .0255064
795.875 .0254932
796.581 .0254804
797.287 .0254679
797.993 .0254557
798.698 .0254438
799.403 .0254321
800.108 .0254213
800.812 .0254112
801.517 .0254023
802.221 .0253943
802.924 .0253874
803.628 .0253812
804.331 .0253758
805.034 .0253704
805.736 .0253649
806.439 .0253591
807.141 .0253530
807.843 .0253464
808.544 .0253390
809.245 .0253311
809.946 .0253229
810.647 .0253142
811.347 .0253053
812.047 .0252963
812.747 .0252877
813.447 .0252794
814.146 .0252722
814.845 .0252659
815.543 .0252605
816.242 .0252565
816.940 .0252533
817.638 .0252507
818.335 .0252488
819.032 .0252473
819.729 .0252464
820.426 .0252456
821.122 .0252448
821.818 .0252430
822.514 .0252404
823.209 .0252371
823.905 .0252320
824.599 .0252255
825.294 .0252174
825.988 .0252076
826.682 .0251966
827.376 .0251849
828.069 .0251722
828.762 .0251592
829.455 .0251462
830.147 .0251327
830.840 .0251186
831.531 .0251043
832.223 .0250899
832.914 .0250754
833.605 .0250616
834.296 .0250485
834.986 .0250363
835.676 .0250258
836.366 .0250165
837.055 .0250082
837.744 .0250009
838.433 .0249941
839.121 .0249872
839.809 .0249800
840.497 .0249725
841.185 .0249647
841.872 .0249573
842.559 .0249508
843.245 .0249449
843.932 .0249400
844.617 .0249357
845.303 .0249316
845.988 .0249275
846.673 .0249236
847.358 .0249192
848.042 .0249149
848.726 .0249109
849.410 .0249068
850.093 .0249029
850.776 .0248996
851.459 .0248960
852.141 .0248922
852.823 .0248875
853.505 .0248815
854.186 .0248736
854.867 .0248645
855.548 .0248542
856.228 .0248434
856.908 .0248327
857.588 .0248223
858.267 .0248123
858.946 .0248031
859.625 .0247941
860.303 .0247857
860.981 .0247775
861.659 .0247694
862.336 .0247614
863.013 .0247538
863.690 .0247469
864.366 .0247404
865.042 .0247349
865.718 .0247305
866.393 .0247263
867.068 .0247225
867.743 .0247182
868.417 .0247134
869.091 .0247077
869.765 .0247011
870.438 .0246936
871.111 .0246856
871.783 .0246770
872.456 .0246674
873.127 .0246569
873.799 .0246458
874.470 .0246337
875.141 .0246206
875.811 .0246069
876.481 .0245924
877.151 .0245775
877.820 .0245626
878.489 .0245479
879.158 .0245339
879.826 .0245203
880.494 .0245072
881.162 .0244939
881.829 .0244806
882.496 .0244669
883.163 .0244525
883.829 .0244384
884.495 .0244246
885.160 .0244114
885.825 .0243991
886.490 .0243879
887.154 .0243777
887.818 .0243683
888.482 .0243590
889.145 .0243496
889.808 .0243394
890.471 .0243282
891.133 .0243160
891.795 .0243030
892.456 .0242896
893.117 .0242762
893.778 .0242627
894.439 .0242492
895.099 .0242354
895.758 .0242215
896.417 .0242073
897.076 .0241931
897.735 .0241787
898.393 .0241638
899.051 .0241492
899.708 .0241348
900.365 .0241207
901.022 .0241076
901.678 .0240953
902.334 .0240839
902.990 .0240734
903.645 .0240636
904.300 .0240542
904.954 .0240454
905.608 .0240371
906.262 .0240289
906.915 .0240206
907.568 .0240118
908.221 .0240029
908.873 .0239937
909.525 .0239843
910.176 .0239745
910.828 .0239646
911.478 .0239542
912.129 .0239428
912.778 .0239308
913.428 .0239183
914.077 .0239050
914.726 .0238910
915.375 .0238760
916.023 .0238609
916.670 .0238455
917.318 .0238299
917.964 .0238139
918.611 .0237973
919.257 .0237798
919.903 .0237611
920.548 .0237414
921.193 .0237212
921.838 .0237009
922.482 .0236809
923.126 .0236613
923.770 .0236427
924.413 .0236248
925.056 .0236076
925.698 .0235916
926.340 .0235762
926.982 .0235614
927.623 .0235474
928.264 .0235344
928.904 .0235225
929.544 .0235116
930.184 .0235018
930.823 .0234928
931.462 .0234845
932.101 .0234759
932.739 .0234665
933.377 .0234566
934.014 .0234454
934.651 .0234332
935.288 .0234200
935.924 .0234066
936.560 .0233930
937.196 .0233796
937.831 .0233662
938.466 .0233526
939.100 .0233388
939.734 .0233245
940.368 .0233090
941.001 .0232926
941.634 .0232750
942.266 .0232569
942.899 .0232383
943.530 .0232198
944.162 .0232016
944.793 .0231842
945.423 .0231671
946.053 .0231501
946.683 .0231325
947.313 .0231145
947.942 .0230960
948.571 .0230762
949.199 .0230553
949.827 .0230336
950.455 .0230112
951.082 .0229890
951.709 .0229670
952.335 .0229455
952.961 .0229242
953.587 .0229037
954.212 .0228832
954.837 .0228633
955.462 .0228436
956.086 .0228243
956.710 .0228060
957.334 .0227890
957.957 .0227725
958.579 .0227571
959.202 .0227428
959.824 .0227291
960.445 .0227158
961.067 .0227029
961.688 .0226899
962.308 .0226772
962.928 .0226648
963.548 .0226527
964.168 .0226409
964.787 .0226298
965.406 .0226193
966.024 .0226097
966.642 .0226009
967.260 .0225921
967.877 .0225836
968.494 .0225752
969.110 .0225663
969.727 .0225569
970.342 .0225475
970.958 .0225379
971.573 .0225293
972.188 .0225218
972.802 .0225156
973.416 .0225114
974.030 .0225085
974.643 .0225064
975.256 .0225048
975.869 .0225029
976.481 .0225003
977.093 .0224968
977.705 .0224930
978.316 .0224886
978.927 .0224844
979.538 .0224812
980.148 .0224787
980.758 .0224771
981.367 .0224764
981.977 .0224755
982.586 .0224749
983.194 .0224737
983.802 .0224718
984.410 .0224693
985.018 .0224665
985.625 .0224636
986.232 .0224607
986.838 .0224582
987.445 .0224561
988.050 .0224540
988.656 .0224521
989.261 .0224497
989.866 .0224463
990.471 .0224423
991.075 .0224374
991.679 .0224317
992.282 .0224260
992.886 .0224207
993.489 .0224166
994.091 .0224136
994.694 .0224123
995.296 .0224122
995.897 .0224128
996.499 .0224145
997.100 .0224164
997.701 .0224184
998.301 .0224208
998.901 .0224233
999.501 .0224266
1000.101 .0224309
1000.700 .0224365
1001.299 .0224428
1001.898 .0224499
1002.496 .0224572
1003.094 .0224637
1003.692 .0224689
1004.289 .0224731
1004.887 .0224758
1005.484 .0224776
1006.080 .0224786
1006.677 .0224785
1007.273 .0224777
1007.868 .0224769
1008.464 .0224756
1009.059 .0224741
1009.654 .0224723
1010.249 .0224706
1010.843 .0224689
1011.437 .0224686
1012.031 .0224692
1012.625 .0224712
1013.218 .0224747
1013.811 .0224793
1014.404 .0224847
1014.997 .0224907
1015.589 .0224969
1016.181 .0225031
1016.773 .0225097
1017.365 .0225176
1017.956 .0225253
1018.547 .0225345
1019.138 .0225448
1019.728 .0225564
1020.319 .0225689
1020.909 .0225815
1021.499 .0225941
1022.088 .0226059
1022.678 .0226165
1023.267 .0226263
1023.856 .0226355
1024.445 .0226449
1025.033 .0226550
1025.621 .0226656
1026.209 .0226776
1026.797 .0226903
1027.385 .0227031
1027.972 .0227167
1028.560 .0227300
1029.147 .0227431
1029.734 .0227557
1030.320 .0227676
1030.907 .0227791
1031.493 .0227895
1032.079 .0227996
1032.665 .0228085
1033.250 .0228165
1033.836 .0228237
1034.421 .0228294
1035.006 .0228348
1035.591 .0228397
1036.176 .0228442
1036.761 .0228482
1037.345 .0228515
1037.929 .0228526
1038.514 .0228524
1039.097 .0228507
1039.681 .0228484
1040.265 .0228457
1040.848 .0228435
1041.432 .0228424
1042.015 .0228430
1042.598 .0228453
1043.181 .0228498
1043.764 .0228557
1044.346 .0228637
1044.929 .0228721
1045.511 .0228818
1046.094 .0228924
1046.676 .0229039
1047.258 .0229162
1047.840 .0229292
1048.422 .0229412
1049.003 .0229513
1049.585 .0229596
1050.166 .0229662
1050.748 .0229710
1051.329 .0229748
1051.910 .0229768
1052.491 .0229790
1053.072 .0229811
1053.653 .0229828
1054.234 .0229836
1054.815 .0229836
1055.396 .0229827
1055.976 .0229785
1056.557 .0229720
1057.138 .0229638
1057.718 .0229553
1058.298 .0229479
1058.879 .0229418
1059.459 .0229365
1060.039 .0229331
1060.620 .0229292
1061.200 .0229250
1061.780 .0229204
1062.360 .0229145
1062.940 .0229067
1063.520 .0228975
1064.101 .0228884
1064.681 .0228794
1065.261 .0228706
1065.841 .0228631
1066.421 .0228576
1067.001 .0228542
1067.581 .0228505
1068.161 .0228474
1068.741 .0228454
1069.321 .0228444
1069.901 .0228436
1070.482 .0228424
1071.062 .0228408
1071.642 .0228392
1072.222 .0228371
1072.803 .0228329
1073.383 .0228295
1073.963 .0228257
1074.544 .0228216
1075.124 .0228172
1075.705 .0228126
1076.286 .0228077
1076.866 .0228028
1077.447 .0227984
1078.028 .0227930
1078.609 .0227884
1079.190 .0227838
1079.771 .0227781
1080.352 .0227739
1080.934 .0227703
1081.515 .0227679
1082.097 .0227681
1082.679 .0227730
1083.260 .0227798
1083.842 .0227886
1084.424 .0228003
1085.007 .0228116
1085.589 .0228233
1086.172 .0228344
1086.754 .0228437
1087.337 .0228525
1087.920 .0228617
1088.503 .0228697
1089.087 .0228778
1089.670 .0228872
1090.254 .0228979
1090.838 .0229077
1091.422 .0229187
1092.006 .0229283
1092.590 .0229355
1093.175 .0229409
1093.760 .0229421
1094.345 .0229389
1094.930 .0229329
1095.516 .0229252
1096.102 .0229168
1096.688 .0229096
1097.274 .0229049
1097.860 .0229022
1098.447 .0229043
1099.034 .0229085
1099.622 .0229122
1100.209 .0229146
1100.797 .0229167
1101.385 .0229145
1101.973 .0229091
1102.562 .0229013
1103.151 .0228908
1103.740 .0228820
1104.330 .0228736
1104.920 .0228653
1105.510 .0228583
1106.101 .0228519
1106.691 .0228431
1107.283 .0228303
1107.874 .0228142
1108.466 .0227920
1109.058 .0227668
1109.651 .0227406
1110.244 .0227121
1110.837 .0226848
1111.431 .0226604
1112.025 .0226402
1112.620 .0226242
1113.215 .0226147
1113.810 .0226091
1114.406 .0226097
1115.002 .0226169
1115.599 .0226272
1116.196 .0226391
1116.793 .0226529
1117.391 .0226662
1117.989 .0226778
1118.588 .0226877
1119.187 .0226939
1119.787 .0226983
1120.387 .0227047
1120.988 .0227088
1121.589 .0227130
1122.190 .0227150
1122.793 .0227154
1123.395 .0227099
1123.998 .0227023
1124.602 .0226900
1125.206 .0226749
1125.811 .0226635
1126.416 .0226525
1127.022 .0226441
1127.628 .0226421
1128.235 .0226421
1128.843 .0226463
1129.451 .0226545
1130.059 .0226665
1130.669 .0226803
1131.278 .0227007
1131.889 .0227232
1132.500 .0227474
1133.112 .0227766
1133.724 .0228071
1134.337 .0228335
1134.950 .0228572
1135.564 .0228792
1136.179 .0228984
1136.795 .0229211
1137.411 .0229468
1138.028 .0229769
1138.645 .0230168
1139.263 .0230625
1139.882 .0231100
1140.502 .0231674
1141.122 .0232343
1141.743 .0233141
1142.365 .0233696
1142.987 .0233394
1143.611 .0236168
1144.235 .0237114
1144.859 .0239604
1145.485 .0230803
