Measurement Sequence started on: 10-20-44-796
Integration time: 35
Scans to Average: 2 
>>>>>Begin Spectral Data<<<<<
432.953 .0322643
433.882 .0333876
434.810 .0323463
435.737 .0313859
436.662 .0313790
437.586 .0317477
438.509 .0316995
439.431 .0316793
440.351 .0317263
441.269 .0318175
442.187 .0319081
443.103 .0319856
444.018 .0320442
444.932 .0320981
445.844 .0321102
446.756 .0321010
447.666 .0320815
448.575 .0320372
449.482 .0319840
450.388 .0319286
451.294 .0318633
452.198 .0317944
453.100 .0317255
454.002 .0316504
454.902 .0315794
455.801 .0315081
456.699 .0314467
457.596 .0313900
458.492 .0313445
459.387 .0313059
460.280 .0312791
461.172 .0312598
462.064 .0312500
462.954 .0312429
463.843 .0312445
464.730 .0312512
465.617 .0312629
466.503 .0312784
467.387 .0312962
468.271 .0313121
469.153 .0313274
470.035 .0313372
470.915 .0313455
471.794 .0313450
472.673 .0313428
473.550 .0313376
474.426 .0313297
475.301 .0313245
476.175 .0313208
477.048 .0313160
477.920 .0313094
478.791 .0312994
479.661 .0312848
480.530 .0312630
481.398 .0312402
482.266 .0312176
483.132 .0311977
483.997 .0311821
484.861 .0311709
485.724 .0311642
486.587 .0311615
487.448 .0311550
488.308 .0311423
489.168 .0311239
490.026 .0310990
490.884 .0310664
491.741 .0310294
492.597 .0309946
493.452 .0309618
494.306 .0309335
495.159 .0309110
496.011 .0308889
496.862 .0308665
497.713 .0308377
498.562 .0308011
499.411 .0307536
500.259 .0306984
501.106 .0306362
501.952 .0305706
502.798 .0305053
503.642 .0304375
504.486 .0303691
505.329 .0303008
506.171 .0302281
507.012 .0301488
507.852 .0300606
508.692 .0299635
509.531 .0298543
510.369 .0297345
511.206 .0296030
512.043 .0294626
512.878 .0293119
513.713 .0291520
514.547 .0289822
515.381 .0288061
516.213 .0286267
517.045 .0284452
517.876 .0282662
518.706 .0280846
519.536 .0279042
520.365 .0277258
521.193 .0275462
522.020 .0273653
522.847 .0271822
523.673 .0269950
524.498 .0268043
525.323 .0266089
526.146 .0264150
526.969 .0262232
527.792 .0260377
528.614 .0258571
529.435 .0256830
530.255 .0255226
531.075 .0253747
531.894 .0252427
532.712 .0251313
533.530 .0250346
534.347 .0249568
535.163 .0248881
535.979 .0248388
536.794 .0248065
537.608 .0247869
538.422 .0247864
539.235 .0248044
540.048 .0248443
540.860 .0249011
541.671 .0249725
542.481 .0250583
543.292 .0251455
544.101 .0252361
544.910 .0253193
545.718 .0253929
546.526 .0254621
547.333 .0255236
548.139 .0255788
548.945 .0256300
549.750 .0256772
550.555 .0257225
551.359 .0257705
552.162 .0258227
552.965 .0258778
553.768 .0259375
554.569 .0260051
555.371 .0260741
556.171 .0261431
556.972 .0262134
557.771 .0262791
558.570 .0263413
559.369 .0264003
560.167 .0264525
560.964 .0265039
561.761 .0265553
562.558 .0266094
563.354 .0266675
564.149 .0267310
564.944 .0267968
565.738 .0268657
566.532 .0269393
567.325 .0270153
568.118 .0270915
568.910 .0271691
569.702 .0272479
570.494 .0273275
571.285 .0274068
572.075 .0274868
572.865 .0275670
573.654 .0276500
574.443 .0277294
575.232 .0278059
576.020 .0278787
576.807 .0279489
577.594 .0280136
578.381 .0280757
579.167 .0281355
579.952 .0281940
580.738 .0282523
581.522 .0283105
582.307 .0283688
583.091 .0284275
583.874 .0284863
584.657 .0285417
585.440 .0285931
586.222 .0286407
587.004 .0286830
587.785 .0287215
588.566 .0287570
589.346 .0287905
590.126 .0288216
590.906 .0288514
591.685 .0288803
592.464 .0289072
593.242 .0289335
594.020 .0289567
594.797 .0289772
595.575 .0289934
596.351 .0290059
597.128 .0290146
597.904 .0290199
598.679 .0290228
599.454 .0290229
600.229 .0290205
601.004 .0290168
601.778 .0290118
602.551 .0290058
603.325 .0289989
604.097 .0289916
604.870 .0289836
605.642 .0289748
606.414 .0289654
607.185 .0289562
607.956 .0289470
608.727 .0289382
609.497 .0289284
610.267 .0289180
611.037 .0289071
611.806 .0288955
612.575 .0288826
613.344 .0288691
614.112 .0288549
614.880 .0288394
615.647 .0288232
616.414 .0288067
617.181 .0287896
617.948 .0287723
618.714 .0287548
619.480 .0287370
620.245 .0287188
621.011 .0287007
621.775 .0286831
622.540 .0286669
623.304 .0286523
624.068 .0286392
624.832 .0286276
625.595 .0286183
626.358 .0286101
627.120 .0286027
627.883 .0285958
628.645 .0285891
629.406 .0285817
630.168 .0285737
630.929 .0285654
631.689 .0285572
632.450 .0285482
633.210 .0285385
633.970 .0285281
634.729 .0285172
635.489 .0285047
636.248 .0284912
637.006 .0284763
637.765 .0284601
638.523 .0284427
639.280 .0284240
640.038 .0284051
640.795 .0283869
641.552 .0283687
642.309 .0283510
643.065 .0283340
643.821 .0283174
644.577 .0283005
645.332 .0282841
646.088 .0282683
646.843 .0282527
647.597 .0282380
648.352 .0282247
649.106 .0282127
649.860 .0282025
650.613 .0281939
651.367 .0281859
652.120 .0281785
652.872 .0281704
653.625 .0281606
654.377 .0281499
655.129 .0281385
655.881 .0281262
656.632 .0281133
657.384 .0281008
658.135 .0280885
658.885 .0280757
659.636 .0280628
660.386 .0280482
661.136 .0280322
661.885 .0280146
662.635 .0279957
663.384 .0279758
664.133 .0279564
664.881 .0279380
665.630 .0279206
666.378 .0279049
667.126 .0278904
667.874 .0278763
668.621 .0278628
669.368 .0278493
670.115 .0278352
670.862 .0278207
671.608 .0278068
672.354 .0277939
673.100 .0277822
673.846 .0277721
674.591 .0277629
675.337 .0277545
676.082 .0277466
676.826 .0277383
677.571 .0277293
678.315 .0277195
679.059 .0277088
679.803 .0276972
680.547 .0276853
681.290 .0276731
682.033 .0276607
682.776 .0276485
683.518 .0276363
684.261 .0276237
685.003 .0276108
685.745 .0275977
686.487 .0275849
687.228 .0275721
687.969 .0275591
688.710 .0275459
689.451 .0275328
690.192 .0275196
690.932 .0275064
691.672 .0274931
692.412 .0274797
693.152 .0274662
693.891 .0274526
694.630 .0274390
695.369 .0274251
696.108 .0274114
696.846 .0273972
697.585 .0273821
698.323 .0273668
699.061 .0273503
699.798 .0273333
700.536 .0273158
701.273 .0272979
702.010 .0272792
702.746 .0272606
703.483 .0272426
704.219 .0272253
704.955 .0272093
705.691 .0271949
706.427 .0271814
707.162 .0271691
707.897 .0271575
708.632 .0271458
709.367 .0271345
710.101 .0271227
710.835 .0271101
711.569 .0270972
712.303 .0270835
713.037 .0270693
713.770 .0270549
714.503 .0270405
715.236 .0270259
715.969 .0270109
716.702 .0269958
717.434 .0269798
718.166 .0269633
718.898 .0269464
719.629 .0269289
720.361 .0269116
721.092 .0268943
721.823 .0268770
722.554 .0268601
723.284 .0268432
724.014 .0268256
724.744 .0268076
725.474 .0267890
726.204 .0267701
726.933 .0267507
727.662 .0267311
728.391 .0267122
729.120 .0266937
729.849 .0266759
730.577 .0266583
731.305 .0266409
732.033 .0266236
732.760 .0266058
733.488 .0265876
734.215 .0265691
734.942 .0265507
735.669 .0265325
736.395 .0265144
737.122 .0264967
737.848 .0264794
738.573 .0264624
739.299 .0264456
740.024 .0264289
740.750 .0264119
741.474 .0263949
742.199 .0263776
742.924 .0263604
743.648 .0263432
744.372 .0263266
745.096 .0263104
745.819 .0262949
746.543 .0262800
747.266 .0262658
747.989 .0262525
748.711 .0262405
749.434 .0262301
750.156 .0262209
750.878 .0262132
751.599 .0262075
752.321 .0262034
753.042 .0262009
753.763 .0261993
754.484 .0261989
755.205 .0261986
755.925 .0261985
756.645 .0261979
757.365 .0261969
758.085 .0261954
758.804 .0261930
759.523 .0261892
760.242 .0261844
760.961 .0261783
761.679 .0261706
762.397 .0261611
763.115 .0261500
763.833 .0261362
764.551 .0261198
765.268 .0261010
765.985 .0260805
766.702 .0260581
767.418 .0260346
768.134 .0260099
768.850 .0259847
769.566 .0259597
770.282 .0259343
770.997 .0259097
771.712 .0258861
772.427 .0258637
773.142 .0258424
773.856 .0258228
774.570 .0258053
775.284 .0257893
775.998 .0257751
776.711 .0257623
777.424 .0257502
778.137 .0257384
778.849 .0257267
779.562 .0257153
780.274 .0257042
780.986 .0256933
781.697 .0256825
782.409 .0256722
783.120 .0256621
783.831 .0256518
784.541 .0256413
785.252 .0256303
785.962 .0256186
786.671 .0256059
787.381 .0255925
788.090 .0255785
788.799 .0255645
789.508 .0255503
790.217 .0255361
790.925 .0255225
791.633 .0255092
792.341 .0254957
793.048 .0254823
793.755 .0254686
794.462 .0254548
795.169 .0254402
795.875 .0254255
796.581 .0254102
797.287 .0253952
797.993 .0253802
798.698 .0253654
799.403 .0253509
800.108 .0253372
800.812 .0253235
801.517 .0253105
802.221 .0252976
802.924 .0252851
803.628 .0252726
804.331 .0252610
805.034 .0252496
805.736 .0252392
806.439 .0252294
807.141 .0252206
807.843 .0252125
808.544 .0252049
809.245 .0251968
809.946 .0251886
810.647 .0251802
811.347 .0251713
812.047 .0251619
812.747 .0251529
813.447 .0251441
814.146 .0251361
814.845 .0251291
815.543 .0251229
816.242 .0251172
816.940 .0251116
817.638 .0251049
818.335 .0250972
819.032 .0250882
819.729 .0250778
820.426 .0250660
821.122 .0250533
821.818 .0250401
822.514 .0250263
823.209 .0250126
823.905 .0249988
824.599 .0249846
825.294 .0249699
825.988 .0249543
826.682 .0249375
827.376 .0249197
828.069 .0249012
828.762 .0248821
829.455 .0248629
830.147 .0248440
830.840 .0248258
831.531 .0248084
832.223 .0247924
832.914 .0247772
833.605 .0247626
834.296 .0247486
834.986 .0247347
835.676 .0247208
836.366 .0247069
837.055 .0246933
837.744 .0246804
838.433 .0246679
839.121 .0246559
839.809 .0246442
840.497 .0246332
841.185 .0246224
841.872 .0246114
842.559 .0246005
843.245 .0245894
843.932 .0245784
844.617 .0245675
845.303 .0245567
845.988 .0245466
846.673 .0245367
847.358 .0245272
848.042 .0245178
848.726 .0245085
849.410 .0244992
850.093 .0244898
850.776 .0244804
851.459 .0244709
852.141 .0244608
852.823 .0244508
853.505 .0244410
854.186 .0244313
854.867 .0244222
855.548 .0244135
856.228 .0244057
856.908 .0243987
857.588 .0243925
858.267 .0243870
858.946 .0243820
859.625 .0243771
860.303 .0243719
860.981 .0243657
861.659 .0243586
862.336 .0243508
863.013 .0243424
863.690 .0243336
864.366 .0243247
865.042 .0243155
865.718 .0243062
866.393 .0242968
867.068 .0242874
867.743 .0242772
868.417 .0242667
869.091 .0242558
869.765 .0242443
870.438 .0242327
871.111 .0242213
871.783 .0242103
872.456 .0241998
873.127 .0241900
873.799 .0241805
874.470 .0241712
875.141 .0241623
875.811 .0241537
876.481 .0241453
877.151 .0241372
877.820 .0241294
878.489 .0241218
879.158 .0241143
879.826 .0241067
880.494 .0240985
881.162 .0240898
881.829 .0240800
882.496 .0240690
883.163 .0240570
883.829 .0240443
884.495 .0240316
885.160 .0240194
885.825 .0240082
886.490 .0239981
887.154 .0239894
887.818 .0239817
888.482 .0239746
889.145 .0239677
889.808 .0239607
890.471 .0239534
891.133 .0239462
891.795 .0239388
892.456 .0239316
893.117 .0239252
893.778 .0239194
894.439 .0239143
895.099 .0239097
895.758 .0239055
896.417 .0239010
897.076 .0238959
897.735 .0238900
898.393 .0238829
899.051 .0238752
899.708 .0238671
900.365 .0238587
901.022 .0238508
901.678 .0238437
902.334 .0238371
902.990 .0238316
903.645 .0238274
904.300 .0238238
904.954 .0238207
905.608 .0238180
906.262 .0238152
906.915 .0238118
907.568 .0238082
908.221 .0238042
908.873 .0237998
909.525 .0237952
910.176 .0237902
910.828 .0237851
911.478 .0237799
912.129 .0237745
912.778 .0237686
913.428 .0237620
914.077 .0237547
914.726 .0237460
915.375 .0237367
916.023 .0237275
916.670 .0237181
917.318 .0237092
917.964 .0237005
918.611 .0236923
919.257 .0236842
919.903 .0236762
920.548 .0236680
921.193 .0236596
921.838 .0236510
922.482 .0236422
923.126 .0236335
923.770 .0236255
924.413 .0236180
925.056 .0236115
925.698 .0236055
926.340 .0235997
926.982 .0235939
927.623 .0235880
928.264 .0235816
928.904 .0235748
929.544 .0235672
930.184 .0235589
930.823 .0235500
931.462 .0235405
932.101 .0235305
932.739 .0235202
933.377 .0235093
934.014 .0234973
934.651 .0234845
935.288 .0234705
935.924 .0234555
936.560 .0234401
937.196 .0234242
937.831 .0234078
938.466 .0233914
939.100 .0233749
939.734 .0233585
940.368 .0233424
941.001 .0233267
941.634 .0233111
942.266 .0232960
942.899 .0232811
943.530 .0232658
944.162 .0232507
944.793 .0232350
945.423 .0232184
946.053 .0232013
946.683 .0231835
947.313 .0231651
947.942 .0231465
948.571 .0231277
949.199 .0231085
949.827 .0230894
950.455 .0230702
951.082 .0230511
951.709 .0230324
952.335 .0230145
952.961 .0229968
953.587 .0229797
954.212 .0229636
954.837 .0229480
955.462 .0229333
956.086 .0229192
956.710 .0229057
957.334 .0228925
957.957 .0228794
958.579 .0228661
959.202 .0228530
959.824 .0228395
960.445 .0228258
961.067 .0228118
961.688 .0227978
962.308 .0227839
962.928 .0227703
963.548 .0227573
964.168 .0227452
964.787 .0227336
965.406 .0227226
966.024 .0227123
966.642 .0227032
967.260 .0226950
967.877 .0226877
968.494 .0226810
969.110 .0226750
969.727 .0226689
970.342 .0226631
970.958 .0226577
971.573 .0226525
972.188 .0226477
972.802 .0226432
973.416 .0226387
974.030 .0226341
974.643 .0226290
975.256 .0226234
975.869 .0226170
976.481 .0226102
977.093 .0226024
977.705 .0225947
978.316 .0225877
978.927 .0225813
979.538 .0225758
980.148 .0225712
980.758 .0225670
981.367 .0225628
981.977 .0225587
982.586 .0225542
983.194 .0225493
983.802 .0225440
984.410 .0225383
985.018 .0225328
985.625 .0225276
986.232 .0225227
986.838 .0225183
987.445 .0225149
988.050 .0225111
988.656 .0225071
989.261 .0225027
989.866 .0224976
990.471 .0224919
991.075 .0224859
991.679 .0224791
992.282 .0224719
992.886 .0224646
993.489 .0224574
994.091 .0224506
994.694 .0224449
995.296 .0224393
995.897 .0224341
996.499 .0224289
997.100 .0224231
997.701 .0224162
998.301 .0224087
998.901 .0223999
999.501 .0223905
1000.101 .0223808
1000.700 .0223715
1001.299 .0223627
1001.898 .0223554
1002.496 .0223492
1003.094 .0223444
1003.692 .0223406
1004.289 .0223373
1004.887 .0223349
1005.484 .0223335
1006.080 .0223331
1006.677 .0223336
1007.273 .0223349
1007.868 .0223374
1008.464 .0223408
1009.059 .0223453
1009.654 .0223505
1010.249 .0223565
1010.843 .0223628
1011.437 .0223690
1012.031 .0223746
1012.625 .0223799
1013.218 .0223847
1013.811 .0223887
1014.404 .0223924
1014.997 .0223958
1015.589 .0223984
1016.181 .0224002
1016.773 .0224014
1017.365 .0224024
1017.956 .0224021
1018.547 .0224007
1019.138 .0223983
1019.728 .0223952
1020.319 .0223920
1020.909 .0223892
1021.499 .0223874
1022.088 .0223873
1022.678 .0223883
1023.267 .0223897
1023.856 .0223909
1024.445 .0223918
1025.033 .0223911
1025.621 .0223886
1026.209 .0223849
1026.797 .0223803
1027.385 .0223753
1027.972 .0223716
1028.560 .0223693
1029.147 .0223688
1029.734 .0223694
1030.320 .0223705
1030.907 .0223707
1031.493 .0223708
1032.079 .0223697
1032.665 .0223681
1033.250 .0223664
1033.836 .0223656
1034.421 .0223656
1035.006 .0223669
1035.591 .0223696
1036.176 .0223727
1036.761 .0223760
1037.345 .0223793
1037.929 .0223811
1038.514 .0223823
1039.097 .0223833
1039.681 .0223845
1040.265 .0223861
1040.848 .0223888
1041.432 .0223922
1042.015 .0223965
1042.598 .0224012
1043.181 .0224063
1043.764 .0224114
1044.346 .0224173
1044.929 .0224230
1045.511 .0224286
1046.094 .0224351
1046.676 .0224413
1047.258 .0224463
1047.840 .0224505
1048.422 .0224530
1049.003 .0224546
1049.585 .0224548
1050.166 .0224540
1050.748 .0224527
1051.329 .0224510
1051.910 .0224493
1052.491 .0224470
1053.072 .0224452
1053.653 .0224438
1054.234 .0224411
1054.815 .0224386
1055.396 .0224357
1055.976 .0224319
1056.557 .0224280
1057.138 .0224239
1057.718 .0224204
1058.298 .0224171
1058.879 .0224142
1059.459 .0224125
1060.039 .0224113
1060.620 .0224097
1061.200 .0224070
1061.780 .0224019
1062.360 .0223954
1062.940 .0223860
1063.520 .0223744
1064.101 .0223628
1064.681 .0223514
1065.261 .0223412
1065.841 .0223325
1066.421 .0223275
1067.001 .0223258
1067.581 .0223261
1068.161 .0223283
1068.741 .0223302
1069.321 .0223320
1069.901 .0223333
1070.482 .0223335
1071.062 .0223336
1071.642 .0223335
1072.222 .0223328
1072.803 .0223308
1073.383 .0223270
1073.963 .0223205
1074.544 .0223105
1075.124 .0222966
1075.705 .0222785
1076.286 .0222579
1076.866 .0222372
1077.447 .0222173
1078.028 .0221998
1078.609 .0221851
1079.190 .0221730
1079.771 .0221634
1080.352 .0221551
1080.934 .0221480
1081.515 .0221420
1082.097 .0221370
1082.679 .0221341
1083.260 .0221335
1083.842 .0221375
1084.424 .0221447
1085.007 .0221558
1085.589 .0221694
1086.172 .0221832
1086.754 .0221957
1087.337 .0222061
1087.920 .0222140
1088.503 .0222196
1089.087 .0222235
1089.670 .0222272
1090.254 .0222309
1090.838 .0222357
1091.422 .0222420
1092.006 .0222494
1092.590 .0222578
1093.175 .0222673
1093.760 .0222745
1094.345 .0222808
1094.930 .0222865
1095.516 .0222921
1096.102 .0222977
1096.688 .0223026
1097.274 .0223075
1097.860 .0223108
1098.447 .0223124
1099.034 .0223117
1099.622 .0223069
1100.209 .0223019
1100.797 .0222944
1101.385 .0222851
1101.973 .0222749
1102.562 .0222645
1103.151 .0222538
1103.740 .0222419
1104.330 .0222298
1104.920 .0222162
1105.510 .0222009
1106.101 .0221843
1106.691 .0221646
1107.283 .0221429
1107.874 .0221214
1108.466 .0220994
1109.058 .0220771
1109.651 .0220579
1110.244 .0220411
1110.837 .0220287
1111.431 .0220200
1112.025 .0220152
1112.620 .0220130
1113.215 .0220135
1113.810 .0220164
1114.406 .0220192
1115.002 .0220240
1115.599 .0220321
1116.196 .0220410
1116.793 .0220538
1117.391 .0220697
1117.989 .0220866
1118.588 .0221060
1119.187 .0221270
1119.787 .0221473
1120.387 .0221659
1120.988 .0221845
1121.589 .0222017
1122.190 .0222148
1122.793 .0222261
1123.395 .0222323
1123.998 .0222364
1124.602 .0222423
1125.206 .0222475
1125.811 .0222536
1126.416 .0222629
1127.022 .0222776
1127.628 .0222957
1128.235 .0223204
1128.843 .0223479
1129.451 .0223757
1130.059 .0224034
1130.669 .0224284
1131.278 .0224474
1131.889 .0224624
1132.500 .0224765
1133.112 .0224901
1133.724 .0225066
1134.337 .0225286
1134.950 .0225513
1135.564 .0225797
1136.179 .0226103
1136.795 .0226455
1137.411 .0226805
1138.028 .0227175
1138.645 .0227594
1139.263 .0228074
1139.882 .0228629
1140.502 .0229273
1141.122 .0229983
1141.743 .0230849
1142.365 .0231908
1142.987 .0232156
1143.611 .0233910
1144.235 .0234062
1144.859 .0236890
1145.485 .0240968
