Measurement Sequence started on: 10-20-44-796
Integration time: 35
Scans to Average: 2 
>>>>>Begin Spectral Data<<<<<
432.953 .0476899
433.882 .0412766
434.810 .0387188
435.737 .0362514
436.662 .0363004
437.586 .0377271
438.509 .0372186
439.431 .0370277
440.351 .0369311
441.269 .0368867
442.187 .0368154
443.103 .0367232
444.018 .0366467
444.932 .0365836
445.844 .0365361
446.756 .0364856
447.666 .0364345
448.575 .0363640
449.482 .0362761
450.388 .0361867
451.294 .0360931
452.198 .0360047
453.100 .0359233
454.002 .0358678
454.902 .0358271
455.801 .0358032
456.699 .0357983
457.596 .0357941
458.492 .0357921
459.387 .0357910
460.280 .0357846
461.172 .0357662
462.064 .0357475
462.954 .0357196
463.843 .0356806
464.730 .0356427
465.617 .0356019
466.503 .0355591
467.387 .0355174
468.271 .0354760
469.153 .0354262
470.035 .0353748
470.915 .0353243
471.794 .0352694
472.673 .0352184
473.550 .0351772
474.426 .0351442
475.301 .0351213
476.175 .0351119
477.048 .0351091
477.920 .0351113
478.791 .0351192
479.661 .0351234
480.530 .0351252
481.398 .0351256
482.266 .0351238
483.132 .0351194
483.997 .0351174
484.861 .0351176
485.724 .0351202
486.587 .0351228
487.448 .0351234
488.308 .0351165
489.168 .0351001
490.026 .0350724
490.884 .0350322
491.741 .0349822
492.597 .0349266
493.452 .0348668
494.306 .0348091
495.159 .0347537
496.011 .0347024
496.862 .0346539
497.713 .0346062
498.562 .0345564
499.411 .0345014
500.259 .0344379
501.106 .0343677
501.952 .0342921
502.798 .0342138
503.642 .0341338
504.486 .0340554
505.329 .0339788
506.171 .0339039
507.012 .0338283
507.852 .0337501
508.692 .0336629
509.531 .0335673
510.369 .0334612
511.206 .0333452
512.043 .0332220
512.878 .0330897
513.713 .0329523
514.547 .0328138
515.381 .0326752
516.213 .0325350
517.045 .0323924
517.876 .0322479
518.706 .0320934
519.536 .0319320
520.365 .0317565
521.193 .0315688
522.020 .0313781
522.847 .0311830
523.673 .0309850
524.498 .0307884
525.323 .0305962
526.146 .0304116
526.969 .0302366
527.792 .0300697
528.614 .0299037
529.435 .0297424
530.255 .0295878
531.075 .0294308
531.894 .0292849
532.712 .0291536
533.530 .0290339
534.347 .0289370
535.163 .0288612
535.979 .0288084
536.794 .0287814
537.608 .0287714
538.422 .0287784
539.235 .0287893
540.048 .0287995
540.860 .0288007
541.671 .0287933
542.481 .0287803
543.292 .0287578
544.101 .0287338
544.910 .0287140
545.718 .0287008
546.526 .0287040
547.333 .0287215
548.139 .0287551
548.945 .0288046
549.750 .0288596
550.555 .0289214
551.359 .0289884
552.162 .0290497
552.965 .0291069
553.768 .0291621
554.569 .0292178
555.371 .0292691
556.171 .0293193
556.972 .0293708
557.771 .0294214
558.570 .0294731
559.369 .0295197
560.167 .0295620
560.964 .0296024
561.761 .0296366
562.558 .0296639
563.354 .0296881
564.149 .0297073
564.944 .0297232
565.738 .0297377
566.532 .0297548
567.325 .0297717
568.118 .0297922
568.910 .0298174
569.702 .0298509
570.494 .0298946
571.285 .0299457
572.075 .0300036
572.865 .0300682
573.654 .0301334
574.443 .0301976
575.232 .0302587
576.020 .0303180
576.807 .0303749
577.594 .0304306
578.381 .0304849
579.167 .0305388
579.952 .0305934
580.738 .0306494
581.522 .0307067
582.307 .0307627
583.091 .0308150
583.874 .0308646
584.657 .0309111
585.440 .0309541
586.222 .0309928
587.004 .0310282
587.785 .0310605
588.566 .0310889
589.346 .0311138
590.126 .0311360
590.906 .0311568
591.685 .0311766
592.464 .0311940
593.242 .0312107
594.020 .0312254
594.797 .0312384
595.575 .0312493
596.351 .0312568
597.128 .0312616
597.904 .0312623
598.679 .0312592
599.454 .0312520
600.229 .0312422
601.004 .0312297
601.778 .0312162
602.551 .0312013
603.325 .0311860
604.097 .0311700
604.870 .0311536
605.642 .0311373
606.414 .0311206
607.185 .0311033
607.956 .0310861
608.727 .0310686
609.497 .0310512
610.267 .0310329
611.037 .0310149
611.806 .0309967
612.575 .0309779
613.344 .0309585
614.112 .0309384
614.880 .0309176
615.647 .0308965
616.414 .0308746
617.181 .0308523
617.948 .0308298
618.714 .0308069
619.480 .0307833
620.245 .0307590
621.011 .0307333
621.775 .0307061
622.540 .0306780
623.304 .0306495
624.068 .0306208
624.832 .0305928
625.595 .0305671
626.358 .0305434
627.120 .0305214
627.883 .0305001
628.645 .0304791
629.406 .0304574
630.168 .0304346
630.929 .0304102
631.689 .0303849
632.450 .0303596
633.210 .0303352
633.970 .0303114
634.729 .0302895
635.489 .0302687
636.248 .0302477
637.006 .0302259
637.765 .0302029
638.523 .0301776
639.280 .0301501
640.038 .0301214
640.795 .0300931
641.552 .0300647
642.309 .0300381
643.065 .0300123
643.821 .0299882
644.577 .0299648
645.332 .0299413
646.088 .0299169
646.843 .0298923
647.597 .0298673
648.352 .0298419
649.106 .0298172
649.860 .0297938
650.613 .0297711
651.367 .0297505
652.120 .0297316
652.872 .0297137
653.625 .0296965
654.377 .0296807
655.129 .0296654
655.881 .0296508
656.632 .0296369
657.384 .0296228
658.135 .0296101
658.885 .0295981
659.636 .0295865
660.386 .0295753
661.136 .0295649
661.885 .0295548
662.635 .0295453
663.384 .0295371
664.133 .0295292
664.881 .0295223
665.630 .0295165
666.378 .0295105
667.126 .0295049
667.874 .0294987
668.621 .0294919
669.368 .0294841
670.115 .0294754
670.862 .0294649
671.608 .0294536
672.354 .0294425
673.100 .0294313
673.846 .0294208
674.591 .0294115
675.337 .0294025
676.082 .0293940
676.826 .0293857
677.571 .0293766
678.315 .0293664
679.059 .0293558
679.803 .0293442
680.547 .0293324
681.290 .0293205
682.033 .0293088
682.776 .0292978
683.518 .0292877
684.261 .0292776
685.003 .0292664
685.745 .0292542
686.487 .0292404
687.228 .0292243
687.969 .0292065
688.710 .0291868
689.451 .0291656
690.192 .0291437
690.932 .0291207
691.672 .0290973
692.412 .0290735
693.152 .0290499
693.891 .0290265
694.630 .0290033
695.369 .0289804
696.108 .0289581
696.846 .0289365
697.585 .0289159
698.323 .0288955
699.061 .0288755
699.798 .0288553
700.536 .0288346
701.273 .0288132
702.010 .0287912
702.746 .0287685
703.483 .0287461
704.219 .0287238
704.955 .0287017
705.691 .0286798
706.427 .0286583
707.162 .0286366
707.897 .0286145
708.632 .0285915
709.367 .0285680
710.101 .0285439
710.835 .0285200
711.569 .0284962
712.303 .0284737
713.037 .0284526
713.770 .0284328
714.503 .0284140
715.236 .0283961
715.969 .0283787
716.702 .0283612
717.434 .0283432
718.166 .0283243
718.898 .0283046
719.629 .0282847
720.361 .0282645
721.092 .0282443
721.823 .0282238
722.554 .0282031
723.284 .0281823
724.014 .0281609
724.744 .0281386
725.474 .0281151
726.204 .0280910
726.933 .0280665
727.662 .0280416
728.391 .0280168
729.120 .0279929
729.849 .0279700
730.577 .0279479
731.305 .0279263
732.033 .0279049
732.760 .0278835
733.488 .0278618
734.215 .0278400
734.942 .0278177
735.669 .0277952
736.395 .0277733
737.122 .0277513
737.848 .0277303
738.573 .0277100
739.299 .0276901
740.024 .0276709
740.750 .0276521
741.474 .0276335
742.199 .0276149
742.924 .0275974
743.648 .0275806
744.372 .0275640
745.096 .0275491
745.819 .0275352
746.543 .0275215
747.266 .0275088
747.989 .0274969
748.711 .0274854
749.434 .0274744
750.156 .0274639
750.878 .0274534
751.599 .0274437
752.321 .0274349
753.042 .0274262
753.763 .0274183
754.484 .0274114
755.205 .0274043
755.925 .0273975
756.645 .0273912
757.365 .0273842
758.085 .0273766
758.804 .0273688
759.523 .0273597
760.242 .0273497
760.961 .0273389
761.679 .0273275
762.397 .0273155
763.115 .0273036
763.833 .0272909
764.551 .0272777
765.268 .0272643
765.985 .0272502
766.702 .0272353
767.418 .0272199
768.134 .0272034
768.850 .0271866
769.566 .0271694
770.282 .0271519
770.997 .0271350
771.712 .0271192
772.427 .0271043
773.142 .0270909
773.856 .0270788
774.570 .0270680
775.284 .0270578
775.998 .0270480
776.711 .0270379
777.424 .0270273
778.137 .0270164
778.849 .0270045
779.562 .0269925
780.274 .0269808
780.986 .0269694
781.697 .0269588
782.409 .0269493
783.120 .0269405
783.831 .0269322
784.541 .0269245
785.252 .0269168
785.962 .0269090
786.671 .0269011
787.381 .0268930
788.090 .0268851
788.799 .0268773
789.508 .0268700
790.217 .0268627
790.925 .0268561
791.633 .0268497
792.341 .0268434
793.048 .0268373
793.755 .0268313
794.462 .0268254
795.169 .0268195
795.875 .0268139
796.581 .0268084
797.287 .0268023
797.993 .0267962
798.698 .0267896
799.403 .0267824
800.108 .0267744
800.812 .0267659
801.517 .0267567
802.221 .0267478
802.924 .0267387
803.628 .0267296
804.331 .0267211
805.034 .0267132
805.736 .0267053
806.439 .0266978
807.141 .0266907
807.843 .0266839
808.544 .0266766
809.245 .0266691
809.946 .0266612
810.647 .0266532
811.347 .0266451
812.047 .0266370
812.747 .0266294
813.447 .0266226
814.146 .0266159
814.845 .0266100
815.543 .0266043
816.242 .0265986
816.940 .0265920
817.638 .0265842
818.335 .0265747
819.032 .0265635
819.729 .0265505
820.426 .0265359
821.122 .0265202
821.818 .0265036
822.514 .0264865
823.209 .0264694
823.905 .0264526
824.599 .0264357
825.294 .0264184
825.988 .0264006
826.682 .0263819
827.376 .0263625
828.069 .0263424
828.762 .0263219
829.455 .0263016
830.147 .0262819
830.840 .0262628
831.531 .0262448
832.223 .0262282
832.914 .0262127
833.605 .0261975
834.296 .0261825
834.986 .0261668
835.676 .0261505
836.366 .0261336
837.055 .0261160
837.744 .0260978
838.433 .0260795
839.121 .0260605
839.809 .0260411
840.497 .0260215
841.185 .0260015
841.872 .0259811
842.559 .0259606
843.245 .0259395
843.932 .0259185
844.617 .0258981
845.303 .0258782
845.988 .0258595
846.673 .0258422
847.358 .0258258
848.042 .0258100
848.726 .0257953
849.410 .0257809
850.093 .0257663
850.776 .0257524
851.459 .0257384
852.141 .0257244
852.823 .0257109
853.505 .0256979
854.186 .0256855
854.867 .0256739
855.548 .0256627
856.228 .0256513
856.908 .0256401
857.588 .0256285
858.267 .0256160
858.946 .0256029
859.625 .0255892
860.303 .0255746
860.981 .0255592
861.659 .0255435
862.336 .0255273
863.013 .0255113
863.690 .0254956
864.366 .0254802
865.042 .0254651
865.718 .0254499
866.393 .0254346
867.068 .0254186
867.743 .0254018
868.417 .0253840
869.091 .0253654
869.765 .0253468
870.438 .0253280
871.111 .0253100
871.783 .0252934
872.456 .0252778
873.127 .0252631
873.799 .0252488
874.470 .0252343
875.141 .0252193
875.811 .0252033
876.481 .0251859
877.151 .0251678
877.820 .0251495
878.489 .0251318
879.158 .0251148
879.826 .0250992
880.494 .0250848
881.162 .0250707
881.829 .0250570
882.496 .0250427
883.163 .0250267
883.829 .0250098
884.495 .0249916
885.160 .0249733
885.825 .0249556
886.490 .0249390
887.154 .0249244
887.818 .0249117
888.482 .0249009
889.145 .0248911
889.808 .0248819
890.471 .0248729
891.133 .0248633
891.795 .0248533
892.456 .0248434
893.117 .0248342
893.778 .0248264
894.439 .0248206
895.099 .0248167
895.758 .0248149
896.417 .0248146
897.076 .0248150
897.735 .0248154
898.393 .0248147
899.051 .0248126
899.708 .0248087
900.365 .0248035
901.022 .0247980
901.678 .0247920
902.334 .0247861
902.990 .0247800
903.645 .0247737
904.300 .0247668
904.954 .0247590
905.608 .0247500
906.262 .0247404
906.915 .0247300
907.568 .0247185
908.221 .0247068
908.873 .0246956
909.525 .0246856
910.176 .0246765
910.828 .0246687
911.478 .0246622
912.129 .0246564
912.778 .0246515
913.428 .0246476
914.077 .0246450
914.726 .0246435
915.375 .0246429
916.023 .0246433
916.670 .0246449
917.318 .0246475
917.964 .0246505
918.611 .0246542
919.257 .0246581
919.903 .0246613
920.548 .0246637
921.193 .0246660
921.838 .0246681
922.482 .0246705
923.126 .0246731
923.770 .0246762
924.413 .0246798
925.056 .0246840
925.698 .0246885
926.340 .0246930
926.982 .0246974
927.623 .0247011
928.264 .0247035
928.904 .0247051
929.544 .0247048
930.184 .0247028
930.823 .0246992
931.462 .0246943
932.101 .0246879
932.739 .0246798
933.377 .0246700
934.014 .0246591
934.651 .0246476
935.288 .0246351
935.924 .0246222
936.560 .0246094
937.196 .0245968
937.831 .0245844
938.466 .0245722
939.100 .0245604
939.734 .0245491
940.368 .0245389
941.001 .0245293
941.634 .0245206
942.266 .0245130
942.899 .0245059
943.530 .0244991
944.162 .0244925
944.793 .0244855
945.423 .0244773
946.053 .0244682
946.683 .0244580
947.313 .0244467
947.942 .0244347
948.571 .0244220
949.199 .0244094
949.827 .0243964
950.455 .0243836
951.082 .0243705
951.709 .0243581
952.335 .0243462
952.961 .0243344
953.587 .0243235
954.212 .0243133
954.837 .0243036
955.462 .0242943
956.086 .0242861
956.710 .0242792
957.334 .0242729
957.957 .0242675
958.579 .0242628
959.202 .0242587
959.824 .0242547
960.445 .0242506
961.067 .0242462
961.688 .0242419
962.308 .0242376
962.928 .0242330
963.548 .0242288
964.168 .0242249
964.787 .0242211
965.406 .0242173
966.024 .0242136
966.642 .0242092
967.260 .0242037
967.877 .0241976
968.494 .0241903
969.110 .0241821
969.727 .0241732
970.342 .0241637
970.958 .0241545
971.573 .0241454
972.188 .0241369
972.802 .0241289
973.416 .0241218
974.030 .0241153
974.643 .0241093
975.256 .0241039
975.869 .0240989
976.481 .0240940
977.093 .0240894
977.705 .0240851
978.316 .0240810
978.927 .0240773
979.538 .0240737
980.148 .0240702
980.758 .0240670
981.367 .0240636
981.977 .0240603
982.586 .0240565
983.194 .0240523
983.802 .0240476
984.410 .0240420
985.018 .0240353
985.625 .0240279
986.232 .0240200
986.838 .0240118
987.445 .0240033
988.050 .0239946
988.656 .0239856
989.261 .0239769
989.866 .0239677
990.471 .0239580
991.075 .0239480
991.679 .0239375
992.282 .0239269
992.886 .0239168
993.489 .0239072
994.091 .0238987
994.694 .0238912
995.296 .0238849
995.897 .0238790
996.499 .0238735
997.100 .0238680
997.701 .0238624
998.301 .0238572
998.901 .0238522
999.501 .0238476
1000.101 .0238442
1000.700 .0238420
1001.299 .0238409
1001.898 .0238404
1002.496 .0238399
1003.094 .0238389
1003.692 .0238370
1004.289 .0238338
1004.887 .0238293
1005.484 .0238233
1006.080 .0238162
1006.677 .0238081
1007.273 .0237991
1007.868 .0237899
1008.464 .0237797
1009.059 .0237694
1009.654 .0237580
1010.249 .0237456
1010.843 .0237326
1011.437 .0237189
1012.031 .0237053
1012.625 .0236922
1013.218 .0236800
1013.811 .0236688
1014.404 .0236588
1014.997 .0236512
1015.589 .0236452
1016.181 .0236413
1016.773 .0236387
1017.365 .0236375
1017.956 .0236370
1018.547 .0236373
1019.138 .0236378
1019.728 .0236387
1020.319 .0236399
1020.909 .0236410
1021.499 .0236418
1022.088 .0236422
1022.678 .0236421
1023.267 .0236408
1023.856 .0236385
1024.445 .0236351
1025.033 .0236297
1025.621 .0236230
1026.209 .0236149
1026.797 .0236057
1027.385 .0235961
1027.972 .0235866
1028.560 .0235771
1029.147 .0235680
1029.734 .0235600
1030.320 .0235531
1030.907 .0235471
1031.493 .0235428
1032.079 .0235395
1032.665 .0235367
1033.250 .0235340
1033.836 .0235304
1034.421 .0235254
1035.006 .0235191
1035.591 .0235115
1036.176 .0235023
1036.761 .0234923
1037.345 .0234819
1037.929 .0234705
1038.514 .0234590
1039.097 .0234478
1039.681 .0234363
1040.265 .0234238
1040.848 .0234107
1041.432 .0233954
1042.015 .0233785
1042.598 .0233602
1043.181 .0233409
1043.764 .0233224
1044.346 .0233052
1044.929 .0232892
1045.511 .0232748
1046.094 .0232627
1046.676 .0232528
1047.258 .0232438
1047.840 .0232362
1048.422 .0232286
1049.003 .0232204
1049.585 .0232118
1050.166 .0232024
1050.748 .0231926
1051.329 .0231835
1051.910 .0231740
1052.491 .0231645
1053.072 .0231557
1053.653 .0231462
1054.234 .0231371
1054.815 .0231281
1055.396 .0231192
1055.976 .0231096
1056.557 .0230982
1057.138 .0230856
1057.718 .0230715
1058.298 .0230566
1058.879 .0230412
1059.459 .0230259
1060.039 .0230119
1060.620 .0229981
1061.200 .0229848
1061.780 .0229726
1062.360 .0229609
1062.940 .0229510
1063.520 .0229419
1064.101 .0229333
1064.681 .0229266
1065.261 .0229213
1065.841 .0229176
1066.421 .0229172
1067.001 .0229186
1067.581 .0229212
1068.161 .0229247
1068.741 .0229287
1069.321 .0229322
1069.901 .0229356
1070.482 .0229381
1071.062 .0229392
1071.642 .0229385
1072.222 .0229363
1072.803 .0229305
1073.383 .0229235
1073.963 .0229146
1074.544 .0229037
1075.124 .0228923
1075.705 .0228808
1076.286 .0228688
1076.866 .0228575
1077.447 .0228464
1078.028 .0228348
1078.609 .0228221
1079.190 .0228077
1079.771 .0227918
1080.352 .0227750
1080.934 .0227585
1081.515 .0227440
1082.097 .0227322
1082.679 .0227259
1083.260 .0227235
1083.842 .0227241
1084.424 .0227277
1085.007 .0227302
1085.589 .0227315
1086.172 .0227288
1086.754 .0227236
1087.337 .0227164
1087.920 .0227101
1088.503 .0227060
1089.087 .0227046
1089.670 .0227062
1090.254 .0227110
1090.838 .0227152
1091.422 .0227192
1092.006 .0227204
1092.590 .0227171
1093.175 .0227093
1093.760 .0226995
1094.345 .0226869
1094.930 .0226761
1095.516 .0226670
1096.102 .0226617
1096.688 .0226589
1097.274 .0226591
1097.860 .0226597
1098.447 .0226602
1099.034 .0226609
1099.622 .0226618
1100.209 .0226627
1100.797 .0226653
1101.385 .0226680
1101.973 .0226742
1102.562 .0226816
1103.151 .0226906
1103.740 .0226995
1104.330 .0227063
1104.920 .0227093
1105.510 .0227088
1106.101 .0227033
1106.691 .0226956
1107.283 .0226873
1107.874 .0226801
1108.466 .0226752
1109.058 .0226753
1109.651 .0226782
1110.244 .0226837
1110.837 .0226931
1111.431 .0227035
1112.025 .0227108
1112.620 .0227171
1113.215 .0227223
1113.810 .0227294
1114.406 .0227400
1115.002 .0227541
1115.599 .0227706
1116.196 .0227926
1116.793 .0228159
1117.391 .0228378
1117.989 .0228568
1118.588 .0228733
1119.187 .0228860
1119.787 .0228948
1120.387 .0229018
1120.988 .0229071
1121.589 .0229131
1122.190 .0229227
1122.793 .0229325
1123.395 .0229437
1123.998 .0229551
1124.602 .0229719
1125.206 .0229924
1125.811 .0230203
1126.416 .0230555
1127.022 .0230951
1127.628 .0231416
1128.235 .0231910
1128.843 .0232393
1129.451 .0232844
1130.059 .0233243
1130.669 .0233595
1131.278 .0233899
1131.889 .0234220
1132.500 .0234535
1133.112 .0234926
1133.724 .0235405
1134.337 .0235912
1134.950 .0236423
1135.564 .0236942
1136.179 .0237432
1136.795 .0237896
1137.411 .0238315
1138.028 .0238684
1138.645 .0239027
1139.263 .0239438
1139.882 .0239858
1140.502 .0240330
1141.122 .0240821
1141.743 .0241404
1142.365 .0241829
1142.987 .0242722
1143.611 .0243602
1144.235 .0242762
1144.859 .0245266
1145.485 .0240714
