Measurement Sequence started on: 10-20-44-796
Integration time: 35
Scans to Average: 2 
>>>>>Begin Spectral Data<<<<<
432.953 .0289479
433.882 .0370554
434.810 .0365942
435.737 .0406461
436.662 .0403646
437.586 .0394568
438.509 .0400004
439.431 .0401606
440.351 .0402458
441.269 .0401870
442.187 .0401294
443.103 .0400459
444.018 .0399662
444.932 .0398656
445.844 .0397436
446.756 .0395859
447.666 .0394493
448.575 .0393167
449.482 .0391991
450.388 .0391129
451.294 .0390624
452.198 .0390391
453.100 .0390331
454.002 .0390404
454.902 .0390487
455.801 .0390594
456.699 .0390656
457.596 .0390521
458.492 .0390362
459.387 .0390246
460.280 .0390131
461.172 .0389914
462.064 .0389719
462.954 .0389434
463.843 .0389016
464.730 .0388457
465.617 .0387755
466.503 .0386976
467.387 .0386081
468.271 .0385107
469.153 .0384108
470.035 .0383118
470.915 .0382146
471.794 .0381141
472.673 .0380176
473.550 .0379251
474.426 .0378419
475.301 .0377687
476.175 .0377092
477.048 .0376608
477.920 .0376217
478.791 .0375841
479.661 .0375459
480.530 .0375046
481.398 .0374506
482.266 .0373906
483.132 .0373312
483.997 .0372731
484.861 .0372250
485.724 .0371892
486.587 .0371670
487.448 .0371553
488.308 .0371488
489.168 .0371376
490.026 .0371189
490.884 .0370940
491.741 .0370571
492.597 .0370070
493.452 .0369586
494.306 .0369091
495.159 .0368619
496.011 .0368202
496.862 .0367826
497.713 .0367388
498.562 .0366848
499.411 .0366133
500.259 .0365256
501.106 .0364225
501.952 .0363069
502.798 .0361778
503.642 .0360406
504.486 .0358984
505.329 .0357503
506.171 .0355985
507.012 .0354525
507.852 .0353004
508.692 .0351489
509.531 .0349966
510.369 .0348533
511.206 .0347125
512.043 .0345830
512.878 .0344641
513.713 .0343504
514.547 .0342394
515.381 .0341325
516.213 .0340219
517.045 .0339125
517.876 .0337947
518.706 .0336745
519.536 .0335489
520.365 .0334291
521.193 .0333076
522.020 .0331984
522.847 .0330971
523.673 .0329985
524.498 .0328903
525.323 .0327780
526.146 .0326505
526.969 .0325185
527.792 .0323747
528.614 .0322240
529.435 .0320736
530.255 .0319336
531.075 .0317994
531.894 .0316848
532.712 .0315831
533.530 .0314889
534.347 .0313871
535.163 .0312771
535.979 .0311521
536.794 .0310302
537.608 .0309140
538.422 .0308113
539.235 .0307250
540.048 .0306662
540.860 .0306313
541.671 .0306287
542.481 .0306459
543.292 .0306712
544.101 .0306913
544.910 .0307065
545.718 .0307064
546.526 .0306993
547.333 .0306933
548.139 .0306983
548.945 .0307165
549.750 .0307436
550.555 .0307770
551.359 .0308184
552.162 .0308609
552.965 .0308962
553.768 .0309105
554.569 .0309119
555.371 .0308994
556.171 .0308804
556.972 .0308638
557.771 .0308554
558.570 .0308624
559.369 .0308868
560.167 .0309263
560.964 .0309775
561.761 .0310357
562.558 .0310998
563.354 .0311686
564.149 .0312380
564.944 .0313102
565.738 .0313873
566.532 .0314732
567.325 .0315670
568.118 .0316614
568.910 .0317562
569.702 .0318524
570.494 .0319482
571.285 .0320388
572.075 .0321256
572.865 .0322139
573.654 .0322980
574.443 .0323804
575.232 .0324617
576.020 .0325373
576.807 .0326070
577.594 .0326681
578.381 .0327182
579.167 .0327606
579.952 .0327991
580.738 .0328339
581.522 .0328699
582.307 .0329082
583.091 .0329497
583.874 .0329912
584.657 .0330336
585.440 .0330710
586.222 .0331011
587.004 .0331245
587.785 .0331403
588.566 .0331493
589.346 .0331542
590.126 .0331575
590.906 .0331623
591.685 .0331674
592.464 .0331716
593.242 .0331758
594.020 .0331779
594.797 .0331769
595.575 .0331713
596.351 .0331608
597.128 .0331476
597.904 .0331319
598.679 .0331142
599.454 .0330946
600.229 .0330747
601.004 .0330548
601.778 .0330327
602.551 .0330104
603.325 .0329876
604.097 .0329635
604.870 .0329395
605.642 .0329148
606.414 .0328881
607.185 .0328598
607.956 .0328302
608.727 .0327998
609.497 .0327695
610.267 .0327394
611.037 .0327109
611.806 .0326841
612.575 .0326587
613.344 .0326335
614.112 .0326083
614.880 .0325828
615.647 .0325542
616.414 .0325236
617.181 .0324907
617.948 .0324566
618.714 .0324235
619.480 .0323922
620.245 .0323650
621.011 .0323405
621.775 .0323184
622.540 .0322968
623.304 .0322753
624.068 .0322528
624.832 .0322281
625.595 .0322033
626.358 .0321781
627.120 .0321537
627.883 .0321305
628.645 .0321103
629.406 .0320921
630.168 .0320758
630.929 .0320603
631.689 .0320443
632.450 .0320270
633.210 .0320081
633.970 .0319884
634.729 .0319697
635.489 .0319522
636.248 .0319370
637.006 .0319242
637.765 .0319153
638.523 .0319075
639.280 .0319012
640.038 .0318945
640.795 .0318876
641.552 .0318795
642.309 .0318697
643.065 .0318582
643.821 .0318464
644.577 .0318344
645.332 .0318222
646.088 .0318089
646.843 .0317947
647.597 .0317791
648.352 .0317631
649.106 .0317456
649.860 .0317269
650.613 .0317082
651.367 .0316896
652.120 .0316710
652.872 .0316531
653.625 .0316350
654.377 .0316174
655.129 .0315999
655.881 .0315824
656.632 .0315650
657.384 .0315472
658.135 .0315302
658.885 .0315135
659.636 .0314975
660.386 .0314810
661.136 .0314636
661.885 .0314451
662.635 .0314253
663.384 .0314031
664.133 .0313789
664.881 .0313537
665.630 .0313281
666.378 .0313041
667.126 .0312814
667.874 .0312613
668.621 .0312430
669.368 .0312256
670.115 .0312093
670.862 .0311923
671.608 .0311746
672.354 .0311563
673.100 .0311378
673.846 .0311196
674.591 .0311015
675.337 .0310843
676.082 .0310681
676.826 .0310526
677.571 .0310374
678.315 .0310212
679.059 .0310035
679.803 .0309848
680.547 .0309643
681.290 .0309430
682.033 .0309202
682.776 .0308953
683.518 .0308692
684.261 .0308412
685.003 .0308118
685.745 .0307810
686.487 .0307495
687.228 .0307189
687.969 .0306888
688.710 .0306591
689.451 .0306310
690.192 .0306047
690.932 .0305789
691.672 .0305529
692.412 .0305266
693.152 .0304994
693.891 .0304709
694.630 .0304422
695.369 .0304129
696.108 .0303841
696.846 .0303562
697.585 .0303285
698.323 .0303016
699.061 .0302753
699.798 .0302479
700.536 .0302198
701.273 .0301910
702.010 .0301619
702.746 .0301316
703.483 .0301024
704.219 .0300747
704.955 .0300481
705.691 .0300228
706.427 .0299988
707.162 .0299761
707.897 .0299552
708.632 .0299348
709.367 .0299153
710.101 .0298970
710.835 .0298800
711.569 .0298640
712.303 .0298491
713.037 .0298363
713.770 .0298248
714.503 .0298137
715.236 .0298033
715.969 .0297929
716.702 .0297828
717.434 .0297720
718.166 .0297607
718.898 .0297492
719.629 .0297364
720.361 .0297230
721.092 .0297088
721.823 .0296944
722.554 .0296800
723.284 .0296651
724.014 .0296489
724.744 .0296320
725.474 .0296144
726.204 .0295960
726.933 .0295772
727.662 .0295584
728.391 .0295400
729.120 .0295212
729.849 .0295034
730.577 .0294866
731.305 .0294698
732.033 .0294547
732.760 .0294402
733.488 .0294273
734.215 .0294153
734.942 .0294042
735.669 .0293942
736.395 .0293852
737.122 .0293770
737.848 .0293678
738.573 .0293581
739.299 .0293482
740.024 .0293371
740.750 .0293252
741.474 .0293133
742.199 .0293021
742.924 .0292916
743.648 .0292820
744.372 .0292733
745.096 .0292658
745.819 .0292580
746.543 .0292504
747.266 .0292418
747.989 .0292326
748.711 .0292226
749.434 .0292127
750.156 .0292036
750.878 .0291960
751.599 .0291900
752.321 .0291853
753.042 .0291814
753.763 .0291781
754.484 .0291736
755.205 .0291687
755.925 .0291631
756.645 .0291565
757.365 .0291495
758.085 .0291424
758.804 .0291351
759.523 .0291275
760.242 .0291189
760.961 .0291088
761.679 .0290964
762.397 .0290813
763.115 .0290637
763.833 .0290437
764.551 .0290228
765.268 .0290014
765.985 .0289799
766.702 .0289589
767.418 .0289378
768.134 .0289163
768.850 .0288939
769.566 .0288697
770.282 .0288443
770.997 .0288172
771.712 .0287895
772.427 .0287617
773.142 .0287343
773.856 .0287077
774.570 .0286818
775.284 .0286559
775.998 .0286293
776.711 .0286021
777.424 .0285742
778.137 .0285456
778.849 .0285174
779.562 .0284899
780.274 .0284633
780.986 .0284380
781.697 .0284142
782.409 .0283915
783.120 .0283699
783.831 .0283495
784.541 .0283300
785.252 .0283122
785.962 .0282961
786.671 .0282820
787.381 .0282694
788.090 .0282581
788.799 .0282461
789.508 .0282325
790.217 .0282167
790.925 .0281981
791.633 .0281765
792.341 .0281534
793.048 .0281291
793.755 .0281047
794.462 .0280810
795.169 .0280586
795.875 .0280368
796.581 .0280155
797.287 .0279936
797.993 .0279710
798.698 .0279477
799.403 .0279241
800.108 .0279004
800.812 .0278786
801.517 .0278585
802.221 .0278412
802.924 .0278260
803.628 .0278130
804.331 .0278006
805.034 .0277887
805.736 .0277761
806.439 .0277624
807.141 .0277470
807.843 .0277309
808.544 .0277139
809.245 .0276975
809.946 .0276808
810.647 .0276647
811.347 .0276492
812.047 .0276344
812.747 .0276193
813.447 .0276045
814.146 .0275894
814.845 .0275746
815.543 .0275593
816.242 .0275442
816.940 .0275293
817.638 .0275151
818.335 .0275013
819.032 .0274883
819.729 .0274761
820.426 .0274644
821.122 .0274526
821.818 .0274413
822.514 .0274296
823.209 .0274173
823.905 .0274041
824.599 .0273899
825.294 .0273743
825.988 .0273574
826.682 .0273392
827.376 .0273200
828.069 .0273004
828.762 .0272802
829.455 .0272597
830.147 .0272397
830.840 .0272205
831.531 .0272023
832.223 .0271858
832.914 .0271709
833.605 .0271570
834.296 .0271437
834.986 .0271312
835.676 .0271193
836.366 .0271075
837.055 .0270961
837.744 .0270849
838.433 .0270745
839.121 .0270651
839.809 .0270571
840.497 .0270511
841.185 .0270465
841.872 .0270431
842.559 .0270404
843.245 .0270376
843.932 .0270342
844.617 .0270301
845.303 .0270250
845.988 .0270192
846.673 .0270129
847.358 .0270063
848.042 .0270008
848.726 .0269970
849.410 .0269945
850.093 .0269927
850.776 .0269919
851.459 .0269911
852.141 .0269889
852.823 .0269857
853.505 .0269812
854.186 .0269756
854.867 .0269699
855.548 .0269643
856.228 .0269596
856.908 .0269566
857.588 .0269556
858.267 .0269562
858.946 .0269582
859.625 .0269610
860.303 .0269640
860.981 .0269672
861.659 .0269711
862.336 .0269749
863.013 .0269784
863.690 .0269823
864.366 .0269857
865.042 .0269884
865.718 .0269910
866.393 .0269925
867.068 .0269925
867.743 .0269910
868.417 .0269878
869.091 .0269827
869.765 .0269756
870.438 .0269673
871.111 .0269578
871.783 .0269470
872.456 .0269354
873.127 .0269226
873.799 .0269098
874.470 .0268968
875.141 .0268841
875.811 .0268720
876.481 .0268604
877.151 .0268494
877.820 .0268387
878.489 .0268285
879.158 .0268187
879.826 .0268086
880.494 .0267986
881.162 .0267886
881.829 .0267785
882.496 .0267675
883.163 .0267566
883.829 .0267457
884.495 .0267346
885.160 .0267233
885.825 .0267125
886.490 .0267024
887.154 .0266928
887.818 .0266843
888.482 .0266765
889.145 .0266690
889.808 .0266619
890.471 .0266545
891.133 .0266473
891.795 .0266403
892.456 .0266339
893.117 .0266274
893.778 .0266221
894.439 .0266170
895.099 .0266115
895.758 .0266055
896.417 .0265997
897.076 .0265928
897.735 .0265849
898.393 .0265759
899.051 .0265663
899.708 .0265554
900.365 .0265437
901.022 .0265313
901.678 .0265191
902.334 .0265069
902.990 .0264950
903.645 .0264834
904.300 .0264729
904.954 .0264629
905.608 .0264527
906.262 .0264422
906.915 .0264316
907.568 .0264198
908.221 .0264071
908.873 .0263931
909.525 .0263786
910.176 .0263633
910.828 .0263473
911.478 .0263311
912.129 .0263139
912.778 .0262959
913.428 .0262765
914.077 .0262560
914.726 .0262349
915.375 .0262135
916.023 .0261922
916.670 .0261724
917.318 .0261541
917.964 .0261376
918.611 .0261227
919.257 .0261100
919.903 .0260990
920.548 .0260891
921.193 .0260803
921.838 .0260728
922.482 .0260664
923.126 .0260612
923.770 .0260560
924.413 .0260511
925.056 .0260453
925.698 .0260377
926.340 .0260276
926.982 .0260149
927.623 .0260003
928.264 .0259836
928.904 .0259648
929.544 .0259445
930.184 .0259227
930.823 .0258993
931.462 .0258745
932.101 .0258477
932.739 .0258191
933.377 .0257889
934.014 .0257574
934.651 .0257255
935.288 .0256936
935.924 .0256626
936.560 .0256322
937.196 .0256023
937.831 .0255731
938.466 .0255436
939.100 .0255150
939.734 .0254871
940.368 .0254598
941.001 .0254333
941.634 .0254079
942.266 .0253835
942.899 .0253601
943.530 .0253373
944.162 .0253144
944.793 .0252912
945.423 .0252671
946.053 .0252422
946.683 .0252169
947.313 .0251918
947.942 .0251674
948.571 .0251428
949.199 .0251182
949.827 .0250928
950.455 .0250661
951.082 .0250388
951.709 .0250103
952.335 .0249813
952.961 .0249522
953.587 .0249237
954.212 .0248962
954.837 .0248700
955.462 .0248458
956.086 .0248233
956.710 .0248023
957.334 .0247822
957.957 .0247623
958.579 .0247428
959.202 .0247238
959.824 .0247051
960.445 .0246871
961.067 .0246702
961.688 .0246551
962.308 .0246413
962.928 .0246294
963.548 .0246183
964.168 .0246077
964.787 .0245969
965.406 .0245860
966.024 .0245742
966.642 .0245619
967.260 .0245487
967.877 .0245351
968.494 .0245217
969.110 .0245084
969.727 .0244954
970.342 .0244829
970.958 .0244703
971.573 .0244579
972.188 .0244445
972.802 .0244311
973.416 .0244176
974.030 .0244047
974.643 .0243926
975.256 .0243813
975.869 .0243712
976.481 .0243623
977.093 .0243555
977.705 .0243503
978.316 .0243458
978.927 .0243418
979.538 .0243378
980.148 .0243330
980.758 .0243283
981.367 .0243236
981.977 .0243197
982.586 .0243171
983.194 .0243148
983.802 .0243130
984.410 .0243116
985.018 .0243104
985.625 .0243097
986.232 .0243086
986.838 .0243077
987.445 .0243062
988.050 .0243050
988.656 .0243040
989.261 .0243032
989.866 .0243023
990.471 .0243009
991.075 .0242983
991.679 .0242950
992.282 .0242898
992.886 .0242834
993.489 .0242775
994.091 .0242718
994.694 .0242672
995.296 .0242639
995.897 .0242620
996.499 .0242621
997.100 .0242626
997.701 .0242632
998.301 .0242630
998.901 .0242634
999.501 .0242643
1000.101 .0242655
1000.700 .0242689
1001.299 .0242738
1001.898 .0242803
1002.496 .0242882
1003.094 .0242965
1003.692 .0243046
1004.289 .0243115
1004.887 .0243173
1005.484 .0243221
1006.080 .0243260
1006.677 .0243294
1007.273 .0243331
1007.868 .0243376
1008.464 .0243428
1009.059 .0243476
1009.654 .0243519
1010.249 .0243572
1010.843 .0243625
1011.437 .0243691
1012.031 .0243758
1012.625 .0243844
1013.218 .0243947
1013.811 .0244066
1014.404 .0244197
1014.997 .0244335
1015.589 .0244469
1016.181 .0244591
1016.773 .0244689
1017.365 .0244777
1017.956 .0244849
1018.547 .0244927
1019.138 .0245015
1019.728 .0245131
1020.319 .0245271
1020.909 .0245444
1021.499 .0245630
1022.088 .0245840
1022.678 .0246037
1023.267 .0246211
1023.856 .0246348
1024.445 .0246456
1025.033 .0246528
1025.621 .0246583
1026.209 .0246637
1026.797 .0246698
1027.385 .0246761
1027.972 .0246833
1028.560 .0246892
1029.147 .0246942
1029.734 .0246968
1030.320 .0246960
1030.907 .0246931
1031.493 .0246892
1032.079 .0246847
1032.665 .0246822
1033.250 .0246841
1033.836 .0246893
1034.421 .0246966
1035.006 .0247056
1035.591 .0247140
1036.176 .0247206
1036.761 .0247254
1037.345 .0247280
1037.929 .0247304
1038.514 .0247334
1039.097 .0247378
1039.681 .0247444
1040.265 .0247544
1040.848 .0247663
1041.432 .0247789
1042.015 .0247923
1042.598 .0248050
1043.181 .0248149
1043.764 .0248239
1044.346 .0248321
1044.929 .0248396
1045.511 .0248474
1046.094 .0248555
1046.676 .0248655
1047.258 .0248769
1047.840 .0248895
1048.422 .0249038
1049.003 .0249188
1049.585 .0249339
1050.166 .0249463
1050.748 .0249543
1051.329 .0249577
1051.910 .0249550
1052.491 .0249468
1053.072 .0249344
1053.653 .0249196
1054.234 .0249041
1054.815 .0248906
1055.396 .0248800
1055.976 .0248738
1056.557 .0248695
1057.138 .0248671
1057.718 .0248637
1058.298 .0248581
1058.879 .0248508
1059.459 .0248410
1060.039 .0248315
1060.620 .0248234
1061.200 .0248173
1061.780 .0248136
1062.360 .0248125
1062.940 .0248146
1063.520 .0248180
1064.101 .0248207
1064.681 .0248215
1065.261 .0248196
1065.841 .0248139
1066.421 .0248054
1067.001 .0247945
1067.581 .0247825
1068.161 .0247705
1068.741 .0247564
1069.321 .0247419
1069.901 .0247289
1070.482 .0247174
1071.062 .0247079
1071.642 .0247011
1072.222 .0246964
1072.803 .0246927
1073.383 .0246903
1073.963 .0246897
1074.544 .0246912
1075.124 .0246942
1075.705 .0246971
1076.286 .0246988
1076.866 .0246998
1077.447 .0246984
1078.028 .0246964
1078.609 .0246954
1079.190 .0246953
1079.771 .0246939
1080.352 .0246923
1080.934 .0246916
1081.515 .0246931
1082.097 .0246976
1082.679 .0247043
1083.260 .0247128
1083.842 .0247227
1084.424 .0247291
1085.007 .0247328
1085.589 .0247329
1086.172 .0247312
1086.754 .0247268
1087.337 .0247213
1087.920 .0247167
1088.503 .0247143
1089.087 .0247137
1089.670 .0247158
1090.254 .0247186
1090.838 .0247195
1091.422 .0247151
1092.006 .0247035
1092.590 .0246864
1093.175 .0246678
1093.760 .0246494
1094.345 .0246346
1094.930 .0246221
1095.516 .0246149
1096.102 .0246107
1096.688 .0246084
1097.274 .0246075
1097.860 .0246038
1098.447 .0245970
1099.034 .0245886
1099.622 .0245771
1100.209 .0245644
1100.797 .0245521
1101.385 .0245414
1101.973 .0245326
1102.562 .0245258
1103.151 .0245169
1103.740 .0245077
1104.330 .0245008
1104.920 .0244978
1105.510 .0244970
1106.101 .0245011
1106.691 .0245095
1107.283 .0245199
1107.874 .0245309
1108.466 .0245405
1109.058 .0245465
1109.651 .0245527
1110.244 .0245581
1110.837 .0245606
1111.431 .0245650
1112.025 .0245690
1112.620 .0245712
1113.215 .0245727
1113.810 .0245707
1114.406 .0245634
1115.002 .0245494
1115.599 .0245313
1116.196 .0245073
1116.793 .0244798
1117.391 .0244521
1117.989 .0244203
1118.588 .0243880
1119.187 .0243550
1119.787 .0243210
1120.387 .0242849
1120.988 .0242531
1121.589 .0242243
1122.190 .0242025
1122.793 .0241882
1123.395 .0241817
1123.998 .0241823
1124.602 .0241896
1125.206 .0242020
1125.811 .0242151
1126.416 .0242297
1127.022 .0242465
1127.628 .0242587
1128.235 .0242759
1128.843 .0242985
1129.451 .0243305
1130.059 .0243691
1130.669 .0244190
1131.278 .0244789
1131.889 .0245464
1132.500 .0246190
1133.112 .0246919
1133.724 .0247624
1134.337 .0248274
1134.950 .0248821
1135.564 .0249272
1136.179 .0249661
1136.795 .0250031
1137.411 .0250381
1138.028 .0250788
1138.645 .0251246
1139.263 .0251743
1139.882 .0252214
1140.502 .0252630
1141.122 .0253000
1141.743 .0253385
1142.365 .0253794
1142.987 .0252967
1143.611 .0252515
1144.235 .0253728
1144.859 .0257507
1145.485 .0258595
