Measurement Sequence started on: 10-20-44-796
Integration time: 35
Scans to Average: 2 
>>>>>Begin Spectral Data<<<<<
432.953 .0446211
433.882 .0394351
434.810 .0341609
435.737 .0329667
436.662 .0314362
437.586 .0346752
438.509 .0345845
439.431 .0349242
440.351 .0355376
441.269 .0362057
442.187 .0368834
443.103 .0374571
444.018 .0379617
444.932 .0384017
445.844 .0387416
446.756 .0390229
447.666 .0392409
448.575 .0393934
449.482 .0395150
450.388 .0396076
451.294 .0396787
452.198 .0397278
453.100 .0397549
454.002 .0397548
454.902 .0397276
455.801 .0396822
456.699 .0396134
457.596 .0395356
458.492 .0394600
459.387 .0393851
460.280 .0393215
461.172 .0392741
462.064 .0392361
462.954 .0392031
463.843 .0391720
464.730 .0391359
465.617 .0390954
466.503 .0390486
467.387 .0389942
468.271 .0389334
469.153 .0388750
470.035 .0388177
470.915 .0387606
471.794 .0387088
472.673 .0386636
473.550 .0386240
474.426 .0385967
475.301 .0385762
476.175 .0385615
477.048 .0385478
477.920 .0385319
478.791 .0385102
479.661 .0384825
480.530 .0384496
481.398 .0384125
482.266 .0383773
483.132 .0383453
483.997 .0383109
484.861 .0382831
485.724 .0382602
486.587 .0382412
487.448 .0382216
488.308 .0381996
489.168 .0381729
490.026 .0381412
490.884 .0381050
491.741 .0380641
492.597 .0380231
493.452 .0379836
494.306 .0379456
495.159 .0379113
496.011 .0378797
496.862 .0378467
497.713 .0378071
498.562 .0377638
499.411 .0377074
500.259 .0376386
501.106 .0375563
501.952 .0374635
502.798 .0373621
503.642 .0372532
504.486 .0371435
505.329 .0370317
506.171 .0369232
507.012 .0368165
507.852 .0367104
508.692 .0366058
509.531 .0364993
510.369 .0363903
511.206 .0362799
512.043 .0361735
512.878 .0360600
513.713 .0359454
514.547 .0358320
515.381 .0357164
516.213 .0356026
517.045 .0354891
517.876 .0353777
518.706 .0352615
519.536 .0351501
520.365 .0350358
521.193 .0349196
522.020 .0348038
522.847 .0346790
523.673 .0345419
524.498 .0343926
525.323 .0342274
526.146 .0340504
526.969 .0338687
527.792 .0336827
528.614 .0334905
529.435 .0333015
530.255 .0331007
531.075 .0328892
531.894 .0326663
532.712 .0324345
533.530 .0321898
534.347 .0319439
535.163 .0316966
535.979 .0314654
536.794 .0312560
537.608 .0310739
538.422 .0309180
539.235 .0307985
540.048 .0307053
540.860 .0306320
541.671 .0305765
542.481 .0305362
543.292 .0305021
544.101 .0304826
544.910 .0304729
545.718 .0304713
546.526 .0304790
547.333 .0305011
548.139 .0305306
548.945 .0305754
549.750 .0306221
550.555 .0306731
551.359 .0307273
552.162 .0307837
552.965 .0308346
553.768 .0308820
554.569 .0309341
555.371 .0309840
556.171 .0310343
556.972 .0310902
557.771 .0311444
558.570 .0312029
559.369 .0312652
560.167 .0313304
560.964 .0313988
561.761 .0314757
562.558 .0315531
563.354 .0316356
564.149 .0317193
564.944 .0318032
565.738 .0318858
566.532 .0319685
567.325 .0320477
568.118 .0321213
568.910 .0321890
569.702 .0322516
570.494 .0323090
571.285 .0323671
572.075 .0324227
572.865 .0324776
573.654 .0325306
574.443 .0325791
575.232 .0326229
576.020 .0326655
576.807 .0327034
577.594 .0327399
578.381 .0327738
579.167 .0328060
579.952 .0328379
580.738 .0328699
581.522 .0329002
582.307 .0329282
583.091 .0329546
583.874 .0329779
584.657 .0329968
585.440 .0330137
586.222 .0330289
587.004 .0330428
587.785 .0330568
588.566 .0330679
589.346 .0330759
590.126 .0330813
590.906 .0330837
591.685 .0330826
592.464 .0330790
593.242 .0330736
594.020 .0330666
594.797 .0330605
595.575 .0330551
596.351 .0330504
597.128 .0330477
597.904 .0330468
598.679 .0330464
599.454 .0330448
600.229 .0330423
601.004 .0330371
601.778 .0330292
602.551 .0330179
603.325 .0330031
604.097 .0329859
604.870 .0329679
605.642 .0329496
606.414 .0329321
607.185 .0329155
607.956 .0328999
608.727 .0328851
609.497 .0328707
610.267 .0328553
611.037 .0328381
611.806 .0328197
612.575 .0328003
613.344 .0327794
614.112 .0327570
614.880 .0327345
615.647 .0327122
616.414 .0326903
617.181 .0326679
617.948 .0326452
618.714 .0326219
619.480 .0325977
620.245 .0325718
621.011 .0325441
621.775 .0325149
622.540 .0324847
623.304 .0324537
624.068 .0324235
624.832 .0323932
625.595 .0323636
626.358 .0323349
627.120 .0323078
627.883 .0322812
628.645 .0322553
629.406 .0322295
630.168 .0322033
630.929 .0321763
631.689 .0321476
632.450 .0321163
633.210 .0320846
633.970 .0320517
634.729 .0320172
635.489 .0319812
636.248 .0319436
637.006 .0319042
637.765 .0318624
638.523 .0318191
639.280 .0317739
640.038 .0317277
640.795 .0316817
641.552 .0316358
642.309 .0315912
643.065 .0315485
643.821 .0315075
644.577 .0314684
645.332 .0314304
646.088 .0313928
646.843 .0313561
647.597 .0313207
648.352 .0312872
649.106 .0312561
649.860 .0312272
650.613 .0312010
651.367 .0311771
652.120 .0311544
652.872 .0311326
653.625 .0311108
654.377 .0310890
655.129 .0310659
655.881 .0310423
656.632 .0310182
657.384 .0309940
658.135 .0309706
658.885 .0309473
659.636 .0309236
660.386 .0309002
661.136 .0308762
661.885 .0308519
662.635 .0308283
663.384 .0308062
664.133 .0307862
664.881 .0307685
665.630 .0307529
666.378 .0307394
667.126 .0307274
667.874 .0307160
668.621 .0307044
669.368 .0306923
670.115 .0306797
670.862 .0306667
671.608 .0306541
672.354 .0306425
673.100 .0306322
673.846 .0306226
674.591 .0306127
675.337 .0306027
676.082 .0305915
676.826 .0305789
677.571 .0305648
678.315 .0305498
679.059 .0305338
679.803 .0305180
680.547 .0305031
681.290 .0304892
682.033 .0304764
682.776 .0304644
683.518 .0304523
684.261 .0304401
685.003 .0304280
685.745 .0304156
686.487 .0304031
687.228 .0303914
687.969 .0303797
688.710 .0303684
689.451 .0303568
690.192 .0303451
690.932 .0303322
691.672 .0303183
692.412 .0303030
693.152 .0302867
693.891 .0302695
694.630 .0302520
695.369 .0302339
696.108 .0302158
696.846 .0301976
697.585 .0301786
698.323 .0301583
699.061 .0301377
699.798 .0301164
700.536 .0300946
701.273 .0300730
702.010 .0300525
702.746 .0300331
703.483 .0300149
704.219 .0299974
704.955 .0299796
705.691 .0299620
706.427 .0299438
707.162 .0299241
707.897 .0299033
708.632 .0298817
709.367 .0298591
710.101 .0298363
710.835 .0298136
711.569 .0297907
712.303 .0297672
713.037 .0297430
713.770 .0297174
714.503 .0296901
715.236 .0296613
715.969 .0296319
716.702 .0296019
717.434 .0295721
718.166 .0295421
718.898 .0295125
719.629 .0294843
720.361 .0294574
721.092 .0294314
721.823 .0294063
722.554 .0293815
723.284 .0293569
724.014 .0293314
724.744 .0293056
725.474 .0292787
726.204 .0292510
726.933 .0292225
727.662 .0291932
728.391 .0291635
729.120 .0291344
729.849 .0291056
730.577 .0290776
731.305 .0290496
732.033 .0290217
732.760 .0289929
733.488 .0289634
734.215 .0289332
734.942 .0289026
735.669 .0288713
736.395 .0288405
737.122 .0288098
737.848 .0287804
738.573 .0287518
739.299 .0287245
740.024 .0286980
740.750 .0286726
741.474 .0286474
742.199 .0286229
742.924 .0285991
743.648 .0285763
744.372 .0285539
745.096 .0285327
745.819 .0285121
746.543 .0284924
747.266 .0284733
747.989 .0284550
748.711 .0284378
749.434 .0284219
750.156 .0284066
750.878 .0283929
751.599 .0283811
752.321 .0283708
753.042 .0283620
753.763 .0283546
754.484 .0283479
755.205 .0283416
755.925 .0283352
756.645 .0283288
757.365 .0283221
758.085 .0283150
758.804 .0283068
759.523 .0282981
760.242 .0282890
760.961 .0282790
761.679 .0282682
762.397 .0282569
763.115 .0282449
763.833 .0282315
764.551 .0282168
765.268 .0282011
765.985 .0281845
766.702 .0281675
767.418 .0281505
768.134 .0281345
768.850 .0281202
769.566 .0281076
770.282 .0280972
770.997 .0280888
771.712 .0280821
772.427 .0280761
773.142 .0280705
773.856 .0280651
774.570 .0280597
775.284 .0280544
775.998 .0280493
776.711 .0280449
777.424 .0280406
778.137 .0280361
778.849 .0280309
779.562 .0280248
780.274 .0280175
780.986 .0280086
781.697 .0279988
782.409 .0279887
783.120 .0279789
783.831 .0279702
784.541 .0279631
785.252 .0279582
785.962 .0279546
786.671 .0279522
787.381 .0279501
788.090 .0279482
788.799 .0279459
789.508 .0279427
790.217 .0279393
790.925 .0279358
791.633 .0279322
792.341 .0279284
793.048 .0279247
793.755 .0279213
794.462 .0279176
795.169 .0279136
795.875 .0279086
796.581 .0279032
797.287 .0278976
797.993 .0278916
798.698 .0278857
799.403 .0278802
800.108 .0278751
800.812 .0278701
801.517 .0278656
802.221 .0278617
802.924 .0278578
803.628 .0278546
804.331 .0278521
805.034 .0278495
805.736 .0278468
806.439 .0278438
807.141 .0278406
807.843 .0278369
808.544 .0278321
809.245 .0278263
809.946 .0278196
810.647 .0278125
811.347 .0278047
812.047 .0277967
812.747 .0277895
813.447 .0277825
814.146 .0277758
814.845 .0277696
815.543 .0277638
816.242 .0277583
816.940 .0277533
817.638 .0277484
818.335 .0277437
819.032 .0277390
819.729 .0277340
820.426 .0277287
821.122 .0277225
821.818 .0277151
822.514 .0277059
823.209 .0276953
823.905 .0276829
824.599 .0276684
825.294 .0276526
825.988 .0276354
826.682 .0276172
827.376 .0275980
828.069 .0275779
828.762 .0275578
829.455 .0275375
830.147 .0275171
830.840 .0274969
831.531 .0274774
832.223 .0274586
832.914 .0274406
833.605 .0274234
834.296 .0274070
834.986 .0273917
835.676 .0273773
836.366 .0273636
837.055 .0273505
837.744 .0273380
838.433 .0273257
839.121 .0273136
839.809 .0273019
840.497 .0272899
841.185 .0272774
841.872 .0272648
842.559 .0272517
843.245 .0272381
843.932 .0272243
844.617 .0272103
845.303 .0271962
845.988 .0271817
846.673 .0271667
847.358 .0271514
848.042 .0271358
848.726 .0271203
849.410 .0271043
850.093 .0270882
850.776 .0270724
851.459 .0270560
852.141 .0270391
852.823 .0270214
853.505 .0270030
854.186 .0269833
854.867 .0269626
855.548 .0269412
856.228 .0269196
856.908 .0268984
857.588 .0268782
858.267 .0268591
858.946 .0268411
859.625 .0268238
860.303 .0268069
860.981 .0267902
861.659 .0267731
862.336 .0267552
863.013 .0267371
863.690 .0267186
864.366 .0267004
865.042 .0266824
865.718 .0266654
866.393 .0266495
867.068 .0266342
867.743 .0266192
868.417 .0266042
869.091 .0265883
869.765 .0265707
870.438 .0265514
871.111 .0265311
871.783 .0265095
872.456 .0264877
873.127 .0264664
873.799 .0264457
874.470 .0264260
875.141 .0264072
875.811 .0263890
876.481 .0263713
877.151 .0263536
877.820 .0263351
878.489 .0263162
879.158 .0262972
879.826 .0262781
880.494 .0262593
881.162 .0262416
881.829 .0262244
882.496 .0262072
883.163 .0261902
883.829 .0261733
884.495 .0261558
885.160 .0261388
885.825 .0261215
886.490 .0261050
887.154 .0260894
887.818 .0260748
888.482 .0260614
889.145 .0260493
889.808 .0260385
890.471 .0260282
891.133 .0260183
891.795 .0260093
892.456 .0260008
893.117 .0259933
893.778 .0259869
894.439 .0259818
895.099 .0259780
895.758 .0259753
896.417 .0259732
897.076 .0259715
897.735 .0259694
898.393 .0259667
899.051 .0259630
899.708 .0259581
900.365 .0259525
901.022 .0259464
901.678 .0259399
902.334 .0259333
902.990 .0259269
903.645 .0259203
904.300 .0259141
904.954 .0259076
905.608 .0259003
906.262 .0258920
906.915 .0258831
907.568 .0258729
908.221 .0258625
908.873 .0258524
909.525 .0258426
910.176 .0258335
910.828 .0258254
911.478 .0258180
912.129 .0258107
912.778 .0258034
913.428 .0257954
914.077 .0257866
914.726 .0257772
915.375 .0257669
916.023 .0257570
916.670 .0257479
917.318 .0257397
917.964 .0257320
918.611 .0257250
919.257 .0257182
919.903 .0257108
920.548 .0257029
921.193 .0256943
921.838 .0256854
922.482 .0256762
923.126 .0256676
923.770 .0256598
924.413 .0256529
925.056 .0256470
925.698 .0256421
926.340 .0256378
926.982 .0256339
927.623 .0256302
928.264 .0256263
928.904 .0256227
929.544 .0256194
930.184 .0256162
930.823 .0256137
931.462 .0256116
932.101 .0256097
932.739 .0256078
933.377 .0256057
934.014 .0256028
934.651 .0255995
935.288 .0255958
935.924 .0255915
936.560 .0255871
937.196 .0255829
937.831 .0255786
938.466 .0255741
939.100 .0255694
939.734 .0255640
940.368 .0255578
941.001 .0255510
941.634 .0255433
942.266 .0255351
942.899 .0255267
943.530 .0255184
944.162 .0255104
944.793 .0255031
945.423 .0254959
946.053 .0254887
946.683 .0254816
947.313 .0254739
947.942 .0254651
948.571 .0254550
949.199 .0254432
949.827 .0254301
950.455 .0254162
951.082 .0254024
951.709 .0253891
952.335 .0253774
952.961 .0253669
953.587 .0253581
954.212 .0253503
954.837 .0253430
955.462 .0253357
956.086 .0253283
956.710 .0253200
957.334 .0253109
957.957 .0253015
958.579 .0252924
959.202 .0252841
959.824 .0252770
960.445 .0252712
961.067 .0252668
961.688 .0252630
962.308 .0252596
962.928 .0252560
963.548 .0252523
964.168 .0252474
964.787 .0252416
965.406 .0252351
966.024 .0252282
966.642 .0252212
967.260 .0252149
967.877 .0252095
968.494 .0252048
969.110 .0252003
969.727 .0251963
970.342 .0251925
970.958 .0251898
971.573 .0251878
972.188 .0251868
972.802 .0251867
973.416 .0251877
974.030 .0251886
974.643 .0251902
975.256 .0251923
975.869 .0251939
976.481 .0251948
977.093 .0251953
977.705 .0251954
978.316 .0251955
978.927 .0251961
979.538 .0251972
980.148 .0251985
980.758 .0252002
981.367 .0252016
981.977 .0252024
982.586 .0252026
983.194 .0252019
983.802 .0252002
984.410 .0251976
985.018 .0251943
985.625 .0251898
986.232 .0251855
986.838 .0251813
987.445 .0251768
988.050 .0251720
988.656 .0251673
989.261 .0251625
989.866 .0251571
990.471 .0251513
991.075 .0251455
991.679 .0251384
992.282 .0251303
992.886 .0251207
993.489 .0251109
994.091 .0251010
994.694 .0250920
995.296 .0250841
995.897 .0250788
996.499 .0250755
997.100 .0250741
997.701 .0250747
998.301 .0250775
998.901 .0250812
999.501 .0250852
1000.101 .0250893
1000.700 .0250939
1001.299 .0250975
1001.898 .0251017
1002.496 .0251059
1003.094 .0251105
1003.692 .0251142
1004.289 .0251171
1004.887 .0251188
1005.484 .0251190
1006.080 .0251175
1006.677 .0251139
1007.273 .0251081
1007.868 .0251018
1008.464 .0250935
1009.059 .0250845
1009.654 .0250752
1010.249 .0250659
1010.843 .0250558
1011.437 .0250454
1012.031 .0250338
1012.625 .0250215
1013.218 .0250091
1013.811 .0249972
1014.404 .0249860
1014.997 .0249767
1015.589 .0249692
1016.181 .0249635
1016.773 .0249600
1017.365 .0249587
1017.956 .0249583
1018.547 .0249592
1019.138 .0249601
1019.728 .0249619
1020.319 .0249641
1020.909 .0249670
1021.499 .0249699
1022.088 .0249737
1022.678 .0249777
1023.267 .0249805
1023.856 .0249816
1024.445 .0249803
1025.033 .0249764
1025.621 .0249698
1026.209 .0249608
1026.797 .0249493
1027.385 .0249367
1027.972 .0249230
1028.560 .0249092
1029.147 .0248952
1029.734 .0248819
1030.320 .0248698
1030.907 .0248588
1031.493 .0248491
1032.079 .0248407
1032.665 .0248329
1033.250 .0248267
1033.836 .0248210
1034.421 .0248159
1035.006 .0248097
1035.591 .0248034
1036.176 .0247953
1036.761 .0247861
1037.345 .0247747
1037.929 .0247615
1038.514 .0247460
1039.097 .0247299
1039.681 .0247122
1040.265 .0246936
1040.848 .0246754
1041.432 .0246581
1042.015 .0246410
1042.598 .0246252
1043.181 .0246096
1043.764 .0245950
1044.346 .0245811
1044.929 .0245678
1045.511 .0245545
1046.094 .0245433
1046.676 .0245333
1047.258 .0245247
1047.840 .0245177
1048.422 .0245126
1049.003 .0245077
1049.585 .0245034
1050.166 .0244983
1050.748 .0244919
1051.329 .0244846
1051.910 .0244771
1052.491 .0244688
1053.072 .0244606
1053.653 .0244529
1054.234 .0244453
1054.815 .0244383
1055.396 .0244315
1055.976 .0244226
1056.557 .0244128
1057.138 .0244023
1057.718 .0243909
1058.298 .0243788
1058.879 .0243672
1059.459 .0243553
1060.039 .0243441
1060.620 .0243320
1061.200 .0243180
1061.780 .0243024
1062.360 .0242852
1062.940 .0242659
1063.520 .0242461
1064.101 .0242268
1064.681 .0242085
1065.261 .0241919
1065.841 .0241783
1066.421 .0241662
1067.001 .0241557
1067.581 .0241454
1068.161 .0241333
1068.741 .0241189
1069.321 .0241027
1069.901 .0240829
1070.482 .0240616
1071.062 .0240402
1071.642 .0240191
1072.222 .0239992
1072.803 .0239822
1073.383 .0239680
1073.963 .0239573
1074.544 .0239509
1075.124 .0239466
1075.705 .0239431
1076.286 .0239401
1076.866 .0239370
1077.447 .0239343
1078.028 .0239318
1078.609 .0239308
1079.190 .0239301
1079.771 .0239325
1080.352 .0239368
1080.934 .0239423
1081.515 .0239491
1082.097 .0239563
1082.679 .0239627
1083.260 .0239655
1083.842 .0239638
1084.424 .0239571
1085.007 .0239460
1085.589 .0239318
1086.172 .0239150
1086.754 .0238969
1087.337 .0238794
1087.920 .0238663
1088.503 .0238564
1089.087 .0238516
1089.670 .0238498
1090.254 .0238489
1090.838 .0238472
1091.422 .0238425
1092.006 .0238348
1092.590 .0238241
1093.175 .0238119
1093.760 .0237987
1094.345 .0237845
1094.930 .0237719
1095.516 .0237610
1096.102 .0237518
1096.688 .0237449
1097.274 .0237393
1097.860 .0237330
1098.447 .0237247
1099.034 .0237152
1099.622 .0237053
1100.209 .0236953
1100.797 .0236870
1101.385 .0236784
1101.973 .0236684
1102.562 .0236599
1103.151 .0236508
1103.740 .0236428
1104.330 .0236372
1104.920 .0236355
1105.510 .0236362
1106.101 .0236429
1106.691 .0236534
1107.283 .0236671
1107.874 .0236830
1108.466 .0236992
1109.058 .0237122
1109.651 .0237211
1110.244 .0237258
1110.837 .0237269
1111.431 .0237283
1112.025 .0237323
1112.620 .0237357
1113.215 .0237431
1113.810 .0237521
1114.406 .0237624
1115.002 .0237701
1115.599 .0237748
1116.196 .0237722
1116.793 .0237645
1117.391 .0237516
1117.989 .0237357
1118.588 .0237210
1119.187 .0237097
1119.787 .0237012
1120.387 .0236987
1120.988 .0237024
1121.589 .0237130
1122.190 .0237268
1122.793 .0237458
1123.395 .0237680
1123.998 .0237927
1124.602 .0238197
1125.206 .0238473
1125.811 .0238779
1126.416 .0239090
1127.022 .0239375
1127.628 .0239620
1128.235 .0239824
1128.843 .0240006
1129.451 .0240167
1130.059 .0240335
1130.669 .0240507
1131.278 .0240675
1131.889 .0240822
1132.500 .0240922
1133.112 .0241006
1133.724 .0241042
1134.337 .0241048
1134.950 .0241001
1135.564 .0240963
1136.179 .0240978
1136.795 .0241124
1137.411 .0241433
1138.028 .0241904
1138.645 .0242528
1139.263 .0243271
1139.882 .0244077
1140.502 .0245084
1141.122 .0246205
1141.743 .0247632
1142.365 .0249379
1142.987 .0248388
1143.611 .0253556
1144.235 .0254566
1144.859 .0260028
1145.485 .0264051
