Measurement Sequence started on: 10-20-44-796
Integration time: 35
Scans to Average: 2 
>>>>>Begin Spectral Data<<<<<
432.953 .0537838
433.882 .0444979
434.810 .0450706
435.737 .0450150
436.662 .0410571
437.586 .0426907
438.509 .0419906
439.431 .0417110
440.351 .0415046
441.269 .0413536
442.187 .0413136
443.103 .0412554
444.018 .0411790
444.932 .0410956
445.844 .0410200
446.756 .0409598
447.666 .0409174
448.575 .0408759
449.482 .0408423
450.388 .0408086
451.294 .0407755
452.198 .0407274
453.100 .0406666
454.002 .0405959
454.902 .0405301
455.801 .0404776
456.699 .0404381
457.596 .0404139
458.492 .0404004
459.387 .0403860
460.280 .0403672
461.172 .0403349
462.064 .0402802
462.954 .0401989
463.843 .0400967
464.730 .0399817
465.617 .0398635
466.503 .0397464
467.387 .0396359
468.271 .0395340
469.153 .0394412
470.035 .0393512
470.915 .0392631
471.794 .0391703
472.673 .0390767
473.550 .0389859
474.426 .0389018
475.301 .0388251
476.175 .0387595
477.048 .0387059
477.920 .0386618
478.791 .0386241
479.661 .0385900
480.530 .0385577
481.398 .0385290
482.266 .0385012
483.132 .0384773
483.997 .0384560
484.861 .0384358
485.724 .0384167
486.587 .0383965
487.448 .0383712
488.308 .0383370
489.168 .0382945
490.026 .0382437
490.884 .0381894
491.741 .0381298
492.597 .0380697
493.452 .0380094
494.306 .0379510
495.159 .0378912
496.011 .0378313
496.862 .0377726
497.713 .0377107
498.562 .0376462
499.411 .0375811
500.259 .0375124
501.106 .0374448
501.952 .0373759
502.798 .0373111
503.642 .0372467
504.486 .0371858
505.329 .0371265
506.171 .0370705
507.012 .0370157
507.852 .0369600
508.692 .0368973
509.531 .0368280
510.369 .0367511
511.206 .0366601
512.043 .0365590
512.878 .0364489
513.713 .0363302
514.547 .0362032
515.381 .0360715
516.213 .0359343
517.045 .0357864
517.876 .0356352
518.706 .0354752
519.536 .0353044
520.365 .0351305
521.193 .0349511
522.020 .0347744
522.847 .0345993
523.673 .0344243
524.498 .0342408
525.323 .0340585
526.146 .0338721
526.969 .0336725
527.792 .0334629
528.614 .0332460
529.435 .0330304
530.255 .0328237
531.075 .0326251
531.894 .0324448
532.712 .0322831
533.530 .0321443
534.347 .0320161
535.163 .0318886
535.979 .0317698
536.794 .0316555
537.608 .0315469
538.422 .0314510
539.235 .0313690
540.048 .0313119
540.860 .0312794
541.671 .0312686
542.481 .0312713
543.292 .0312747
544.101 .0312805
544.910 .0312820
545.718 .0312737
546.526 .0312599
547.333 .0312430
548.139 .0312343
548.945 .0312389
549.750 .0312541
550.555 .0312857
551.359 .0313317
552.162 .0313882
552.965 .0314527
553.768 .0315136
554.569 .0315795
555.371 .0316438
556.171 .0317113
556.972 .0317862
557.771 .0318653
558.570 .0319535
559.369 .0320489
560.167 .0321477
560.964 .0322495
561.761 .0323426
562.558 .0324269
563.354 .0324976
564.149 .0325591
564.944 .0326067
565.738 .0326462
566.532 .0326812
567.325 .0327151
568.118 .0327451
568.910 .0327784
569.702 .0328135
570.494 .0328512
571.285 .0328914
572.075 .0329315
572.865 .0329660
573.654 .0329994
574.443 .0330284
575.232 .0330549
576.020 .0330780
576.807 .0331026
577.594 .0331256
578.381 .0331507
579.167 .0331765
579.952 .0332027
580.738 .0332294
581.522 .0332571
582.307 .0332812
583.091 .0333047
583.874 .0333275
584.657 .0333490
585.440 .0333678
586.222 .0333847
587.004 .0333986
587.785 .0334099
588.566 .0334186
589.346 .0334257
590.126 .0334306
590.906 .0334331
591.685 .0334334
592.464 .0334305
593.242 .0334253
594.020 .0334178
594.797 .0334090
595.575 .0334002
596.351 .0333912
597.128 .0333831
597.904 .0333744
598.679 .0333650
599.454 .0333560
600.229 .0333453
601.004 .0333332
601.778 .0333189
602.551 .0333032
603.325 .0332857
604.097 .0332673
604.870 .0332482
605.642 .0332292
606.414 .0332103
607.185 .0331914
607.956 .0331717
608.727 .0331520
609.497 .0331324
610.267 .0331118
611.037 .0330913
611.806 .0330710
612.575 .0330506
613.344 .0330307
614.112 .0330118
614.880 .0329942
615.647 .0329777
616.414 .0329626
617.181 .0329486
617.948 .0329355
618.714 .0329233
619.480 .0329108
620.245 .0328974
621.011 .0328829
621.775 .0328663
622.540 .0328473
623.304 .0328266
624.068 .0328049
624.832 .0327834
625.595 .0327628
626.358 .0327439
627.120 .0327264
627.883 .0327096
628.645 .0326932
629.406 .0326758
630.168 .0326569
630.929 .0326366
631.689 .0326146
632.450 .0325919
633.210 .0325695
633.970 .0325484
634.729 .0325286
635.489 .0325099
636.248 .0324917
637.006 .0324724
637.765 .0324512
638.523 .0324272
639.280 .0324006
640.038 .0323715
640.795 .0323413
641.552 .0323104
642.309 .0322803
643.065 .0322521
643.821 .0322252
644.577 .0321993
645.332 .0321733
646.088 .0321462
646.843 .0321169
647.597 .0320842
648.352 .0320491
649.106 .0320111
649.860 .0319714
650.613 .0319304
651.367 .0318889
652.120 .0318475
652.872 .0318067
653.625 .0317665
654.377 .0317271
655.129 .0316885
655.881 .0316502
656.632 .0316120
657.384 .0315741
658.135 .0315371
658.885 .0315009
659.636 .0314661
660.386 .0314338
661.136 .0314036
661.885 .0313767
662.635 .0313523
663.384 .0313303
664.133 .0313110
664.881 .0312928
665.630 .0312751
666.378 .0312577
667.126 .0312400
667.874 .0312216
668.621 .0312021
669.368 .0311819
670.115 .0311607
670.862 .0311388
671.608 .0311167
672.354 .0310942
673.100 .0310723
673.846 .0310512
674.591 .0310302
675.337 .0310108
676.082 .0309924
676.826 .0309747
677.571 .0309574
678.315 .0309408
679.059 .0309243
679.803 .0309080
680.547 .0308927
681.290 .0308778
682.033 .0308632
682.776 .0308492
683.518 .0308357
684.261 .0308223
685.003 .0308091
685.745 .0307954
686.487 .0307815
687.228 .0307675
687.969 .0307522
688.710 .0307361
689.451 .0307195
690.192 .0307029
690.932 .0306856
691.672 .0306680
692.412 .0306505
693.152 .0306327
693.891 .0306151
694.630 .0305975
695.369 .0305804
696.108 .0305635
696.846 .0305465
697.585 .0305296
698.323 .0305130
699.061 .0304962
699.798 .0304793
700.536 .0304626
701.273 .0304457
702.010 .0304287
702.746 .0304114
703.483 .0303946
704.219 .0303791
704.955 .0303644
705.691 .0303506
706.427 .0303380
707.162 .0303265
707.897 .0303156
708.632 .0303053
709.367 .0302952
710.101 .0302850
710.835 .0302746
711.569 .0302637
712.303 .0302523
713.037 .0302411
713.770 .0302301
714.503 .0302189
715.236 .0302079
715.969 .0301963
716.702 .0301835
717.434 .0301704
718.166 .0301560
718.898 .0301400
719.629 .0301229
720.361 .0301043
721.092 .0300844
721.823 .0300638
722.554 .0300423
723.284 .0300200
724.014 .0299971
724.744 .0299738
725.474 .0299493
726.204 .0299251
726.933 .0299010
727.662 .0298769
728.391 .0298528
729.120 .0298292
729.849 .0298053
730.577 .0297817
731.305 .0297582
732.033 .0297347
732.760 .0297116
733.488 .0296891
734.215 .0296663
734.942 .0296438
735.669 .0296211
736.395 .0295988
737.122 .0295753
737.848 .0295514
738.573 .0295263
739.299 .0295002
740.024 .0294740
740.750 .0294476
741.474 .0294214
742.199 .0293955
742.924 .0293703
743.648 .0293454
744.372 .0293208
745.096 .0292969
745.819 .0292735
746.543 .0292506
747.266 .0292284
747.989 .0292069
748.711 .0291863
749.434 .0291671
750.156 .0291494
750.878 .0291325
751.599 .0291170
752.321 .0291017
753.042 .0290869
753.763 .0290721
754.484 .0290572
755.205 .0290415
755.925 .0290255
756.645 .0290092
757.365 .0289921
758.085 .0289739
758.804 .0289554
759.523 .0289363
760.242 .0289169
760.961 .0288967
761.679 .0288759
762.397 .0288542
763.115 .0288320
763.833 .0288084
764.551 .0287841
765.268 .0287586
765.985 .0287321
766.702 .0287046
767.418 .0286764
768.134 .0286483
768.850 .0286206
769.566 .0285938
770.282 .0285682
770.997 .0285437
771.712 .0285210
772.427 .0284998
773.142 .0284802
773.856 .0284618
774.570 .0284445
775.284 .0284281
775.998 .0284127
776.711 .0283982
777.424 .0283845
778.137 .0283715
778.849 .0283591
779.562 .0283476
780.274 .0283367
780.986 .0283266
781.697 .0283171
782.409 .0283085
783.120 .0283007
783.831 .0282932
784.541 .0282863
785.252 .0282797
785.962 .0282735
786.671 .0282670
787.381 .0282604
788.090 .0282535
788.799 .0282464
789.508 .0282395
790.217 .0282326
790.925 .0282259
791.633 .0282196
792.341 .0282134
793.048 .0282073
793.755 .0282008
794.462 .0281940
795.169 .0281865
795.875 .0281784
796.581 .0281697
797.287 .0281607
797.993 .0281516
798.698 .0281434
799.403 .0281363
800.108 .0281304
800.812 .0281257
801.517 .0281217
802.221 .0281186
802.924 .0281156
803.628 .0281124
804.331 .0281088
805.034 .0281050
805.736 .0281015
806.439 .0280980
807.141 .0280956
807.843 .0280944
808.544 .0280941
809.245 .0280941
809.946 .0280938
810.647 .0280927
811.347 .0280904
812.047 .0280871
812.747 .0280830
813.447 .0280782
814.146 .0280735
814.845 .0280693
815.543 .0280657
816.242 .0280631
816.940 .0280611
817.638 .0280588
818.335 .0280564
819.032 .0280531
819.729 .0280490
820.426 .0280440
821.122 .0280386
821.818 .0280332
822.514 .0280273
823.209 .0280215
823.905 .0280152
824.599 .0280084
825.294 .0280011
825.988 .0279931
826.682 .0279838
827.376 .0279735
828.069 .0279627
828.762 .0279514
829.455 .0279396
830.147 .0279282
830.840 .0279170
831.531 .0279060
832.223 .0278955
832.914 .0278854
833.605 .0278758
834.296 .0278675
834.986 .0278597
835.676 .0278524
836.366 .0278456
837.055 .0278393
837.744 .0278327
838.433 .0278260
839.121 .0278193
839.809 .0278119
840.497 .0278041
841.185 .0277962
841.872 .0277875
842.559 .0277783
843.245 .0277685
843.932 .0277584
844.617 .0277475
845.303 .0277366
845.988 .0277251
846.673 .0277135
847.358 .0277021
848.042 .0276912
848.726 .0276802
849.410 .0276698
850.093 .0276601
850.776 .0276508
851.459 .0276413
852.141 .0276315
852.823 .0276209
853.505 .0276095
854.186 .0275970
854.867 .0275836
855.548 .0275690
856.228 .0275542
856.908 .0275388
857.588 .0275230
858.267 .0275070
858.946 .0274908
859.625 .0274744
860.303 .0274578
860.981 .0274409
861.659 .0274238
862.336 .0274062
863.013 .0273886
863.690 .0273706
864.366 .0273523
865.042 .0273332
865.718 .0273141
866.393 .0272948
867.068 .0272752
867.743 .0272556
868.417 .0272360
869.091 .0272160
869.765 .0271955
870.438 .0271744
871.111 .0271524
871.783 .0271295
872.456 .0271059
873.127 .0270815
873.799 .0270575
874.470 .0270341
875.141 .0270119
875.811 .0269909
876.481 .0269720
877.151 .0269548
877.820 .0269391
878.489 .0269248
879.158 .0269109
879.826 .0268968
880.494 .0268823
881.162 .0268673
881.829 .0268522
882.496 .0268369
883.163 .0268224
883.829 .0268084
884.495 .0267950
885.160 .0267825
885.825 .0267701
886.490 .0267578
887.154 .0267452
887.818 .0267319
888.482 .0267169
889.145 .0267011
889.808 .0266847
890.471 .0266679
891.133 .0266513
891.795 .0266354
892.456 .0266201
893.117 .0266052
893.778 .0265906
894.439 .0265760
895.099 .0265614
895.758 .0265469
896.417 .0265317
897.076 .0265164
897.735 .0265011
898.393 .0264860
899.051 .0264708
899.708 .0264557
900.365 .0264403
901.022 .0264244
901.678 .0264079
902.334 .0263912
902.990 .0263744
903.645 .0263583
904.300 .0263429
904.954 .0263282
905.608 .0263137
906.262 .0262994
906.915 .0262847
907.568 .0262692
908.221 .0262527
908.873 .0262353
909.525 .0262172
910.176 .0261993
910.828 .0261811
911.478 .0261637
912.129 .0261465
912.778 .0261300
913.428 .0261135
914.077 .0260967
914.726 .0260794
915.375 .0260618
916.023 .0260443
916.670 .0260274
917.318 .0260110
917.964 .0259954
918.611 .0259806
919.257 .0259668
919.903 .0259533
920.548 .0259400
921.193 .0259270
921.838 .0259149
922.482 .0259029
923.126 .0258918
923.770 .0258816
924.413 .0258724
925.056 .0258643
925.698 .0258570
926.340 .0258501
926.982 .0258436
927.623 .0258366
928.264 .0258290
928.904 .0258208
929.544 .0258125
930.184 .0258031
930.823 .0257929
931.462 .0257823
932.101 .0257706
932.739 .0257581
933.377 .0257450
934.014 .0257309
934.651 .0257162
935.288 .0257011
935.924 .0256856
936.560 .0256698
937.196 .0256543
937.831 .0256389
938.466 .0256236
939.100 .0256088
939.734 .0255938
940.368 .0255789
941.001 .0255645
941.634 .0255512
942.266 .0255387
942.899 .0255277
943.530 .0255179
944.162 .0255089
944.793 .0255006
945.423 .0254924
946.053 .0254837
946.683 .0254743
947.313 .0254636
947.942 .0254520
948.571 .0254386
949.199 .0254243
949.827 .0254094
950.455 .0253945
951.082 .0253794
951.709 .0253647
952.335 .0253505
952.961 .0253371
953.587 .0253244
954.212 .0253124
954.837 .0253010
955.462 .0252903
956.086 .0252801
956.710 .0252703
957.334 .0252609
957.957 .0252523
958.579 .0252439
959.202 .0252360
959.824 .0252287
960.445 .0252218
961.067 .0252153
961.688 .0252094
962.308 .0252038
962.928 .0251980
963.548 .0251920
964.168 .0251859
964.787 .0251794
965.406 .0251730
966.024 .0251674
966.642 .0251624
967.260 .0251591
967.877 .0251570
968.494 .0251563
969.110 .0251567
969.727 .0251577
970.342 .0251586
970.958 .0251591
971.573 .0251592
972.188 .0251593
972.802 .0251600
973.416 .0251618
974.030 .0251645
974.643 .0251682
975.256 .0251730
975.869 .0251780
976.481 .0251827
977.093 .0251870
977.705 .0251906
978.316 .0251939
978.927 .0251968
979.538 .0251998
980.148 .0252037
980.758 .0252086
981.367 .0252145
981.977 .0252208
982.586 .0252275
983.194 .0252334
983.802 .0252388
984.410 .0252438
985.018 .0252485
985.625 .0252534
986.232 .0252589
986.838 .0252646
987.445 .0252702
988.050 .0252755
988.656 .0252798
989.261 .0252824
989.866 .0252832
990.471 .0252818
991.075 .0252789
991.679 .0252750
992.282 .0252709
992.886 .0252666
993.489 .0252630
994.091 .0252600
994.694 .0252565
995.296 .0252527
995.897 .0252478
996.499 .0252420
997.100 .0252353
997.701 .0252284
998.301 .0252222
998.901 .0252175
999.501 .0252153
1000.101 .0252159
1000.700 .0252192
1001.299 .0252246
1001.898 .0252314
1002.496 .0252390
1003.094 .0252464
1003.692 .0252534
1004.289 .0252596
1004.887 .0252657
1005.484 .0252715
1006.080 .0252773
1006.677 .0252829
1007.273 .0252884
1007.868 .0252943
1008.464 .0252999
1009.059 .0253050
1009.654 .0253094
1010.249 .0253131
1010.843 .0253159
1011.437 .0253177
1012.031 .0253190
1012.625 .0253205
1013.218 .0253224
1013.811 .0253255
1014.404 .0253302
1014.997 .0253360
1015.589 .0253435
1016.181 .0253526
1016.773 .0253623
1017.365 .0253720
1017.956 .0253810
1018.547 .0253883
1019.138 .0253937
1019.728 .0253976
1020.319 .0254000
1020.909 .0254010
1021.499 .0254019
1022.088 .0254022
1022.678 .0254013
1023.267 .0254008
1023.856 .0253992
1024.445 .0253958
1025.033 .0253904
1025.621 .0253823
1026.209 .0253718
1026.797 .0253600
1027.385 .0253479
1027.972 .0253360
1028.560 .0253262
1029.147 .0253191
1029.734 .0253146
1030.320 .0253128
1030.907 .0253138
1031.493 .0253159
1032.079 .0253192
1032.665 .0253225
1033.250 .0253245
1033.836 .0253262
1034.421 .0253271
1035.006 .0253279
1035.591 .0253289
1036.176 .0253299
1036.761 .0253311
1037.345 .0253314
1037.929 .0253303
1038.514 .0253273
1039.097 .0253217
1039.681 .0253136
1040.265 .0253025
1040.848 .0252896
1041.432 .0252753
1042.015 .0252593
1042.598 .0252430
1043.181 .0252271
1043.764 .0252110
1044.346 .0251953
1044.929 .0251794
1045.511 .0251638
1046.094 .0251478
1046.676 .0251312
1047.258 .0251143
1047.840 .0250979
1048.422 .0250818
1049.003 .0250666
1049.585 .0250528
1050.166 .0250412
1050.748 .0250320
1051.329 .0250255
1051.910 .0250213
1052.491 .0250184
1053.072 .0250157
1053.653 .0250121
1054.234 .0250069
1054.815 .0250004
1055.396 .0249914
1055.976 .0249804
1056.557 .0249683
1057.138 .0249560
1057.718 .0249435
1058.298 .0249326
1058.879 .0249232
1059.459 .0249134
1060.039 .0249032
1060.620 .0248902
1061.200 .0248736
1061.780 .0248543
1062.360 .0248326
1062.940 .0248087
1063.520 .0247855
1064.101 .0247642
1064.681 .0247460
1065.261 .0247314
1065.841 .0247218
1066.421 .0247148
1067.001 .0247090
1067.581 .0247024
1068.161 .0246928
1068.741 .0246804
1069.321 .0246670
1069.901 .0246520
1070.482 .0246384
1071.062 .0246265
1071.642 .0246180
1072.222 .0246123
1072.803 .0246082
1073.383 .0246046
1073.963 .0245995
1074.544 .0245918
1075.124 .0245813
1075.705 .0245669
1076.286 .0245520
1076.866 .0245384
1077.447 .0245287
1078.028 .0245218
1078.609 .0245184
1079.190 .0245187
1079.771 .0245203
1080.352 .0245208
1080.934 .0245191
1081.515 .0245141
1082.097 .0245080
1082.679 .0245009
1083.260 .0244934
1083.842 .0244872
1084.424 .0244835
1085.007 .0244796
1085.589 .0244746
1086.172 .0244670
1086.754 .0244561
1087.337 .0244397
1087.920 .0244214
1088.503 .0244017
1089.087 .0243820
1089.670 .0243645
1090.254 .0243484
1090.838 .0243347
1091.422 .0243224
1092.006 .0243092
1092.590 .0242950
1093.175 .0242803
1093.760 .0242657
1094.345 .0242506
1094.930 .0242379
1095.516 .0242303
1096.102 .0242272
1096.688 .0242290
1097.274 .0242340
1097.860 .0242398
1098.447 .0242427
1099.034 .0242397
1099.622 .0242290
1100.209 .0242118
1100.797 .0241906
1101.385 .0241670
1101.973 .0241453
1102.562 .0241294
1103.151 .0241202
1103.740 .0241170
1104.330 .0241213
1104.920 .0241292
1105.510 .0241377
1106.101 .0241458
1106.691 .0241512
1107.283 .0241528
1107.874 .0241533
1108.466 .0241532
1109.058 .0241545
1109.651 .0241572
1110.244 .0241644
1110.837 .0241705
1111.431 .0241782
1112.025 .0241843
1112.620 .0241860
1113.215 .0241837
1113.810 .0241760
1114.406 .0241620
1115.002 .0241452
1115.599 .0241252
1116.196 .0241059
1116.793 .0240885
1117.391 .0240770
1117.989 .0240682
1118.588 .0240635
1119.187 .0240611
1119.787 .0240599
1120.387 .0240590
1120.988 .0240604
1121.589 .0240614
1122.190 .0240637
1122.793 .0240677
1123.395 .0240695
1123.998 .0240738
1124.602 .0240790
1125.206 .0240869
1125.811 .0240991
1126.416 .0241128
1127.022 .0241287
1127.628 .0241451
1128.235 .0241624
1128.843 .0241803
1129.451 .0241967
1130.059 .0242182
1130.669 .0242381
1131.278 .0242601
1131.889 .0242843
1132.500 .0243138
1133.112 .0243503
1133.724 .0243938
1134.337 .0244455
1134.950 .0245022
1135.564 .0245626
1136.179 .0246274
1136.795 .0246922
1137.411 .0247574
1138.028 .0248233
1138.645 .0248899
1139.263 .0249549
1139.882 .0250294
1140.502 .0251083
1141.122 .0251928
1141.743 .0252826
1142.365 .0253646
1142.987 .0255930
1143.611 .0256135
1144.235 .0256606
1144.859 .0256589
1145.485 .0254727
