Measurement Sequence started on: 10-20-44-796
Integration time: 35
Scans to Average: 2 
>>>>>Begin Spectral Data<<<<<
432.953 .0295039
433.882 .0260444
434.810 .0294342
435.737 .0300753
436.662 .0310462
437.586 .0325433
438.509 .0334435
439.431 .0343331
440.351 .0350043
441.269 .0355614
442.187 .0360007
443.103 .0363212
444.018 .0365736
444.932 .0367669
445.844 .0369170
446.756 .0370124
447.666 .0370479
448.575 .0370188
449.482 .0369379
450.388 .0368143
451.294 .0366633
452.198 .0365121
453.100 .0363729
454.002 .0362496
454.902 .0361525
455.801 .0360811
456.699 .0360353
457.596 .0360015
458.492 .0359744
459.387 .0359526
460.280 .0359331
461.172 .0359052
462.064 .0358767
462.954 .0358460
463.843 .0358202
464.730 .0357992
465.617 .0357803
466.503 .0357598
467.387 .0357376
468.271 .0357088
469.153 .0356728
470.035 .0356283
470.915 .0355769
471.794 .0355157
472.673 .0354511
473.550 .0353889
474.426 .0353327
475.301 .0352861
476.175 .0352525
477.048 .0352272
477.920 .0352119
478.791 .0351975
479.661 .0351796
480.530 .0351581
481.398 .0351343
482.266 .0351085
483.132 .0350820
483.997 .0350594
484.861 .0350446
485.724 .0350387
486.587 .0350367
487.448 .0350370
488.308 .0350325
489.168 .0350197
490.026 .0349956
490.884 .0349592
491.741 .0349099
492.597 .0348535
493.452 .0347933
494.306 .0347335
495.159 .0346771
496.011 .0346267
496.862 .0345806
497.713 .0345384
498.562 .0344940
499.411 .0344425
500.259 .0343801
501.106 .0343105
501.952 .0342291
502.798 .0341434
503.642 .0340553
504.486 .0339672
505.329 .0338823
506.171 .0338037
507.012 .0337292
507.852 .0336584
508.692 .0335895
509.531 .0335192
510.369 .0334441
511.206 .0333658
512.043 .0332803
512.878 .0331898
513.713 .0330946
514.547 .0329944
515.381 .0328849
516.213 .0327712
517.045 .0326475
517.876 .0325132
518.706 .0323736
519.536 .0322306
520.365 .0320838
521.193 .0319361
522.020 .0317862
522.847 .0316323
523.673 .0314714
524.498 .0312978
525.323 .0310971
526.146 .0308845
526.969 .0306601
527.792 .0304243
528.614 .0301875
529.435 .0299683
530.255 .0297638
531.075 .0295776
531.894 .0294080
532.712 .0292478
533.530 .0290897
534.347 .0289382
535.163 .0287755
535.979 .0286149
536.794 .0284649
537.608 .0283333
538.422 .0282254
539.235 .0281524
540.048 .0281050
540.860 .0280838
541.671 .0280840
542.481 .0281007
543.292 .0281210
544.101 .0281490
544.910 .0281812
545.718 .0282173
546.526 .0282591
547.333 .0283099
548.139 .0283684
548.945 .0284376
549.750 .0285066
550.555 .0285747
551.359 .0286407
552.162 .0287038
552.965 .0287661
553.768 .0288306
554.569 .0289022
555.371 .0289804
556.171 .0290662
556.972 .0291590
557.771 .0292528
558.570 .0293452
559.369 .0294329
560.167 .0295126
560.964 .0295885
561.761 .0296608
562.558 .0297333
563.354 .0298108
564.149 .0298922
564.944 .0299754
565.738 .0300617
566.532 .0301450
567.325 .0302242
568.118 .0302954
568.910 .0303632
569.702 .0304262
570.494 .0304890
571.285 .0305542
572.075 .0306203
572.865 .0306866
573.654 .0307538
574.443 .0308153
575.232 .0308740
576.020 .0309281
576.807 .0309800
577.594 .0310307
578.381 .0310823
579.167 .0311342
579.952 .0311895
580.738 .0312466
581.522 .0313039
582.307 .0313566
583.091 .0314084
583.874 .0314548
584.657 .0314967
585.440 .0315350
586.222 .0315705
587.004 .0316032
587.785 .0316348
588.566 .0316640
589.346 .0316925
590.126 .0317199
590.906 .0317460
591.685 .0317685
592.464 .0317885
593.242 .0318039
594.020 .0318142
594.797 .0318203
595.575 .0318221
596.351 .0318193
597.128 .0318132
597.904 .0318048
598.679 .0317957
599.454 .0317864
600.229 .0317774
601.004 .0317695
601.778 .0317629
602.551 .0317581
603.325 .0317528
604.097 .0317481
604.870 .0317429
605.642 .0317355
606.414 .0317263
607.185 .0317143
607.956 .0317008
608.727 .0316867
609.497 .0316717
610.267 .0316563
611.037 .0316400
611.806 .0316229
612.575 .0316047
613.344 .0315854
614.112 .0315642
614.880 .0315408
615.647 .0315138
616.414 .0314854
617.181 .0314554
617.948 .0314253
618.714 .0313963
619.480 .0313690
620.245 .0313440
621.011 .0313201
621.775 .0312970
622.540 .0312755
623.304 .0312551
624.068 .0312361
624.832 .0312165
625.595 .0311973
626.358 .0311786
627.120 .0311608
627.883 .0311432
628.645 .0311258
629.406 .0311073
630.168 .0310872
630.929 .0310654
631.689 .0310423
632.450 .0310182
633.210 .0309946
633.970 .0309713
634.729 .0309485
635.489 .0309249
636.248 .0309004
637.006 .0308744
637.765 .0308478
638.523 .0308199
639.280 .0307909
640.038 .0307616
640.795 .0307335
641.552 .0307072
642.309 .0306831
643.065 .0306619
643.821 .0306433
644.577 .0306254
645.332 .0306075
646.088 .0305889
646.843 .0305697
647.597 .0305496
648.352 .0305300
649.106 .0305110
649.860 .0304934
650.613 .0304774
651.367 .0304631
652.120 .0304505
652.872 .0304389
653.625 .0304272
654.377 .0304146
655.129 .0304013
655.881 .0303866
656.632 .0303702
657.384 .0303534
658.135 .0303364
658.885 .0303188
659.636 .0303012
660.386 .0302839
661.136 .0302665
661.885 .0302492
662.635 .0302318
663.384 .0302152
664.133 .0301989
664.881 .0301825
665.630 .0301656
666.378 .0301485
667.126 .0301318
667.874 .0301145
668.621 .0300979
669.368 .0300818
670.115 .0300665
670.862 .0300520
671.608 .0300391
672.354 .0300276
673.100 .0300178
673.846 .0300092
674.591 .0300010
675.337 .0299935
676.082 .0299858
676.826 .0299778
677.571 .0299694
678.315 .0299606
679.059 .0299512
679.803 .0299407
680.547 .0299300
681.290 .0299180
682.033 .0299048
682.776 .0298901
683.518 .0298735
684.261 .0298548
685.003 .0298340
685.745 .0298114
686.487 .0297876
687.228 .0297636
687.969 .0297398
688.710 .0297169
689.451 .0296952
690.192 .0296748
690.932 .0296549
691.672 .0296351
692.412 .0296155
693.152 .0295958
693.891 .0295762
694.630 .0295568
695.369 .0295381
696.108 .0295208
696.846 .0295046
697.585 .0294896
698.323 .0294755
699.061 .0294619
699.798 .0294478
700.536 .0294332
701.273 .0294176
702.010 .0294013
702.746 .0293846
703.483 .0293685
704.219 .0293534
704.955 .0293391
705.691 .0293256
706.427 .0293129
707.162 .0293007
707.897 .0292885
708.632 .0292761
709.367 .0292638
710.101 .0292505
710.835 .0292370
711.569 .0292231
712.303 .0292090
713.037 .0291946
713.770 .0291796
714.503 .0291635
715.236 .0291465
715.969 .0291284
716.702 .0291091
717.434 .0290894
718.166 .0290695
718.898 .0290483
719.629 .0290270
720.361 .0290051
721.092 .0289831
721.823 .0289603
722.554 .0289376
723.284 .0289149
724.014 .0288917
724.744 .0288684
725.474 .0288445
726.204 .0288203
726.933 .0287956
727.662 .0287697
728.391 .0287432
729.120 .0287167
729.849 .0286905
730.577 .0286649
731.305 .0286412
732.033 .0286193
732.760 .0285992
733.488 .0285810
734.215 .0285644
734.942 .0285486
735.669 .0285331
736.395 .0285181
737.122 .0285028
737.848 .0284879
738.573 .0284733
739.299 .0284591
740.024 .0284459
740.750 .0284332
741.474 .0284208
742.199 .0284085
742.924 .0283958
743.648 .0283821
744.372 .0283671
745.096 .0283513
745.819 .0283343
746.543 .0283166
747.266 .0282991
747.989 .0282821
748.711 .0282657
749.434 .0282506
750.156 .0282362
750.878 .0282224
751.599 .0282096
752.321 .0281969
753.042 .0281845
753.763 .0281730
754.484 .0281620
755.205 .0281515
755.925 .0281421
756.645 .0281334
757.365 .0281247
758.085 .0281160
758.804 .0281067
759.523 .0280957
760.242 .0280832
760.961 .0280690
761.679 .0280533
762.397 .0280364
763.115 .0280187
763.833 .0280003
764.551 .0279821
765.268 .0279640
765.985 .0279456
766.702 .0279270
767.418 .0279080
768.134 .0278888
768.850 .0278692
769.566 .0278495
770.282 .0278301
770.997 .0278114
771.712 .0277937
772.427 .0277766
773.142 .0277604
773.856 .0277451
774.570 .0277302
775.284 .0277158
775.998 .0277016
776.711 .0276879
777.424 .0276740
778.137 .0276600
778.849 .0276456
779.562 .0276306
780.274 .0276150
780.986 .0275990
781.697 .0275826
782.409 .0275665
783.120 .0275511
783.831 .0275370
784.541 .0275248
785.252 .0275147
785.962 .0275060
786.671 .0274982
787.381 .0274910
788.090 .0274837
788.799 .0274754
789.508 .0274664
790.217 .0274561
790.925 .0274448
791.633 .0274328
792.341 .0274203
793.048 .0274079
793.755 .0273956
794.462 .0273830
795.169 .0273700
795.875 .0273566
796.581 .0273425
797.287 .0273274
797.993 .0273124
798.698 .0272976
799.403 .0272833
800.108 .0272696
800.812 .0272567
801.517 .0272449
802.221 .0272341
802.924 .0272243
803.628 .0272155
804.331 .0272080
805.034 .0272013
805.736 .0271944
806.439 .0271880
807.141 .0271817
807.843 .0271750
808.544 .0271677
809.245 .0271597
809.946 .0271507
810.647 .0271409
811.347 .0271304
812.047 .0271193
812.747 .0271079
813.447 .0270959
814.146 .0270830
814.845 .0270700
815.543 .0270568
816.242 .0270435
816.940 .0270307
817.638 .0270189
818.335 .0270076
819.032 .0269968
819.729 .0269861
820.426 .0269755
821.122 .0269643
821.818 .0269526
822.514 .0269396
823.209 .0269259
823.905 .0269118
824.599 .0268973
825.294 .0268828
825.988 .0268686
826.682 .0268543
827.376 .0268393
828.069 .0268234
828.762 .0268061
829.455 .0267873
830.147 .0267672
830.840 .0267464
831.531 .0267252
832.223 .0267045
832.914 .0266845
833.605 .0266655
834.296 .0266480
834.986 .0266316
835.676 .0266163
836.366 .0266023
837.055 .0265892
837.744 .0265776
838.433 .0265666
839.121 .0265569
839.809 .0265484
840.497 .0265410
841.185 .0265343
841.872 .0265282
842.559 .0265223
843.245 .0265162
843.932 .0265096
844.617 .0265021
845.303 .0264935
845.988 .0264843
846.673 .0264743
847.358 .0264639
848.042 .0264533
848.726 .0264430
849.410 .0264331
850.093 .0264240
850.776 .0264147
851.459 .0264050
852.141 .0263947
852.823 .0263832
853.505 .0263705
854.186 .0263567
854.867 .0263425
855.548 .0263281
856.228 .0263143
856.908 .0263013
857.588 .0262888
858.267 .0262776
858.946 .0262663
859.625 .0262546
860.303 .0262424
860.981 .0262291
861.659 .0262148
862.336 .0262000
863.013 .0261851
863.690 .0261706
864.366 .0261569
865.042 .0261446
865.718 .0261330
866.393 .0261220
867.068 .0261111
867.743 .0261000
868.417 .0260883
869.091 .0260760
869.765 .0260630
870.438 .0260495
871.111 .0260359
871.783 .0260219
872.456 .0260077
873.127 .0259940
873.799 .0259801
874.470 .0259664
875.141 .0259524
875.811 .0259383
876.481 .0259234
877.151 .0259089
877.820 .0258945
878.489 .0258808
879.158 .0258678
879.826 .0258556
880.494 .0258439
881.162 .0258331
881.829 .0258223
882.496 .0258113
883.163 .0258001
883.829 .0257886
884.495 .0257765
885.160 .0257653
885.825 .0257544
886.490 .0257453
887.154 .0257381
887.818 .0257330
888.482 .0257292
889.145 .0257267
889.808 .0257248
890.471 .0257230
891.133 .0257208
891.795 .0257180
892.456 .0257142
893.117 .0257110
893.778 .0257081
894.439 .0257057
895.099 .0257040
895.758 .0257027
896.417 .0257013
897.076 .0256999
897.735 .0256973
898.393 .0256935
899.051 .0256890
899.708 .0256834
900.365 .0256766
901.022 .0256696
901.678 .0256628
902.334 .0256568
902.990 .0256516
903.645 .0256472
904.300 .0256433
904.954 .0256400
905.608 .0256367
906.262 .0256330
906.915 .0256291
907.568 .0256243
908.221 .0256185
908.873 .0256122
909.525 .0256050
910.176 .0255969
910.828 .0255886
911.478 .0255801
912.129 .0255709
912.778 .0255608
913.428 .0255496
914.077 .0255378
914.726 .0255250
915.375 .0255110
916.023 .0254964
916.670 .0254822
917.318 .0254684
917.964 .0254547
918.611 .0254414
919.257 .0254292
919.903 .0254176
920.548 .0254060
921.193 .0253943
921.838 .0253830
922.482 .0253718
923.126 .0253608
923.770 .0253501
924.413 .0253401
925.056 .0253303
925.698 .0253213
926.340 .0253125
926.982 .0253042
927.623 .0252960
928.264 .0252879
928.904 .0252801
929.544 .0252723
930.184 .0252639
930.823 .0252551
931.462 .0252463
932.101 .0252376
932.739 .0252282
933.377 .0252186
934.014 .0252088
934.651 .0251991
935.288 .0251891
935.924 .0251787
936.560 .0251677
937.196 .0251565
937.831 .0251444
938.466 .0251314
939.100 .0251176
939.734 .0251034
940.368 .0250888
941.001 .0250739
941.634 .0250590
942.266 .0250443
942.899 .0250297
943.530 .0250149
944.162 .0250000
944.793 .0249849
945.423 .0249690
946.053 .0249523
946.683 .0249351
947.313 .0249174
947.942 .0248990
948.571 .0248804
949.199 .0248612
949.827 .0248416
950.455 .0248220
951.082 .0248020
951.709 .0247821
952.335 .0247623
952.961 .0247425
953.587 .0247226
954.212 .0247032
954.837 .0246842
955.462 .0246653
956.086 .0246470
956.710 .0246300
957.334 .0246139
957.957 .0245986
958.579 .0245846
959.202 .0245717
959.824 .0245598
960.445 .0245487
961.067 .0245381
961.688 .0245280
962.308 .0245180
962.928 .0245079
963.548 .0244976
964.168 .0244867
964.787 .0244754
965.406 .0244638
966.024 .0244522
966.642 .0244407
967.260 .0244291
967.877 .0244179
968.494 .0244074
969.110 .0243969
969.727 .0243860
970.342 .0243747
970.958 .0243632
971.573 .0243513
972.188 .0243395
972.802 .0243279
973.416 .0243169
974.030 .0243067
974.643 .0242975
975.256 .0242891
975.869 .0242813
976.481 .0242746
977.093 .0242683
977.705 .0242626
978.316 .0242574
978.927 .0242522
979.538 .0242475
980.148 .0242432
980.758 .0242391
981.367 .0242354
981.977 .0242319
982.586 .0242287
983.194 .0242254
983.802 .0242222
984.410 .0242187
985.018 .0242149
985.625 .0242110
986.232 .0242067
986.838 .0242014
987.445 .0241957
988.050 .0241889
988.656 .0241819
989.261 .0241749
989.866 .0241669
990.471 .0241586
991.075 .0241504
991.679 .0241415
992.282 .0241325
992.886 .0241231
993.489 .0241137
994.091 .0241043
994.694 .0240953
995.296 .0240862
995.897 .0240779
996.499 .0240706
997.100 .0240641
997.701 .0240587
998.301 .0240546
998.901 .0240509
999.501 .0240480
1000.101 .0240460
1000.700 .0240444
1001.299 .0240426
1001.898 .0240414
1002.496 .0240398
1003.094 .0240379
1003.692 .0240359
1004.289 .0240336
1004.887 .0240315
1005.484 .0240298
1006.080 .0240281
1006.677 .0240263
1007.273 .0240245
1007.868 .0240228
1008.464 .0240212
1009.059 .0240197
1009.654 .0240183
1010.249 .0240173
1010.843 .0240169
1011.437 .0240170
1012.031 .0240170
1012.625 .0240178
1013.218 .0240188
1013.811 .0240206
1014.404 .0240228
1014.997 .0240253
1015.589 .0240283
1016.181 .0240315
1016.773 .0240343
1017.365 .0240364
1017.956 .0240371
1018.547 .0240367
1019.138 .0240342
1019.728 .0240308
1020.319 .0240262
1020.909 .0240215
1021.499 .0240170
1022.088 .0240131
1022.678 .0240088
1023.267 .0240053
1023.856 .0240005
1024.445 .0239952
1025.033 .0239886
1025.621 .0239810
1026.209 .0239727
1026.797 .0239646
1027.385 .0239569
1027.972 .0239506
1028.560 .0239455
1029.147 .0239427
1029.734 .0239408
1030.320 .0239413
1030.907 .0239421
1031.493 .0239441
1032.079 .0239471
1032.665 .0239510
1033.250 .0239554
1033.836 .0239609
1034.421 .0239671
1035.006 .0239737
1035.591 .0239800
1036.176 .0239851
1036.761 .0239887
1037.345 .0239914
1037.929 .0239923
1038.514 .0239916
1039.097 .0239899
1039.681 .0239873
1040.265 .0239832
1040.848 .0239784
1041.432 .0239720
1042.015 .0239642
1042.598 .0239546
1043.181 .0239429
1043.764 .0239300
1044.346 .0239168
1044.929 .0239050
1045.511 .0238951
1046.094 .0238878
1046.676 .0238829
1047.258 .0238805
1047.840 .0238808
1048.422 .0238826
1049.003 .0238856
1049.585 .0238891
1050.166 .0238919
1050.748 .0238955
1051.329 .0238982
1051.910 .0239016
1052.491 .0239067
1053.072 .0239131
1053.653 .0239205
1054.234 .0239284
1054.815 .0239359
1055.396 .0239435
1055.976 .0239502
1056.557 .0239542
1057.138 .0239545
1057.718 .0239512
1058.298 .0239442
1058.879 .0239332
1059.459 .0239202
1060.039 .0239069
1060.620 .0238925
1061.200 .0238797
1061.780 .0238680
1062.360 .0238584
1062.940 .0238525
1063.520 .0238481
1064.101 .0238448
1064.681 .0238408
1065.261 .0238351
1065.841 .0238264
1066.421 .0238156
1067.001 .0238041
1067.581 .0237910
1068.161 .0237789
1068.741 .0237691
1069.321 .0237621
1069.901 .0237586
1070.482 .0237591
1071.062 .0237624
1071.642 .0237668
1072.222 .0237714
1072.803 .0237744
1073.383 .0237758
1073.963 .0237761
1074.544 .0237760
1075.124 .0237755
1075.705 .0237762
1076.286 .0237786
1076.866 .0237821
1077.447 .0237868
1078.028 .0237902
1078.609 .0237909
1079.190 .0237883
1079.771 .0237816
1080.352 .0237693
1080.934 .0237520
1081.515 .0237326
1082.097 .0237113
1082.679 .0236891
1083.260 .0236683
1083.842 .0236487
1084.424 .0236313
1085.007 .0236151
1085.589 .0235999
1086.172 .0235869
1086.754 .0235764
1087.337 .0235684
1087.920 .0235654
1088.503 .0235668
1089.087 .0235710
1089.670 .0235770
1090.254 .0235841
1090.838 .0235910
1091.422 .0235959
1092.006 .0235979
1092.590 .0235967
1093.175 .0235916
1093.760 .0235843
1094.345 .0235739
1094.930 .0235637
1095.516 .0235549
1096.102 .0235467
1096.688 .0235409
1097.274 .0235366
1097.860 .0235331
1098.447 .0235302
1099.034 .0235278
1099.622 .0235251
1100.209 .0235210
1100.797 .0235167
1101.385 .0235107
1101.973 .0235025
1102.562 .0234938
1103.151 .0234840
1103.740 .0234743
1104.330 .0234649
1104.920 .0234561
1105.510 .0234483
1106.101 .0234408
1106.691 .0234322
1107.283 .0234223
1107.874 .0234130
1108.466 .0234024
1109.058 .0233930
1109.651 .0233876
1110.244 .0233893
1110.837 .0233977
1111.431 .0234153
1112.025 .0234417
1112.620 .0234741
1113.215 .0235101
1113.810 .0235449
1114.406 .0235784
1115.002 .0236089
1115.599 .0236330
1116.196 .0236525
1116.793 .0236677
1117.391 .0236812
1117.989 .0236882
1118.588 .0236932
1119.187 .0236917
1119.787 .0236808
1120.387 .0236594
1120.988 .0236262
1121.589 .0235859
1122.190 .0235389
1122.793 .0234895
1123.395 .0234419
1123.998 .0234034
1124.602 .0233764
1125.206 .0233590
1125.811 .0233555
1126.416 .0233636
1127.022 .0233828
1127.628 .0234113
1128.235 .0234468
1128.843 .0234896
1129.451 .0235419
1130.059 .0236025
1130.669 .0236694
1131.278 .0237441
1131.889 .0238219
1132.500 .0239050
1133.112 .0239899
1133.724 .0240769
1134.337 .0241621
1134.950 .0242455
1135.564 .0243304
1136.179 .0244108
1136.795 .0244932
1137.411 .0245742
1138.028 .0246529
1138.645 .0247365
1139.263 .0248168
1139.882 .0248968
1140.502 .0249754
1141.122 .0250599
1141.743 .0251492
1142.365 .0252483
1142.987 .0253061
1143.611 .0253987
1144.235 .0255944
1144.859 .0256806
1145.485 .0259632
