Measurement Sequence started on: 10-20-44-796
Integration time: 35
Scans to Average: 2 
>>>>>Begin Spectral Data<<<<<
432.953 .0313889
433.882 .0418993
434.810 .0380373
435.737 .0408795
436.662 .0413299
437.586 .0408158
438.509 .0412889
439.431 .0413954
440.351 .0415853
441.269 .0416922
442.187 .0418005
443.103 .0419032
444.018 .0420144
444.932 .0421251
445.844 .0421918
446.756 .0422109
447.666 .0422040
448.575 .0421771
449.482 .0421336
450.388 .0420884
451.294 .0420427
452.198 .0420038
453.100 .0419606
454.002 .0419088
454.902 .0418448
455.801 .0417710
456.699 .0416819
457.596 .0415784
458.492 .0414698
459.387 .0413597
460.280 .0412535
461.172 .0411541
462.064 .0410643
462.954 .0409824
463.843 .0409068
464.730 .0408432
465.617 .0407886
466.503 .0407367
467.387 .0406875
468.271 .0406348
469.153 .0405768
470.035 .0405093
470.915 .0404394
471.794 .0403650
472.673 .0402906
473.550 .0402191
474.426 .0401538
475.301 .0400959
476.175 .0400497
477.048 .0400056
477.920 .0399627
478.791 .0399176
479.661 .0398644
480.530 .0398058
481.398 .0397445
482.266 .0396823
483.132 .0396202
483.997 .0395602
484.861 .0395066
485.724 .0394594
486.587 .0394186
487.448 .0393820
488.308 .0393446
489.168 .0393044
490.026 .0392586
490.884 .0392057
491.741 .0391469
492.597 .0390832
493.452 .0390186
494.306 .0389515
495.159 .0388796
496.011 .0388095
496.862 .0387370
497.713 .0386655
498.562 .0385941
499.411 .0385220
500.259 .0384468
501.106 .0383702
501.952 .0382921
502.798 .0382102
503.642 .0381275
504.486 .0380406
505.329 .0379460
506.171 .0378477
507.012 .0377479
507.852 .0376431
508.692 .0375377
509.531 .0374329
510.369 .0373241
511.206 .0372152
512.043 .0371046
512.878 .0369879
513.713 .0368661
514.547 .0367380
515.381 .0366024
516.213 .0364539
517.045 .0363018
517.876 .0361401
518.706 .0359797
519.536 .0358242
520.365 .0356691
521.193 .0355150
522.020 .0353655
522.847 .0352227
523.673 .0350822
524.498 .0349415
525.323 .0348008
526.146 .0346620
526.969 .0345294
527.792 .0343932
528.614 .0342557
529.435 .0341291
530.255 .0340149
531.075 .0339052
531.894 .0338068
532.712 .0337201
533.530 .0336456
534.347 .0335848
535.163 .0335232
535.979 .0334653
536.794 .0334058
537.608 .0333419
538.422 .0332717
539.235 .0332035
540.048 .0331398
540.860 .0330840
541.671 .0330421
542.481 .0330136
543.292 .0329882
544.101 .0329767
544.910 .0329757
545.718 .0329796
546.526 .0329828
547.333 .0329816
548.139 .0329794
548.945 .0329788
549.750 .0329708
550.555 .0329619
551.359 .0329546
552.162 .0329540
552.965 .0329545
553.768 .0329534
554.569 .0329565
555.371 .0329612
556.171 .0329600
556.972 .0329494
557.771 .0329306
558.570 .0329017
559.369 .0328671
560.167 .0328271
560.964 .0327877
561.761 .0327525
562.558 .0327289
563.354 .0327202
564.149 .0327242
564.944 .0327435
565.738 .0327745
566.532 .0328118
567.325 .0328584
568.118 .0329067
568.910 .0329536
569.702 .0330014
570.494 .0330545
571.285 .0331109
572.075 .0331746
572.865 .0332441
573.654 .0333180
574.443 .0333939
575.232 .0334690
576.020 .0335359
576.807 .0335946
577.594 .0336463
578.381 .0336916
579.167 .0337304
579.952 .0337699
580.738 .0338091
581.522 .0338509
582.307 .0338969
583.091 .0339462
583.874 .0339947
584.657 .0340421
585.440 .0340859
586.222 .0341263
587.004 .0341601
587.785 .0341891
588.566 .0342124
589.346 .0342313
590.126 .0342463
590.906 .0342572
591.685 .0342641
592.464 .0342690
593.242 .0342702
594.020 .0342684
594.797 .0342632
595.575 .0342542
596.351 .0342421
597.128 .0342287
597.904 .0342138
598.679 .0341986
599.454 .0341824
600.229 .0341675
601.004 .0341531
601.778 .0341386
602.551 .0341242
603.325 .0341089
604.097 .0340925
604.870 .0340745
605.642 .0340544
606.414 .0340323
607.185 .0340081
607.956 .0339831
608.727 .0339573
609.497 .0339303
610.267 .0339021
611.037 .0338731
611.806 .0338428
612.575 .0338109
613.344 .0337765
614.112 .0337397
614.880 .0337013
615.647 .0336615
616.414 .0336206
617.181 .0335790
617.948 .0335379
618.714 .0334976
619.480 .0334571
620.245 .0334172
621.011 .0333774
621.775 .0333374
622.540 .0332981
623.304 .0332589
624.068 .0332196
624.832 .0331801
625.595 .0331411
626.358 .0331023
627.120 .0330636
627.883 .0330247
628.645 .0329854
629.406 .0329462
630.168 .0329074
630.929 .0328685
631.689 .0328302
632.450 .0327933
633.210 .0327572
633.970 .0327213
634.729 .0326862
635.489 .0326509
636.248 .0326159
637.006 .0325809
637.765 .0325463
638.523 .0325123
639.280 .0324798
640.038 .0324492
640.795 .0324209
641.552 .0323950
642.309 .0323713
643.065 .0323488
643.821 .0323280
644.577 .0323073
645.332 .0322870
646.088 .0322671
646.843 .0322478
647.597 .0322289
648.352 .0322107
649.106 .0321941
649.860 .0321791
650.613 .0321656
651.367 .0321532
652.120 .0321407
652.872 .0321277
653.625 .0321134
654.377 .0320974
655.129 .0320804
655.881 .0320628
656.632 .0320450
657.384 .0320279
658.135 .0320125
658.885 .0319985
659.636 .0319862
660.386 .0319752
661.136 .0319647
661.885 .0319539
662.635 .0319423
663.384 .0319297
664.133 .0319171
664.881 .0319048
665.630 .0318931
666.378 .0318826
667.126 .0318735
667.874 .0318646
668.621 .0318558
669.368 .0318465
670.115 .0318366
670.862 .0318258
671.608 .0318145
672.354 .0318028
673.100 .0317912
673.846 .0317803
674.591 .0317693
675.337 .0317588
676.082 .0317486
676.826 .0317379
677.571 .0317265
678.315 .0317136
679.059 .0316998
679.803 .0316848
680.547 .0316689
681.290 .0316514
682.033 .0316322
682.776 .0316110
683.518 .0315873
684.261 .0315611
685.003 .0315326
685.745 .0315021
686.487 .0314701
687.228 .0314369
687.969 .0314022
688.710 .0313657
689.451 .0313280
690.192 .0312895
690.932 .0312507
691.672 .0312113
692.412 .0311724
693.152 .0311350
693.891 .0310996
694.630 .0310667
695.369 .0310360
696.108 .0310073
696.846 .0309791
697.585 .0309502
698.323 .0309198
699.061 .0308878
699.798 .0308544
700.536 .0308203
701.273 .0307863
702.010 .0307526
702.746 .0307195
703.483 .0306871
704.219 .0306552
704.955 .0306231
705.691 .0305898
706.427 .0305549
707.162 .0305176
707.897 .0304786
708.632 .0304382
709.367 .0303976
710.101 .0303584
710.835 .0303211
711.569 .0302865
712.303 .0302543
713.037 .0302252
713.770 .0301985
714.503 .0301735
715.236 .0301497
715.969 .0301261
716.702 .0301028
717.434 .0300799
718.166 .0300571
718.898 .0300347
719.629 .0300135
720.361 .0299931
721.092 .0299734
721.823 .0299542
722.554 .0299350
723.284 .0299158
724.014 .0298959
724.744 .0298752
725.474 .0298539
726.204 .0298317
726.933 .0298091
727.662 .0297864
728.391 .0297644
729.120 .0297431
729.849 .0297233
730.577 .0297057
731.305 .0296905
732.033 .0296777
732.760 .0296667
733.488 .0296580
734.215 .0296509
734.942 .0296448
735.669 .0296389
736.395 .0296332
737.122 .0296275
737.848 .0296214
738.573 .0296155
739.299 .0296093
740.024 .0296042
740.750 .0295996
741.474 .0295949
742.199 .0295904
742.924 .0295854
743.648 .0295797
744.372 .0295731
745.096 .0295664
745.819 .0295594
746.543 .0295523
747.266 .0295464
747.989 .0295417
748.711 .0295387
749.434 .0295374
750.156 .0295377
750.878 .0295388
751.599 .0295413
752.321 .0295444
753.042 .0295477
753.763 .0295521
754.484 .0295573
755.205 .0295625
755.925 .0295681
756.645 .0295735
757.365 .0295781
758.085 .0295812
758.804 .0295827
759.523 .0295815
760.242 .0295779
760.961 .0295722
761.679 .0295644
762.397 .0295551
763.115 .0295447
763.833 .0295328
764.551 .0295196
765.268 .0295053
765.985 .0294895
766.702 .0294720
767.418 .0294542
768.134 .0294366
768.850 .0294199
769.566 .0294041
770.282 .0293903
770.997 .0293785
771.712 .0293680
772.427 .0293587
773.142 .0293495
773.856 .0293401
774.570 .0293301
775.284 .0293190
775.998 .0293077
776.711 .0292962
777.424 .0292847
778.137 .0292727
778.849 .0292600
779.562 .0292465
780.274 .0292316
780.986 .0292152
781.697 .0291979
782.409 .0291800
783.120 .0291620
783.831 .0291450
784.541 .0291293
785.252 .0291151
785.962 .0291019
786.671 .0290894
787.381 .0290768
788.090 .0290634
788.799 .0290489
789.508 .0290332
790.217 .0290167
790.925 .0289998
791.633 .0289815
792.341 .0289621
793.048 .0289417
793.755 .0289196
794.462 .0288958
795.169 .0288703
795.875 .0288435
796.581 .0288156
797.287 .0287873
797.993 .0287591
798.698 .0287315
799.403 .0287053
800.108 .0286805
800.812 .0286567
801.517 .0286341
802.221 .0286125
802.924 .0285917
803.628 .0285723
804.331 .0285540
805.034 .0285367
805.736 .0285204
806.439 .0285049
807.141 .0284896
807.843 .0284741
808.544 .0284581
809.245 .0284408
809.946 .0284221
810.647 .0284023
811.347 .0283812
812.047 .0283592
812.747 .0283370
813.447 .0283150
814.146 .0282932
814.845 .0282725
815.543 .0282528
816.242 .0282341
816.940 .0282165
817.638 .0281996
818.335 .0281833
819.032 .0281671
819.729 .0281511
820.426 .0281346
821.122 .0281178
821.818 .0281007
822.514 .0280832
823.209 .0280658
823.905 .0280480
824.599 .0280292
825.294 .0280099
825.988 .0279892
826.682 .0279674
827.376 .0279443
828.069 .0279202
828.762 .0278953
829.455 .0278702
830.147 .0278450
830.840 .0278201
831.531 .0277960
832.223 .0277738
832.914 .0277528
833.605 .0277339
834.296 .0277168
834.986 .0277012
835.676 .0276879
836.366 .0276769
837.055 .0276672
837.744 .0276595
838.433 .0276531
839.121 .0276478
839.809 .0276433
840.497 .0276393
841.185 .0276351
841.872 .0276306
842.559 .0276258
843.245 .0276204
843.932 .0276140
844.617 .0276071
845.303 .0275997
845.988 .0275919
846.673 .0275840
847.358 .0275755
848.042 .0275672
848.726 .0275591
849.410 .0275514
850.093 .0275434
850.776 .0275357
851.459 .0275280
852.141 .0275204
852.823 .0275126
853.505 .0275054
854.186 .0274988
854.867 .0274933
855.548 .0274889
856.228 .0274860
856.908 .0274841
857.588 .0274835
858.267 .0274831
858.946 .0274833
859.625 .0274830
860.303 .0274825
860.981 .0274815
861.659 .0274803
862.336 .0274784
863.013 .0274764
863.690 .0274743
864.366 .0274726
865.042 .0274706
865.718 .0274693
866.393 .0274683
867.068 .0274679
867.743 .0274677
868.417 .0274680
869.091 .0274684
869.765 .0274690
870.438 .0274691
871.111 .0274687
871.783 .0274675
872.456 .0274657
873.127 .0274632
873.799 .0274610
874.470 .0274591
875.141 .0274575
875.811 .0274564
876.481 .0274561
877.151 .0274553
877.820 .0274536
878.489 .0274512
879.158 .0274478
879.826 .0274433
880.494 .0274375
881.162 .0274309
881.829 .0274241
882.496 .0274169
883.163 .0274098
883.829 .0274027
884.495 .0273960
885.160 .0273900
885.825 .0273845
886.490 .0273803
887.154 .0273774
887.818 .0273760
888.482 .0273760
889.145 .0273771
889.808 .0273788
890.471 .0273806
891.133 .0273824
891.795 .0273846
892.456 .0273870
893.117 .0273899
893.778 .0273937
894.439 .0273985
895.099 .0274036
895.758 .0274090
896.417 .0274138
897.076 .0274180
897.735 .0274206
898.393 .0274217
899.051 .0274209
899.708 .0274188
900.365 .0274157
901.022 .0274120
901.678 .0274080
902.334 .0274032
902.990 .0273980
903.645 .0273919
904.300 .0273844
904.954 .0273756
905.608 .0273651
906.262 .0273537
906.915 .0273411
907.568 .0273276
908.221 .0273133
908.873 .0272983
909.525 .0272830
910.176 .0272672
910.828 .0272512
911.478 .0272350
912.129 .0272189
912.778 .0272028
913.428 .0271871
914.077 .0271718
914.726 .0271576
915.375 .0271439
916.023 .0271315
916.670 .0271200
917.318 .0271087
917.964 .0270979
918.611 .0270875
919.257 .0270767
919.903 .0270657
920.548 .0270541
921.193 .0270420
921.838 .0270289
922.482 .0270154
923.126 .0270009
923.770 .0269859
924.413 .0269705
925.056 .0269546
925.698 .0269379
926.340 .0269209
926.982 .0269032
927.623 .0268853
928.264 .0268676
928.904 .0268501
929.544 .0268322
930.184 .0268148
930.823 .0267978
931.462 .0267813
932.101 .0267649
932.739 .0267489
933.377 .0267329
934.014 .0267163
934.651 .0266991
935.288 .0266809
935.924 .0266617
936.560 .0266419
937.196 .0266211
937.831 .0265991
938.466 .0265764
939.100 .0265532
939.734 .0265290
940.368 .0265045
941.001 .0264797
941.634 .0264546
942.266 .0264288
942.899 .0264027
943.530 .0263766
944.162 .0263501
944.793 .0263237
945.423 .0262969
946.053 .0262696
946.683 .0262419
947.313 .0262139
947.942 .0261856
948.571 .0261568
949.199 .0261278
949.827 .0260981
950.455 .0260680
951.082 .0260386
951.709 .0260097
952.335 .0259816
952.961 .0259545
953.587 .0259289
954.212 .0259035
954.837 .0258793
955.462 .0258557
956.086 .0258325
956.710 .0258099
957.334 .0257873
957.957 .0257649
958.579 .0257432
959.202 .0257232
959.824 .0257040
960.445 .0256860
961.067 .0256692
961.688 .0256521
962.308 .0256344
962.928 .0256160
963.548 .0255961
964.168 .0255748
964.787 .0255522
965.406 .0255283
966.024 .0255037
966.642 .0254795
967.260 .0254558
967.877 .0254330
968.494 .0254109
969.110 .0253894
969.727 .0253672
970.342 .0253450
970.958 .0253226
971.573 .0253001
972.188 .0252779
972.802 .0252567
973.416 .0252361
974.030 .0252170
974.643 .0251995
975.256 .0251843
975.869 .0251701
976.481 .0251573
977.093 .0251456
977.705 .0251344
978.316 .0251241
978.927 .0251149
979.538 .0251060
980.148 .0250983
980.758 .0250911
981.367 .0250844
981.977 .0250780
982.586 .0250722
983.194 .0250662
983.802 .0250604
984.410 .0250544
985.018 .0250480
985.625 .0250408
986.232 .0250340
986.838 .0250271
987.445 .0250199
988.050 .0250128
988.656 .0250048
989.261 .0249959
989.866 .0249858
990.471 .0249741
991.075 .0249618
991.679 .0249495
992.282 .0249376
992.886 .0249266
993.489 .0249181
994.091 .0249123
994.694 .0249086
995.296 .0249065
995.897 .0249052
996.499 .0249038
997.100 .0249016
997.701 .0248987
998.301 .0248957
998.901 .0248935
999.501 .0248922
1000.101 .0248920
1000.700 .0248930
1001.299 .0248948
1001.898 .0248964
1002.496 .0248972
1003.094 .0248964
1003.692 .0248943
1004.289 .0248908
1004.887 .0248874
1005.484 .0248847
1006.080 .0248839
1006.677 .0248849
1007.273 .0248878
1007.868 .0248919
1008.464 .0248969
1009.059 .0249016
1009.654 .0249068
1010.249 .0249124
1010.843 .0249190
1011.437 .0249257
1012.031 .0249334
1012.625 .0249417
1013.218 .0249499
1013.811 .0249571
1014.404 .0249626
1014.997 .0249654
1015.589 .0249662
1016.181 .0249641
1016.773 .0249599
1017.365 .0249549
1017.956 .0249499
1018.547 .0249444
1019.138 .0249394
1019.728 .0249346
1020.319 .0249307
1020.909 .0249267
1021.499 .0249237
1022.088 .0249205
1022.678 .0249180
1023.267 .0249164
1023.856 .0249148
1024.445 .0249140
1025.033 .0249138
1025.621 .0249137
1026.209 .0249147
1026.797 .0249158
1027.385 .0249172
1027.972 .0249183
1028.560 .0249203
1029.147 .0249226
1029.734 .0249255
1030.320 .0249290
1030.907 .0249332
1031.493 .0249386
1032.079 .0249456
1032.665 .0249537
1033.250 .0249639
1033.836 .0249772
1034.421 .0249913
1035.006 .0250059
1035.591 .0250201
1036.176 .0250329
1036.761 .0250443
1037.345 .0250543
1037.929 .0250630
1038.514 .0250708
1039.097 .0250788
1039.681 .0250869
1040.265 .0250948
1040.848 .0251042
1041.432 .0251127
1042.015 .0251204
1042.598 .0251263
1043.181 .0251306
1043.764 .0251327
1044.346 .0251352
1044.929 .0251390
1045.511 .0251446
1046.094 .0251531
1046.676 .0251649
1047.258 .0251782
1047.840 .0251937
1048.422 .0252099
1049.003 .0252257
1049.585 .0252410
1050.166 .0252549
1050.748 .0252663
1051.329 .0252766
1051.910 .0252856
1052.491 .0252943
1053.072 .0253014
1053.653 .0253079
1054.234 .0253130
1054.815 .0253161
1055.396 .0253186
1055.976 .0253196
1056.557 .0253192
1057.138 .0253184
1057.718 .0253170
1058.298 .0253157
1058.879 .0253144
1059.459 .0253139
1060.039 .0253145
1060.620 .0253157
1061.200 .0253179
1061.780 .0253208
1062.360 .0253230
1062.940 .0253255
1063.520 .0253266
1064.101 .0253257
1064.681 .0253238
1065.261 .0253202
1065.841 .0253160
1066.421 .0253116
1067.001 .0253076
1067.581 .0253040
1068.161 .0253006
1068.741 .0252985
1069.321 .0252968
1069.901 .0252951
1070.482 .0252934
1071.062 .0252908
1071.642 .0252883
1072.222 .0252866
1072.803 .0252858
1073.383 .0252867
1073.963 .0252897
1074.544 .0252947
1075.124 .0253016
1075.705 .0253090
1076.286 .0253179
1076.866 .0253279
1077.447 .0253377
1078.028 .0253473
1078.609 .0253571
1079.190 .0253666
1079.771 .0253767
1080.352 .0253873
1080.934 .0253996
1081.515 .0254121
1082.097 .0254263
1082.679 .0254396
1083.260 .0254536
1083.842 .0254677
1084.424 .0254811
1085.007 .0254916
1085.589 .0255024
1086.172 .0255113
1086.754 .0255183
1087.337 .0255241
1087.920 .0255288
1088.503 .0255309
1089.087 .0255316
1089.670 .0255275
1090.254 .0255206
1090.838 .0255090
1091.422 .0254945
1092.006 .0254756
1092.590 .0254556
1093.175 .0254339
1093.760 .0254131
1094.345 .0253939
1094.930 .0253790
1095.516 .0253665
1096.102 .0253590
1096.688 .0253564
1097.274 .0253580
1097.860 .0253619
1098.447 .0253678
1099.034 .0253740
1099.622 .0253806
1100.209 .0253856
1100.797 .0253913
1101.385 .0253960
1101.973 .0254012
1102.562 .0254064
1103.151 .0254108
1103.740 .0254128
1104.330 .0254117
1104.920 .0254060
1105.510 .0253947
1106.101 .0253760
1106.691 .0253492
1107.283 .0253163
1107.874 .0252809
1108.466 .0252446
1109.058 .0252088
1109.651 .0251769
1110.244 .0251520
1110.837 .0251323
1111.431 .0251184
1112.025 .0251089
1112.620 .0251026
1113.215 .0250993
1113.810 .0250967
1114.406 .0250986
1115.002 .0251040
1115.599 .0251135
1116.196 .0251283
1116.793 .0251472
1117.391 .0251702
1117.989 .0251945
1118.588 .0252212
1119.187 .0252501
1119.787 .0252787
1120.387 .0253062
1120.988 .0253337
1121.589 .0253644
1122.190 .0253980
1122.793 .0254330
1123.395 .0254698
1123.998 .0255097
1124.602 .0255484
1125.206 .0255828
1125.811 .0256129
1126.416 .0256372
1127.022 .0256549
1127.628 .0256639
1128.235 .0256692
1128.843 .0256723
1129.451 .0256757
1130.059 .0256826
1130.669 .0256925
1131.278 .0257053
1131.889 .0257183
1132.500 .0257290
1133.112 .0257392
1133.724 .0257481
1134.337 .0257574
1134.950 .0257692
1135.564 .0257912
1136.179 .0258263
1136.795 .0258771
1137.411 .0259467
1138.028 .0260335
1138.645 .0261322
1139.263 .0262420
1139.882 .0263555
1140.502 .0264751
1141.122 .0266060
1141.743 .0267452
1142.365 .0268913
1142.987 .0269124
1143.611 .0271425
1144.235 .0275212
1144.859 .0276537
1145.485 .0277389
