Measurement Sequence started on: 10-20-44-796
Integration time: 35
Scans to Average: 2 
>>>>>Begin Spectral Data<<<<<
432.953 .0442342
433.882 .0393551
434.810 .0398531
435.737 .0398848
436.662 .0396702
437.586 .0400842
438.509 .0398858
439.431 .0398137
440.351 .0396934
441.269 .0395467
442.187 .0394034
443.103 .0392634
444.018 .0391478
444.932 .0390576
445.844 .0389974
446.756 .0389405
447.666 .0388772
448.575 .0387936
449.482 .0386976
450.388 .0385882
451.294 .0384845
452.198 .0383787
453.100 .0382700
454.002 .0381744
454.902 .0380816
455.801 .0379954
456.699 .0379231
457.596 .0378556
458.492 .0377901
459.387 .0377280
460.280 .0376793
461.172 .0376263
462.064 .0375807
462.954 .0375365
463.843 .0374812
464.730 .0374223
465.617 .0373550
466.503 .0372768
467.387 .0371959
468.271 .0371178
469.153 .0370422
470.035 .0369724
470.915 .0369182
471.794 .0368644
472.673 .0368137
473.550 .0367658
474.426 .0367146
475.301 .0366530
476.175 .0365870
477.048 .0365119
477.920 .0364339
478.791 .0363574
479.661 .0362864
480.530 .0362230
481.398 .0361724
482.266 .0361337
483.132 .0361031
483.997 .0360830
484.861 .0360728
485.724 .0360651
486.587 .0360645
487.448 .0360675
488.308 .0360715
489.168 .0360736
490.026 .0360797
490.884 .0360862
491.741 .0360952
492.597 .0361058
493.452 .0361169
494.306 .0361271
495.159 .0361380
496.011 .0361460
496.862 .0361484
497.713 .0361460
498.562 .0361321
499.411 .0361045
500.259 .0360616
501.106 .0360020
501.952 .0359255
502.798 .0358358
503.642 .0357356
504.486 .0356217
505.329 .0355003
506.171 .0353721
507.012 .0352418
507.852 .0351134
508.692 .0349857
509.531 .0348603
510.369 .0347354
511.206 .0346121
512.043 .0344850
512.878 .0343560
513.713 .0342229
514.547 .0340915
515.381 .0339632
516.213 .0338399
517.045 .0337238
517.876 .0336187
518.706 .0335260
519.536 .0334408
520.365 .0333595
521.193 .0332710
522.020 .0331698
522.847 .0330510
523.673 .0329062
524.498 .0327435
525.323 .0325678
526.146 .0323866
526.969 .0322039
527.792 .0320288
528.614 .0318530
529.435 .0316830
530.255 .0315183
531.075 .0313426
531.894 .0311620
532.712 .0309758
533.530 .0307866
534.347 .0306023
535.163 .0304349
535.979 .0302966
536.794 .0301874
537.608 .0301258
538.422 .0300938
539.235 .0300845
540.048 .0300991
540.860 .0301245
541.671 .0301517
542.481 .0301845
543.292 .0302140
544.101 .0302415
544.910 .0302718
545.718 .0303017
546.526 .0303292
547.333 .0303644
548.139 .0304062
548.945 .0304500
549.750 .0304853
550.555 .0305220
551.359 .0305479
552.162 .0305685
552.965 .0305839
553.768 .0305890
554.569 .0305926
555.371 .0305965
556.171 .0306037
556.972 .0306222
557.771 .0306519
558.570 .0307034
559.369 .0307703
560.167 .0308512
560.964 .0309421
561.761 .0310365
562.558 .0311318
563.354 .0312275
564.149 .0313132
564.944 .0313909
565.738 .0314608
566.532 .0315231
567.325 .0315793
568.118 .0316308
568.910 .0316832
569.702 .0317348
570.494 .0317855
571.285 .0318368
572.075 .0318857
572.865 .0319348
573.654 .0319855
574.443 .0320365
575.232 .0320917
576.020 .0321492
576.807 .0322096
577.594 .0322724
578.381 .0323368
579.167 .0324015
579.952 .0324666
580.738 .0325300
581.522 .0325927
582.307 .0326513
583.091 .0327085
583.874 .0327612
584.657 .0328078
585.440 .0328480
586.222 .0328792
587.004 .0329010
587.785 .0329137
588.566 .0329182
589.346 .0329166
590.126 .0329099
590.906 .0328999
591.685 .0328883
592.464 .0328758
593.242 .0328639
594.020 .0328521
594.797 .0328412
595.575 .0328304
596.351 .0328186
597.128 .0328063
597.904 .0327941
598.679 .0327818
599.454 .0327694
600.229 .0327566
601.004 .0327448
601.778 .0327323
602.551 .0327197
603.325 .0327071
604.097 .0326953
604.870 .0326838
605.642 .0326734
606.414 .0326630
607.185 .0326526
607.956 .0326418
608.727 .0326305
609.497 .0326183
610.267 .0326056
611.037 .0325916
611.806 .0325771
612.575 .0325623
613.344 .0325472
614.112 .0325308
614.880 .0325142
615.647 .0324963
616.414 .0324765
617.181 .0324548
617.948 .0324310
618.714 .0324053
619.480 .0323786
620.245 .0323509
621.011 .0323226
621.775 .0322943
622.540 .0322656
623.304 .0322372
624.068 .0322104
624.832 .0321842
625.595 .0321584
626.358 .0321345
627.120 .0321115
627.883 .0320887
628.645 .0320662
629.406 .0320447
630.168 .0320236
630.929 .0320036
631.689 .0319835
632.450 .0319635
633.210 .0319451
633.970 .0319270
634.729 .0319083
635.489 .0318905
636.248 .0318715
637.006 .0318501
637.765 .0318268
638.523 .0318022
639.280 .0317761
640.038 .0317502
640.795 .0317254
641.552 .0317019
642.309 .0316806
643.065 .0316610
643.821 .0316425
644.577 .0316260
645.332 .0316101
646.088 .0315932
646.843 .0315759
647.597 .0315583
648.352 .0315392
649.106 .0315202
649.860 .0315009
650.613 .0314814
651.367 .0314617
652.120 .0314420
652.872 .0314223
653.625 .0314032
654.377 .0313855
655.129 .0313680
655.881 .0313517
656.632 .0313361
657.384 .0313198
658.135 .0313036
658.885 .0312872
659.636 .0312702
660.386 .0312531
661.136 .0312369
661.885 .0312213
662.635 .0312079
663.384 .0311967
664.133 .0311872
664.881 .0311793
665.630 .0311714
666.378 .0311623
667.126 .0311516
667.874 .0311387
668.621 .0311236
669.368 .0311072
670.115 .0310904
670.862 .0310732
671.608 .0310570
672.354 .0310421
673.100 .0310280
673.846 .0310150
674.591 .0310021
675.337 .0309888
676.082 .0309756
676.826 .0309618
677.571 .0309470
678.315 .0309321
679.059 .0309175
679.803 .0309030
680.547 .0308891
681.290 .0308757
682.033 .0308617
682.776 .0308478
683.518 .0308334
684.261 .0308173
685.003 .0308000
685.745 .0307817
686.487 .0307622
687.228 .0307422
687.969 .0307218
688.710 .0307008
689.451 .0306795
690.192 .0306578
690.932 .0306353
691.672 .0306118
692.412 .0305877
693.152 .0305629
693.891 .0305384
694.630 .0305147
695.369 .0304916
696.108 .0304698
696.846 .0304499
697.585 .0304310
698.323 .0304128
699.061 .0303943
699.798 .0303755
700.536 .0303560
701.273 .0303359
702.010 .0303155
702.746 .0302951
703.483 .0302755
704.219 .0302564
704.955 .0302374
705.691 .0302184
706.427 .0301986
707.162 .0301776
707.897 .0301552
708.632 .0301311
709.367 .0301053
710.101 .0300787
710.835 .0300524
711.569 .0300269
712.303 .0300024
713.037 .0299794
713.770 .0299579
714.503 .0299379
715.236 .0299195
715.969 .0299021
716.702 .0298865
717.434 .0298720
718.166 .0298584
718.898 .0298451
719.629 .0298329
720.361 .0298208
721.092 .0298089
721.823 .0297965
722.554 .0297830
723.284 .0297684
724.014 .0297524
724.744 .0297348
725.474 .0297161
726.204 .0296962
726.933 .0296752
727.662 .0296530
728.391 .0296303
729.120 .0296070
729.849 .0295836
730.577 .0295608
731.305 .0295382
732.033 .0295156
732.760 .0294931
733.488 .0294707
734.215 .0294487
734.942 .0294271
735.669 .0294055
736.395 .0293845
737.122 .0293642
737.848 .0293444
738.573 .0293248
739.299 .0293055
740.024 .0292864
740.750 .0292668
741.474 .0292467
742.199 .0292266
742.924 .0292064
743.648 .0291870
744.372 .0291685
745.096 .0291522
745.819 .0291378
746.543 .0291255
747.266 .0291151
747.989 .0291064
748.711 .0290990
749.434 .0290918
750.156 .0290844
750.878 .0290770
751.599 .0290699
752.321 .0290632
753.042 .0290570
753.763 .0290518
754.484 .0290473
755.205 .0290428
755.925 .0290384
756.645 .0290332
757.365 .0290268
758.085 .0290188
758.804 .0290093
759.523 .0289978
760.242 .0289844
760.961 .0289694
761.679 .0289538
762.397 .0289374
763.115 .0289203
763.833 .0289023
764.551 .0288830
765.268 .0288633
765.985 .0288424
766.702 .0288203
767.418 .0287974
768.134 .0287742
768.850 .0287513
769.566 .0287288
770.282 .0287077
770.997 .0286881
771.712 .0286701
772.427 .0286546
773.142 .0286404
773.856 .0286273
774.570 .0286151
775.284 .0286033
775.998 .0285915
776.711 .0285799
777.424 .0285681
778.137 .0285559
778.849 .0285435
779.562 .0285309
780.274 .0285181
780.986 .0285053
781.697 .0284926
782.409 .0284802
783.120 .0284684
783.831 .0284574
784.541 .0284472
785.252 .0284384
785.962 .0284312
786.671 .0284251
787.381 .0284202
788.090 .0284153
788.799 .0284107
789.508 .0284056
790.217 .0284000
790.925 .0283942
791.633 .0283879
792.341 .0283809
793.048 .0283733
793.755 .0283641
794.462 .0283534
795.169 .0283406
795.875 .0283264
796.581 .0283107
797.287 .0282939
797.993 .0282766
798.698 .0282600
799.403 .0282442
800.108 .0282298
800.812 .0282168
801.517 .0282055
802.221 .0281950
802.924 .0281850
803.628 .0281755
804.331 .0281667
805.034 .0281584
805.736 .0281507
806.439 .0281435
807.141 .0281372
807.843 .0281311
808.544 .0281244
809.245 .0281172
809.946 .0281085
810.647 .0280981
811.347 .0280863
812.047 .0280737
812.747 .0280605
813.447 .0280468
814.146 .0280337
814.845 .0280211
815.543 .0280090
816.242 .0279972
816.940 .0279853
817.638 .0279742
818.335 .0279637
819.032 .0279534
819.729 .0279439
820.426 .0279356
821.122 .0279277
821.818 .0279195
822.514 .0279110
823.209 .0279015
823.905 .0278909
824.599 .0278794
825.294 .0278668
825.988 .0278535
826.682 .0278398
827.376 .0278256
828.069 .0278112
828.762 .0277967
829.455 .0277814
830.147 .0277649
830.840 .0277481
831.531 .0277302
832.223 .0277121
832.914 .0276941
833.605 .0276773
834.296 .0276615
834.986 .0276469
835.676 .0276330
836.366 .0276197
837.055 .0276070
837.744 .0275941
838.433 .0275805
839.121 .0275666
839.809 .0275520
840.497 .0275376
841.185 .0275233
841.872 .0275096
842.559 .0274965
843.245 .0274846
843.932 .0274733
844.617 .0274628
845.303 .0274533
845.988 .0274446
846.673 .0274370
847.358 .0274299
848.042 .0274233
848.726 .0274174
849.410 .0274121
850.093 .0274072
850.776 .0274028
851.459 .0273983
852.141 .0273931
852.823 .0273874
853.505 .0273810
854.186 .0273736
854.867 .0273647
855.548 .0273547
856.228 .0273435
856.908 .0273318
857.588 .0273199
858.267 .0273074
858.946 .0272954
859.625 .0272833
860.303 .0272706
860.981 .0272578
861.659 .0272448
862.336 .0272318
863.013 .0272182
863.690 .0272047
864.366 .0271906
865.042 .0271767
865.718 .0271629
866.393 .0271494
867.068 .0271364
867.743 .0271235
868.417 .0271100
869.091 .0270960
869.765 .0270819
870.438 .0270678
871.111 .0270534
871.783 .0270396
872.456 .0270260
873.127 .0270134
873.799 .0270013
874.470 .0269907
875.141 .0269807
875.811 .0269721
876.481 .0269638
877.151 .0269559
877.820 .0269479
878.489 .0269396
879.158 .0269316
879.826 .0269236
880.494 .0269155
881.162 .0269071
881.829 .0268986
882.496 .0268905
883.163 .0268816
883.829 .0268724
884.495 .0268623
885.160 .0268514
885.825 .0268398
886.490 .0268282
887.154 .0268167
887.818 .0268061
888.482 .0267963
889.145 .0267877
889.808 .0267797
890.471 .0267722
891.133 .0267650
891.795 .0267581
892.456 .0267513
893.117 .0267445
893.778 .0267376
894.439 .0267313
895.099 .0267257
895.758 .0267211
896.417 .0267174
897.076 .0267144
897.735 .0267116
898.393 .0267090
899.051 .0267056
899.708 .0267013
900.365 .0266960
901.022 .0266895
901.678 .0266816
902.334 .0266724
902.990 .0266617
903.645 .0266502
904.300 .0266384
904.954 .0266267
905.608 .0266146
906.262 .0266026
906.915 .0265911
907.568 .0265793
908.221 .0265673
908.873 .0265552
909.525 .0265422
910.176 .0265285
910.828 .0265142
911.478 .0264993
912.129 .0264845
912.778 .0264702
913.428 .0264568
914.077 .0264447
914.726 .0264334
915.375 .0264230
916.023 .0264126
916.670 .0264024
917.318 .0263916
917.964 .0263799
918.611 .0263677
919.257 .0263554
919.903 .0263430
920.548 .0263312
921.193 .0263203
921.838 .0263114
922.482 .0263041
923.126 .0262983
923.770 .0262936
924.413 .0262895
925.056 .0262852
925.698 .0262806
926.340 .0262753
926.982 .0262695
927.623 .0262630
928.264 .0262565
928.904 .0262497
929.544 .0262429
930.184 .0262360
930.823 .0262291
931.462 .0262224
932.101 .0262154
932.739 .0262072
933.377 .0261974
934.014 .0261861
934.651 .0261728
935.288 .0261575
935.924 .0261408
936.560 .0261231
937.196 .0261043
937.831 .0260850
938.466 .0260653
939.100 .0260453
939.734 .0260252
940.368 .0260047
941.001 .0259839
941.634 .0259629
942.266 .0259419
942.899 .0259209
943.530 .0259002
944.162 .0258808
944.793 .0258619
945.423 .0258437
946.053 .0258265
946.683 .0258098
947.313 .0257938
947.942 .0257785
948.571 .0257630
949.199 .0257477
949.827 .0257324
950.455 .0257169
951.082 .0257014
951.709 .0256863
952.335 .0256713
952.961 .0256569
953.587 .0256435
954.212 .0256308
954.837 .0256185
955.462 .0256075
956.086 .0255973
956.710 .0255878
957.334 .0255791
957.957 .0255707
958.579 .0255618
959.202 .0255536
959.824 .0255450
960.445 .0255358
961.067 .0255263
961.688 .0255170
962.308 .0255072
962.928 .0254974
963.548 .0254870
964.168 .0254753
964.787 .0254628
965.406 .0254495
966.024 .0254349
966.642 .0254199
967.260 .0254048
967.877 .0253897
968.494 .0253752
969.110 .0253615
969.727 .0253479
970.342 .0253348
970.958 .0253223
971.573 .0253096
972.188 .0252965
972.802 .0252835
973.416 .0252706
974.030 .0252583
974.643 .0252472
975.256 .0252370
975.869 .0252282
976.481 .0252204
977.093 .0252131
977.705 .0252064
978.316 .0251999
978.927 .0251934
979.538 .0251869
980.148 .0251805
980.758 .0251747
981.367 .0251693
981.977 .0251654
982.586 .0251630
983.194 .0251612
983.802 .0251599
984.410 .0251575
985.018 .0251540
985.625 .0251486
986.232 .0251412
986.838 .0251318
987.445 .0251209
988.050 .0251089
988.656 .0250959
989.261 .0250823
989.866 .0250682
990.471 .0250538
991.075 .0250393
991.679 .0250247
992.282 .0250106
992.886 .0249970
993.489 .0249850
994.091 .0249747
994.694 .0249668
995.296 .0249605
995.897 .0249562
996.499 .0249533
997.100 .0249514
997.701 .0249506
998.301 .0249512
998.901 .0249533
999.501 .0249578
1000.101 .0249643
1000.700 .0249732
1001.299 .0249832
1001.898 .0249939
1002.496 .0250041
1003.094 .0250130
1003.692 .0250194
1004.289 .0250225
1004.887 .0250232
1005.484 .0250220
1006.080 .0250193
1006.677 .0250164
1007.273 .0250135
1007.868 .0250107
1008.464 .0250082
1009.059 .0250051
1009.654 .0250011
1010.249 .0249967
1010.843 .0249911
1011.437 .0249846
1012.031 .0249774
1012.625 .0249704
1013.218 .0249637
1013.811 .0249585
1014.404 .0249555
1014.997 .0249537
1015.589 .0249536
1016.181 .0249549
1016.773 .0249565
1017.365 .0249581
1017.956 .0249590
1018.547 .0249580
1019.138 .0249551
1019.728 .0249512
1020.319 .0249459
1020.909 .0249405
1021.499 .0249361
1022.088 .0249329
1022.678 .0249303
1023.267 .0249292
1023.856 .0249279
1024.445 .0249264
1025.033 .0249247
1025.621 .0249221
1026.209 .0249186
1026.797 .0249147
1027.385 .0249114
1027.972 .0249097
1028.560 .0249097
1029.147 .0249121
1029.734 .0249162
1030.320 .0249221
1030.907 .0249281
1031.493 .0249342
1032.079 .0249395
1032.665 .0249441
1033.250 .0249483
1033.836 .0249521
1034.421 .0249557
1035.006 .0249598
1035.591 .0249642
1036.176 .0249679
1036.761 .0249709
1037.345 .0249720
1037.929 .0249697
1038.514 .0249649
1039.097 .0249575
1039.681 .0249477
1040.265 .0249371
1040.848 .0249266
1041.432 .0249163
1042.015 .0249071
1042.598 .0248994
1043.181 .0248931
1043.764 .0248885
1044.346 .0248857
1044.929 .0248836
1045.511 .0248826
1046.094 .0248830
1046.676 .0248849
1047.258 .0248887
1047.840 .0248949
1048.422 .0249026
1049.003 .0249118
1049.585 .0249212
1050.166 .0249306
1050.748 .0249397
1051.329 .0249476
1051.910 .0249541
1052.491 .0249585
1053.072 .0249597
1053.653 .0249586
1054.234 .0249558
1054.815 .0249517
1055.396 .0249465
1055.976 .0249404
1056.557 .0249331
1057.138 .0249249
1057.718 .0249159
1058.298 .0249064
1058.879 .0248964
1059.459 .0248862
1060.039 .0248750
1060.620 .0248614
1061.200 .0248465
1061.780 .0248312
1062.360 .0248151
1062.940 .0248007
1063.520 .0247870
1064.101 .0247738
1064.681 .0247616
1065.261 .0247504
1065.841 .0247391
1066.421 .0247269
1067.001 .0247132
1067.581 .0246985
1068.161 .0246825
1068.741 .0246670
1069.321 .0246525
1069.901 .0246416
1070.482 .0246361
1071.062 .0246347
1071.642 .0246364
1072.222 .0246410
1072.803 .0246467
1073.383 .0246526
1073.963 .0246569
1074.544 .0246607
1075.124 .0246630
1075.705 .0246650
1076.286 .0246690
1076.866 .0246754
1077.447 .0246843
1078.028 .0246966
1078.609 .0247119
1079.190 .0247298
1079.771 .0247472
1080.352 .0247633
1080.934 .0247761
1081.515 .0247874
1082.097 .0247953
1082.679 .0247995
1083.260 .0248017
1083.842 .0248043
1084.424 .0248061
1085.007 .0248080
1085.589 .0248104
1086.172 .0248127
1086.754 .0248138
1087.337 .0248129
1087.920 .0248084
1088.503 .0248000
1089.087 .0247867
1089.670 .0247697
1090.254 .0247499
1090.838 .0247297
1091.422 .0247081
1092.006 .0246895
1092.590 .0246741
1093.175 .0246609
1093.760 .0246499
1094.345 .0246403
1094.930 .0246313
1095.516 .0246222
1096.102 .0246135
1096.688 .0246051
1097.274 .0245977
1097.860 .0245926
1098.447 .0245882
1099.034 .0245877
1099.622 .0245887
1100.209 .0245889
1100.797 .0245902
1101.385 .0245917
1101.973 .0245920
1102.562 .0245903
1103.151 .0245883
1103.740 .0245861
1104.330 .0245844
1104.920 .0245838
1105.510 .0245840
1106.101 .0245860
1106.691 .0245910
1107.283 .0245968
1107.874 .0246055
1108.466 .0246171
1109.058 .0246307
1109.651 .0246471
1110.244 .0246666
1110.837 .0246860
1111.431 .0247054
1112.025 .0247240
1112.620 .0247405
1113.215 .0247515
1113.810 .0247565
1114.406 .0247554
1115.002 .0247505
1115.599 .0247414
1116.196 .0247272
1116.793 .0247093
1117.391 .0246903
1117.989 .0246671
1118.588 .0246411
1119.187 .0246098
1119.787 .0245748
1120.387 .0245369
1120.988 .0244995
1121.589 .0244643
1122.190 .0244367
1122.793 .0244181
1123.395 .0244115
1123.998 .0244193
1124.602 .0244404
1125.206 .0244690
1125.811 .0245067
1126.416 .0245477
1127.022 .0245883
1127.628 .0246233
1128.235 .0246547
1128.843 .0246859
1129.451 .0247206
1130.059 .0247608
1130.669 .0248065
1131.278 .0248586
1131.889 .0249136
1132.500 .0249611
1133.112 .0250026
1133.724 .0250324
1134.337 .0250494
1134.950 .0250544
1135.564 .0250552
1136.179 .0250586
1136.795 .0250711
1137.411 .0250973
1138.028 .0251407
1138.645 .0251959
1139.263 .0252552
1139.882 .0253118
1140.502 .0253792
1141.122 .0254504
1141.743 .0255306
1142.365 .0256111
1142.987 .0254909
1143.611 .0259268
1144.235 .0259774
1144.859 .0261567
1145.485 .0260412
