Measurement Sequence started on: 10-20-44-796
Integration time: 35
Scans to Average: 2 
>>>>>Begin Spectral Data<<<<<
432.953 .0251366
433.882 .0322749
434.810 .0303175
435.737 .0324989
436.662 .0348202
437.586 .0341155
438.509 .0347332
439.431 .0349820
440.351 .0351488
441.269 .0351589
442.187 .0350694
443.103 .0349448
444.018 .0348345
444.932 .0347166
445.844 .0345981
446.756 .0344608
447.666 .0343171
448.575 .0341715
449.482 .0340318
450.388 .0339229
451.294 .0338504
452.198 .0338169
453.100 .0338286
454.002 .0338840
454.902 .0339708
455.801 .0340756
456.699 .0341867
457.596 .0342975
458.492 .0343963
459.387 .0344730
460.280 .0345246
461.172 .0345530
462.064 .0345670
462.954 .0345643
463.843 .0345541
464.730 .0345420
465.617 .0345288
466.503 .0345074
467.387 .0344787
468.271 .0344392
469.153 .0343873
470.035 .0343243
470.915 .0342531
471.794 .0341752
472.673 .0340940
473.550 .0340167
474.426 .0339540
475.301 .0339069
476.175 .0338785
477.048 .0338607
477.920 .0338594
478.791 .0338632
479.661 .0338673
480.530 .0338716
481.398 .0338736
482.266 .0338713
483.132 .0338668
483.997 .0338575
484.861 .0338499
485.724 .0338469
486.587 .0338454
487.448 .0338463
488.308 .0338476
489.168 .0338433
490.026 .0338311
490.884 .0338113
491.741 .0337853
492.597 .0337483
493.452 .0337061
494.306 .0336603
495.159 .0336092
496.011 .0335596
496.862 .0335091
497.713 .0334601
498.562 .0334134
499.411 .0333638
500.259 .0333096
501.106 .0332538
501.952 .0331956
502.798 .0331362
503.642 .0330751
504.486 .0330147
505.329 .0329515
506.171 .0328846
507.012 .0328142
507.852 .0327390
508.692 .0326612
509.531 .0325777
510.369 .0324905
511.206 .0324008
512.043 .0323036
512.878 .0322012
513.713 .0320906
514.547 .0319746
515.381 .0318540
516.213 .0317250
517.045 .0315874
517.876 .0314411
518.706 .0312885
519.536 .0311331
520.365 .0309814
521.193 .0308285
522.020 .0306740
522.847 .0305193
523.673 .0303605
524.498 .0301902
525.323 .0300139
526.146 .0298368
526.969 .0296573
527.792 .0294851
528.614 .0293120
529.435 .0291468
530.255 .0289964
531.075 .0288530
531.894 .0287185
532.712 .0285896
533.530 .0284639
534.347 .0283431
535.163 .0282302
535.979 .0281361
536.794 .0280577
537.608 .0280078
538.422 .0279826
539.235 .0279814
540.048 .0279941
540.860 .0280109
541.671 .0280297
542.481 .0280528
543.292 .0280665
544.101 .0280725
544.910 .0280791
545.718 .0280905
546.526 .0281085
547.333 .0281372
548.139 .0281709
548.945 .0282125
549.750 .0282550
550.555 .0282938
551.359 .0283221
552.162 .0283495
552.965 .0283771
553.768 .0284061
554.569 .0284428
555.371 .0284825
556.171 .0285274
556.972 .0285751
557.771 .0286250
558.570 .0286701
559.369 .0287116
560.167 .0287522
560.964 .0287902
561.761 .0288301
562.558 .0288738
563.354 .0289235
564.149 .0289797
564.944 .0290414
565.738 .0291081
566.532 .0291732
567.325 .0292426
568.118 .0293146
568.910 .0293893
569.702 .0294653
570.494 .0295469
571.285 .0296329
572.075 .0297225
572.865 .0298152
573.654 .0299065
574.443 .0299942
575.232 .0300749
576.020 .0301479
576.807 .0302137
577.594 .0302735
578.381 .0303296
579.167 .0303818
579.952 .0304337
580.738 .0304841
581.522 .0305328
582.307 .0305784
583.091 .0306224
583.874 .0306626
584.657 .0306952
585.440 .0307223
586.222 .0307451
587.004 .0307647
587.785 .0307809
588.566 .0307961
589.346 .0308112
590.126 .0308248
590.906 .0308368
591.685 .0308471
592.464 .0308552
593.242 .0308616
594.020 .0308648
594.797 .0308656
595.575 .0308647
596.351 .0308626
597.128 .0308588
597.904 .0308544
598.679 .0308498
599.454 .0308434
600.229 .0308357
601.004 .0308270
601.778 .0308172
602.551 .0308063
603.325 .0307947
604.097 .0307829
604.870 .0307701
605.642 .0307567
606.414 .0307421
607.185 .0307265
607.956 .0307103
608.727 .0306933
609.497 .0306755
610.267 .0306581
611.037 .0306411
611.806 .0306244
612.575 .0306086
613.344 .0305939
614.112 .0305796
614.880 .0305657
615.647 .0305514
616.414 .0305371
617.181 .0305218
617.948 .0305062
618.714 .0304894
619.480 .0304722
620.245 .0304548
621.011 .0304368
621.775 .0304192
622.540 .0304020
623.304 .0303847
624.068 .0303680
624.832 .0303513
625.595 .0303344
626.358 .0303162
627.120 .0302973
627.883 .0302771
628.645 .0302561
629.406 .0302345
630.168 .0302127
630.929 .0301914
631.689 .0301710
632.450 .0301511
633.210 .0301319
633.970 .0301134
634.729 .0300948
635.489 .0300751
636.248 .0300541
637.006 .0300315
637.765 .0300071
638.523 .0299814
639.280 .0299545
640.038 .0299275
640.795 .0299006
641.552 .0298745
642.309 .0298500
643.065 .0298275
643.821 .0298072
644.577 .0297886
645.332 .0297714
646.088 .0297555
646.843 .0297398
647.597 .0297244
648.352 .0297095
649.106 .0296956
649.860 .0296822
650.613 .0296693
651.367 .0296579
652.120 .0296483
652.872 .0296399
653.625 .0296323
654.377 .0296254
655.129 .0296190
655.881 .0296126
656.632 .0296052
657.384 .0295972
658.135 .0295883
658.885 .0295777
659.636 .0295653
660.386 .0295508
661.136 .0295351
661.885 .0295187
662.635 .0295015
663.384 .0294845
664.133 .0294676
664.881 .0294507
665.630 .0294342
666.378 .0294183
667.126 .0294025
667.874 .0293861
668.621 .0293696
669.368 .0293528
670.115 .0293358
670.862 .0293190
671.608 .0293034
672.354 .0292893
673.100 .0292765
673.846 .0292643
674.591 .0292524
675.337 .0292408
676.082 .0292295
676.826 .0292175
677.571 .0292051
678.315 .0291921
679.059 .0291789
679.803 .0291652
680.547 .0291513
681.290 .0291366
682.033 .0291211
682.776 .0291046
683.518 .0290866
684.261 .0290671
685.003 .0290473
685.745 .0290274
686.487 .0290089
687.228 .0289916
687.969 .0289756
688.710 .0289605
689.451 .0289462
690.192 .0289317
690.932 .0289164
691.672 .0288997
692.412 .0288819
693.152 .0288625
693.891 .0288424
694.630 .0288218
695.369 .0288011
696.108 .0287805
696.846 .0287601
697.585 .0287389
698.323 .0287168
699.061 .0286934
699.798 .0286684
700.536 .0286423
701.273 .0286152
702.010 .0285879
702.746 .0285603
703.483 .0285332
704.219 .0285071
704.955 .0284822
705.691 .0284586
706.427 .0284367
707.162 .0284162
707.897 .0283976
708.632 .0283802
709.367 .0283634
710.101 .0283472
710.835 .0283316
711.569 .0283159
712.303 .0282999
713.037 .0282844
713.770 .0282692
714.503 .0282541
715.236 .0282404
715.969 .0282270
716.702 .0282134
717.434 .0281994
718.166 .0281837
718.898 .0281655
719.629 .0281452
720.361 .0281228
721.092 .0280987
721.823 .0280747
722.554 .0280507
723.284 .0280269
724.014 .0280037
724.744 .0279814
725.474 .0279585
726.204 .0279349
726.933 .0279102
727.662 .0278840
728.391 .0278573
729.120 .0278305
729.849 .0278045
730.577 .0277811
731.305 .0277605
732.033 .0277427
732.760 .0277272
733.488 .0277140
734.215 .0277010
734.942 .0276882
735.669 .0276748
736.395 .0276609
737.122 .0276462
737.848 .0276317
738.573 .0276180
739.299 .0276058
740.024 .0275953
740.750 .0275863
741.474 .0275784
742.199 .0275706
742.924 .0275614
743.648 .0275507
744.372 .0275379
745.096 .0275238
745.819 .0275081
746.543 .0274920
747.266 .0274763
747.989 .0274619
748.711 .0274492
749.434 .0274384
750.156 .0274293
750.878 .0274221
751.599 .0274157
752.321 .0274100
753.042 .0274045
753.763 .0273994
754.484 .0273942
755.205 .0273892
755.925 .0273834
756.645 .0273775
757.365 .0273711
758.085 .0273645
758.804 .0273576
759.523 .0273505
760.242 .0273424
760.961 .0273337
761.679 .0273237
762.397 .0273121
763.115 .0272987
763.833 .0272835
764.551 .0272668
765.268 .0272491
765.985 .0272308
766.702 .0272131
767.418 .0271961
768.134 .0271807
768.850 .0271663
769.566 .0271529
770.282 .0271399
770.997 .0271269
771.712 .0271138
772.427 .0271004
773.142 .0270868
773.856 .0270730
774.570 .0270594
775.284 .0270460
775.998 .0270329
776.711 .0270199
777.424 .0270069
778.137 .0269939
778.849 .0269800
779.562 .0269661
780.274 .0269522
780.986 .0269385
781.697 .0269261
782.409 .0269153
783.120 .0269064
783.831 .0268990
784.541 .0268935
785.252 .0268894
785.962 .0268861
786.671 .0268832
787.381 .0268799
788.090 .0268763
788.799 .0268722
789.508 .0268667
790.217 .0268599
790.925 .0268522
791.633 .0268435
792.341 .0268331
793.048 .0268217
793.755 .0268085
794.462 .0267938
795.169 .0267777
795.875 .0267607
796.581 .0267431
797.287 .0267253
797.993 .0267080
798.698 .0266920
799.403 .0266770
800.108 .0266635
800.812 .0266514
801.517 .0266412
802.221 .0266321
802.924 .0266243
803.628 .0266177
804.331 .0266126
805.034 .0266086
805.736 .0266056
806.439 .0266034
807.141 .0266017
807.843 .0266001
808.544 .0265975
809.245 .0265936
809.946 .0265881
810.647 .0265801
811.347 .0265707
812.047 .0265595
812.747 .0265470
813.447 .0265335
814.146 .0265197
814.845 .0265060
815.543 .0264922
816.242 .0264793
816.940 .0264665
817.638 .0264536
818.335 .0264411
819.032 .0264286
819.729 .0264165
820.426 .0264053
821.122 .0263948
821.818 .0263852
822.514 .0263769
823.209 .0263693
823.905 .0263618
824.599 .0263546
825.294 .0263475
825.988 .0263394
826.682 .0263303
827.376 .0263204
828.069 .0263089
828.762 .0262964
829.455 .0262827
830.147 .0262673
830.840 .0262508
831.531 .0262335
832.223 .0262157
832.914 .0261977
833.605 .0261801
834.296 .0261636
834.986 .0261483
835.676 .0261347
836.366 .0261227
837.055 .0261121
837.744 .0261026
838.433 .0260940
839.121 .0260859
839.809 .0260777
840.497 .0260701
841.185 .0260634
841.872 .0260573
842.559 .0260524
843.245 .0260481
843.932 .0260444
844.617 .0260409
845.303 .0260371
845.988 .0260317
846.673 .0260244
847.358 .0260156
848.042 .0260049
848.726 .0259929
849.410 .0259805
850.093 .0259682
850.776 .0259563
851.459 .0259450
852.141 .0259337
852.823 .0259222
853.505 .0259107
854.186 .0258982
854.867 .0258850
855.548 .0258711
856.228 .0258573
856.908 .0258439
857.588 .0258317
858.267 .0258212
858.946 .0258122
859.625 .0258046
860.303 .0257983
860.981 .0257925
861.659 .0257869
862.336 .0257808
863.013 .0257744
863.690 .0257677
864.366 .0257607
865.042 .0257534
865.718 .0257464
866.393 .0257395
867.068 .0257325
867.743 .0257251
868.417 .0257169
869.091 .0257076
869.765 .0256972
870.438 .0256854
871.111 .0256724
871.783 .0256584
872.456 .0256436
873.127 .0256288
873.799 .0256140
874.470 .0255998
875.141 .0255866
875.811 .0255748
876.481 .0255640
877.151 .0255546
877.820 .0255458
878.489 .0255377
879.158 .0255300
879.826 .0255224
880.494 .0255146
881.162 .0255073
881.829 .0255003
882.496 .0254934
883.163 .0254865
883.829 .0254801
884.495 .0254731
885.160 .0254665
885.825 .0254592
886.490 .0254512
887.154 .0254425
887.818 .0254331
888.482 .0254226
889.145 .0254120
889.808 .0254015
890.471 .0253911
891.133 .0253813
891.795 .0253731
892.456 .0253655
893.117 .0253589
893.778 .0253536
894.439 .0253492
895.099 .0253449
895.758 .0253408
896.417 .0253363
897.076 .0253320
897.735 .0253279
898.393 .0253233
899.051 .0253192
899.708 .0253158
900.365 .0253129
901.022 .0253101
901.678 .0253075
902.334 .0253051
902.990 .0253018
903.645 .0252980
904.300 .0252934
904.954 .0252876
905.608 .0252811
906.262 .0252739
906.915 .0252664
907.568 .0252587
908.221 .0252508
908.873 .0252429
909.525 .0252353
910.176 .0252279
910.828 .0252198
911.478 .0252113
912.129 .0252025
912.778 .0251927
913.428 .0251822
914.077 .0251710
914.726 .0251593
915.375 .0251471
916.023 .0251357
916.670 .0251244
917.318 .0251139
917.964 .0251040
918.611 .0250943
919.257 .0250848
919.903 .0250752
920.548 .0250651
921.193 .0250544
921.838 .0250441
922.482 .0250336
923.126 .0250227
923.770 .0250124
924.413 .0250023
925.056 .0249923
925.698 .0249822
926.340 .0249723
926.982 .0249622
927.623 .0249520
928.264 .0249420
928.904 .0249318
929.544 .0249219
930.184 .0249122
930.823 .0249023
931.462 .0248920
932.101 .0248814
932.739 .0248701
933.377 .0248581
934.014 .0248457
934.651 .0248330
935.288 .0248202
935.924 .0248078
936.560 .0247962
937.196 .0247846
937.831 .0247731
938.466 .0247616
939.100 .0247495
939.734 .0247364
940.368 .0247225
941.001 .0247078
941.634 .0246928
942.266 .0246775
942.899 .0246620
943.530 .0246464
944.162 .0246311
944.793 .0246159
945.423 .0246004
946.053 .0245842
946.683 .0245671
947.313 .0245485
947.942 .0245289
948.571 .0245077
949.199 .0244851
949.827 .0244618
950.455 .0244386
951.082 .0244163
951.709 .0243949
952.335 .0243752
952.961 .0243582
953.587 .0243425
954.212 .0243282
954.837 .0243147
955.462 .0243018
956.086 .0242896
956.710 .0242778
957.334 .0242662
957.957 .0242556
958.579 .0242459
959.202 .0242371
959.824 .0242287
960.445 .0242205
961.067 .0242123
961.688 .0242029
962.308 .0241928
962.928 .0241814
963.548 .0241688
964.168 .0241561
964.787 .0241430
965.406 .0241298
966.024 .0241170
966.642 .0241044
967.260 .0240918
967.877 .0240795
968.494 .0240675
969.110 .0240551
969.727 .0240427
970.342 .0240310
970.958 .0240198
971.573 .0240097
972.188 .0240013
972.802 .0239944
973.416 .0239891
974.030 .0239845
974.643 .0239795
975.256 .0239743
975.869 .0239682
976.481 .0239611
977.093 .0239528
977.705 .0239446
978.316 .0239359
978.927 .0239275
979.538 .0239194
980.148 .0239117
980.758 .0239042
981.367 .0238965
981.977 .0238882
982.586 .0238794
983.194 .0238699
983.802 .0238597
984.410 .0238490
985.018 .0238392
985.625 .0238297
986.232 .0238213
986.838 .0238136
987.445 .0238067
988.050 .0238001
988.656 .0237946
989.261 .0237889
989.866 .0237829
990.471 .0237769
991.075 .0237708
991.679 .0237650
992.282 .0237598
992.886 .0237551
993.489 .0237517
994.091 .0237496
994.694 .0237492
995.296 .0237491
995.897 .0237501
996.499 .0237517
997.100 .0237532
997.701 .0237549
998.301 .0237566
998.901 .0237583
999.501 .0237606
1000.101 .0237644
1000.700 .0237693
1001.299 .0237755
1001.898 .0237829
1002.496 .0237908
1003.094 .0237984
1003.692 .0238048
1004.289 .0238089
1004.887 .0238109
1005.484 .0238118
1006.080 .0238111
1006.677 .0238092
1007.273 .0238075
1007.868 .0238056
1008.464 .0238041
1009.059 .0238027
1009.654 .0238014
1010.249 .0237992
1010.843 .0237966
1011.437 .0237930
1012.031 .0237882
1012.625 .0237826
1013.218 .0237763
1013.811 .0237698
1014.404 .0237639
1014.997 .0237581
1015.589 .0237526
1016.181 .0237471
1016.773 .0237427
1017.365 .0237388
1017.956 .0237351
1018.547 .0237318
1019.138 .0237295
1019.728 .0237281
1020.319 .0237279
1020.909 .0237283
1021.499 .0237296
1022.088 .0237314
1022.678 .0237333
1023.267 .0237351
1023.856 .0237362
1024.445 .0237371
1025.033 .0237375
1025.621 .0237377
1026.209 .0237377
1026.797 .0237369
1027.385 .0237360
1027.972 .0237356
1028.560 .0237354
1029.147 .0237354
1029.734 .0237353
1030.320 .0237357
1030.907 .0237366
1031.493 .0237374
1032.079 .0237382
1032.665 .0237391
1033.250 .0237408
1033.836 .0237436
1034.421 .0237468
1035.006 .0237514
1035.591 .0237570
1036.176 .0237641
1036.761 .0237719
1037.345 .0237787
1037.929 .0237837
1038.514 .0237862
1039.097 .0237865
1039.681 .0237841
1040.265 .0237796
1040.848 .0237745
1041.432 .0237686
1042.015 .0237634
1042.598 .0237581
1043.181 .0237530
1043.764 .0237486
1044.346 .0237442
1044.929 .0237391
1045.511 .0237332
1046.094 .0237274
1046.676 .0237223
1047.258 .0237183
1047.840 .0237163
1048.422 .0237155
1049.003 .0237154
1049.585 .0237162
1050.166 .0237164
1050.748 .0237163
1051.329 .0237162
1051.910 .0237153
1052.491 .0237136
1053.072 .0237110
1053.653 .0237080
1054.234 .0237041
1054.815 .0236999
1055.396 .0236964
1055.976 .0236924
1056.557 .0236885
1057.138 .0236852
1057.718 .0236826
1058.298 .0236803
1058.879 .0236790
1059.459 .0236772
1060.039 .0236752
1060.620 .0236731
1061.200 .0236706
1061.780 .0236678
1062.360 .0236662
1062.940 .0236661
1063.520 .0236658
1064.101 .0236648
1064.681 .0236631
1065.261 .0236585
1065.841 .0236507
1066.421 .0236399
1067.001 .0236251
1067.581 .0236082
1068.161 .0235911
1068.741 .0235740
1069.321 .0235587
1069.901 .0235464
1070.482 .0235362
1071.062 .0235287
1071.642 .0235245
1072.222 .0235231
1072.803 .0235236
1073.383 .0235272
1073.963 .0235341
1074.544 .0235425
1075.124 .0235519
1075.705 .0235605
1076.286 .0235677
1076.866 .0235746
1077.447 .0235793
1078.028 .0235811
1078.609 .0235836
1079.190 .0235867
1079.771 .0235911
1080.352 .0235966
1080.934 .0236032
1081.515 .0236116
1082.097 .0236213
1082.679 .0236305
1083.260 .0236388
1083.842 .0236465
1084.424 .0236534
1085.007 .0236590
1085.589 .0236649
1086.172 .0236704
1086.754 .0236751
1087.337 .0236802
1087.920 .0236864
1088.503 .0236910
1089.087 .0236952
1089.670 .0236956
1090.254 .0236931
1090.838 .0236872
1091.422 .0236744
1092.006 .0236553
1092.590 .0236321
1093.175 .0236051
1093.760 .0235759
1094.345 .0235460
1094.930 .0235215
1095.516 .0235023
1096.102 .0234907
1096.688 .0234864
1097.274 .0234894
1097.860 .0234984
1098.447 .0235102
1099.034 .0235229
1099.622 .0235359
1100.209 .0235451
1100.797 .0235494
1101.385 .0235494
1101.973 .0235454
1102.562 .0235383
1103.151 .0235288
1103.740 .0235188
1104.330 .0235095
1104.920 .0235004
1105.510 .0234913
1106.101 .0234835
1106.691 .0234758
1107.283 .0234665
1107.874 .0234536
1108.466 .0234401
1109.058 .0234235
1109.651 .0234065
1110.244 .0233911
1110.837 .0233782
1111.431 .0233712
1112.025 .0233701
1112.620 .0233738
1113.215 .0233842
1113.810 .0233983
1114.406 .0234164
1115.002 .0234299
1115.599 .0234390
1116.196 .0234403
1116.793 .0234346
1117.391 .0234238
1117.989 .0234093
1118.588 .0233960
1119.187 .0233870
1119.787 .0233806
1120.387 .0233778
1120.988 .0233769
1121.589 .0233795
1122.190 .0233816
1122.793 .0233829
1123.395 .0233827
1123.998 .0233828
1124.602 .0233845
1125.206 .0233929
1125.811 .0234089
1126.416 .0234321
1127.022 .0234611
1127.628 .0234941
1128.235 .0235269
1128.843 .0235581
1129.451 .0235870
1130.059 .0236160
1130.669 .0236476
1131.278 .0236830
1131.889 .0237200
1132.500 .0237618
1133.112 .0238097
1133.724 .0238602
1134.337 .0239125
1134.950 .0239640
1135.564 .0240121
1136.179 .0240568
1136.795 .0241001
1137.411 .0241433
1138.028 .0241874
1138.645 .0242354
1139.263 .0242854
1139.882 .0243318
1140.502 .0243808
1141.122 .0244293
1141.743 .0244702
1142.365 .0245071
1142.987 .0244838
1143.611 .0246646
1144.235 .0247019
1144.859 .0244696
1145.485 .0245547
