Measurement Sequence started on: 10-20-44-796
Integration time: 35
Scans to Average: 2 
>>>>>Begin Spectral Data<<<<<
432.953 .0349529
433.882 .0269889
434.810 .0320884
435.737 .0324583
436.662 .0335678
437.586 .0337268
438.509 .0341473
439.431 .0346947
440.351 .0350066
441.269 .0352659
442.187 .0354584
443.103 .0356008
444.018 .0356968
444.932 .0357684
445.844 .0358108
446.756 .0358121
447.666 .0357838
448.575 .0357263
449.482 .0356756
450.388 .0356283
451.294 .0355745
452.198 .0355256
453.100 .0354814
454.002 .0354400
454.902 .0353994
455.801 .0353672
456.699 .0353363
457.596 .0353098
458.492 .0352913
459.387 .0352722
460.280 .0352541
461.172 .0352383
462.064 .0352187
462.954 .0351915
463.843 .0351590
464.730 .0351156
465.617 .0350698
466.503 .0350260
467.387 .0349830
468.271 .0349399
469.153 .0349038
470.035 .0348691
470.915 .0348348
471.794 .0347975
472.673 .0347553
473.550 .0347108
474.426 .0346687
475.301 .0346287
476.175 .0345934
477.048 .0345639
477.920 .0345412
478.791 .0345229
479.661 .0345069
480.530 .0344913
481.398 .0344741
482.266 .0344558
483.132 .0344339
483.997 .0344074
484.861 .0343795
485.724 .0343558
486.587 .0343370
487.448 .0343253
488.308 .0343147
489.168 .0343067
490.026 .0342983
490.884 .0342894
491.741 .0342784
492.597 .0342664
493.452 .0342537
494.306 .0342441
495.159 .0342321
496.011 .0342217
496.862 .0342099
497.713 .0341969
498.562 .0341793
499.411 .0341506
500.259 .0341101
501.106 .0340593
501.952 .0339982
502.798 .0339316
503.642 .0338604
504.486 .0337877
505.329 .0337113
506.171 .0336316
507.012 .0335478
507.852 .0334592
508.692 .0333658
509.531 .0332677
510.369 .0331638
511.206 .0330571
512.043 .0329452
512.878 .0328280
513.713 .0327107
514.547 .0325865
515.381 .0324551
516.213 .0323153
517.045 .0321675
517.876 .0320137
518.706 .0318546
519.536 .0316936
520.365 .0315309
521.193 .0313665
522.020 .0311973
522.847 .0310209
523.673 .0308417
524.498 .0306552
525.323 .0304636
526.146 .0302724
526.969 .0300853
527.792 .0299142
528.614 .0297576
529.435 .0296221
530.255 .0295060
531.075 .0294000
531.894 .0292961
532.712 .0291890
533.530 .0290776
534.347 .0289583
535.163 .0288299
535.979 .0287083
536.794 .0285832
537.608 .0284731
538.422 .0283802
539.235 .0283010
540.048 .0282376
540.860 .0281852
541.671 .0281312
542.481 .0280811
543.292 .0280284
544.101 .0279732
544.910 .0279141
545.718 .0278614
546.526 .0278127
547.333 .0277753
548.139 .0277596
548.945 .0277678
549.750 .0277957
550.555 .0278549
551.359 .0279294
552.162 .0280193
552.965 .0281195
553.768 .0282223
554.569 .0283279
555.371 .0284313
556.171 .0285277
556.972 .0286226
557.771 .0287191
558.570 .0288195
559.369 .0289171
560.167 .0290172
560.964 .0291174
561.761 .0292163
562.558 .0293124
563.354 .0294034
564.149 .0294879
564.944 .0295687
565.738 .0296425
566.532 .0297116
567.325 .0297796
568.118 .0298475
568.910 .0299163
569.702 .0299885
570.494 .0300630
571.285 .0301373
572.075 .0302137
572.865 .0302915
573.654 .0303675
574.443 .0304412
575.232 .0305097
576.020 .0305745
576.807 .0306349
577.594 .0306915
578.381 .0307441
579.167 .0307939
579.952 .0308443
580.738 .0308927
581.522 .0309389
582.307 .0309827
583.091 .0310235
583.874 .0310618
584.657 .0310962
585.440 .0311258
586.222 .0311511
587.004 .0311723
587.785 .0311905
588.566 .0312064
589.346 .0312211
590.126 .0312356
590.906 .0312494
591.685 .0312624
592.464 .0312733
593.242 .0312826
594.020 .0312895
594.797 .0312938
595.575 .0312956
596.351 .0312958
597.128 .0312933
597.904 .0312889
598.679 .0312842
599.454 .0312790
600.229 .0312740
601.004 .0312682
601.778 .0312601
602.551 .0312499
603.325 .0312365
604.097 .0312195
604.870 .0311991
605.642 .0311767
606.414 .0311525
607.185 .0311274
607.956 .0311033
608.727 .0310803
609.497 .0310588
610.267 .0310386
611.037 .0310197
611.806 .0310008
612.575 .0309815
613.344 .0309615
614.112 .0309411
614.880 .0309213
615.647 .0309018
616.414 .0308826
617.181 .0308653
617.948 .0308489
618.714 .0308343
619.480 .0308197
620.245 .0308058
621.011 .0307912
621.775 .0307759
622.540 .0307592
623.304 .0307407
624.068 .0307203
624.832 .0306979
625.595 .0306741
626.358 .0306500
627.120 .0306247
627.883 .0305991
628.645 .0305737
629.406 .0305493
630.168 .0305253
630.929 .0305026
631.689 .0304806
632.450 .0304599
633.210 .0304406
633.970 .0304220
634.729 .0304037
635.489 .0303864
636.248 .0303693
637.006 .0303521
637.765 .0303349
638.523 .0303174
639.280 .0302991
640.038 .0302812
640.795 .0302629
641.552 .0302444
642.309 .0302261
643.065 .0302082
643.821 .0301902
644.577 .0301721
645.332 .0301542
646.088 .0301348
646.843 .0301147
647.597 .0300937
648.352 .0300715
649.106 .0300500
649.860 .0300291
650.613 .0300087
651.367 .0299897
652.120 .0299719
652.872 .0299550
653.625 .0299382
654.377 .0299215
655.129 .0299038
655.881 .0298852
656.632 .0298656
657.384 .0298450
658.135 .0298240
658.885 .0298040
659.636 .0297843
660.386 .0297655
661.136 .0297474
661.885 .0297300
662.635 .0297137
663.384 .0296989
664.133 .0296857
664.881 .0296731
665.630 .0296616
666.378 .0296508
667.126 .0296403
667.874 .0296294
668.621 .0296176
669.368 .0296052
670.115 .0295914
670.862 .0295758
671.608 .0295591
672.354 .0295423
673.100 .0295261
673.846 .0295105
674.591 .0294949
675.337 .0294796
676.082 .0294641
676.826 .0294477
677.571 .0294305
678.315 .0294124
679.059 .0293938
679.803 .0293749
680.547 .0293565
681.290 .0293390
682.033 .0293226
682.776 .0293078
683.518 .0292936
684.261 .0292802
685.003 .0292662
685.745 .0292511
686.487 .0292350
687.228 .0292179
687.969 .0291996
688.710 .0291801
689.451 .0291598
690.192 .0291391
690.932 .0291179
691.672 .0290962
692.412 .0290735
693.152 .0290508
693.891 .0290279
694.630 .0290041
695.369 .0289801
696.108 .0289560
696.846 .0289317
697.585 .0289082
698.323 .0288851
699.061 .0288627
699.798 .0288413
700.536 .0288213
701.273 .0288024
702.010 .0287844
702.746 .0287677
703.483 .0287516
704.219 .0287363
704.955 .0287215
705.691 .0287061
706.427 .0286904
707.162 .0286751
707.897 .0286597
708.632 .0286442
709.367 .0286282
710.101 .0286117
710.835 .0285944
711.569 .0285754
712.303 .0285552
713.037 .0285338
713.770 .0285110
714.503 .0284870
715.236 .0284624
715.969 .0284378
716.702 .0284140
717.434 .0283912
718.166 .0283696
718.898 .0283488
719.629 .0283287
720.361 .0283085
721.092 .0282886
721.823 .0282686
722.554 .0282485
723.284 .0282280
724.014 .0282081
724.744 .0281878
725.474 .0281671
726.204 .0281466
726.933 .0281262
727.662 .0281048
728.391 .0280829
729.120 .0280600
729.849 .0280367
730.577 .0280137
731.305 .0279909
732.033 .0279689
732.760 .0279482
733.488 .0279287
734.215 .0279103
734.942 .0278930
735.669 .0278772
736.395 .0278622
737.122 .0278478
737.848 .0278340
738.573 .0278205
739.299 .0278075
740.024 .0277952
740.750 .0277833
741.474 .0277719
742.199 .0277605
742.924 .0277487
743.648 .0277362
744.372 .0277228
745.096 .0277089
745.819 .0276942
746.543 .0276788
747.266 .0276636
747.989 .0276486
748.711 .0276351
749.434 .0276229
750.156 .0276122
750.878 .0276030
751.599 .0275952
752.321 .0275882
753.042 .0275815
753.763 .0275753
754.484 .0275700
755.205 .0275654
755.925 .0275620
756.645 .0275592
757.365 .0275570
758.085 .0275552
758.804 .0275534
759.523 .0275500
760.242 .0275447
760.961 .0275367
761.679 .0275262
762.397 .0275130
763.115 .0274980
763.833 .0274814
764.551 .0274646
765.268 .0274477
765.985 .0274308
766.702 .0274134
767.418 .0273958
768.134 .0273776
768.850 .0273589
769.566 .0273394
770.282 .0273199
770.997 .0273006
771.712 .0272827
772.427 .0272661
773.142 .0272515
773.856 .0272390
774.570 .0272285
775.284 .0272195
775.998 .0272113
776.711 .0272032
777.424 .0271953
778.137 .0271872
778.849 .0271786
779.562 .0271695
780.274 .0271602
780.986 .0271507
781.697 .0271414
782.409 .0271325
783.120 .0271241
783.831 .0271161
784.541 .0271089
785.252 .0271015
785.962 .0270940
786.671 .0270864
787.381 .0270778
788.090 .0270686
788.799 .0270589
789.508 .0270485
790.217 .0270376
790.925 .0270264
791.633 .0270149
792.341 .0270033
793.048 .0269915
793.755 .0269794
794.462 .0269669
795.169 .0269544
795.875 .0269416
796.581 .0269289
797.287 .0269169
797.993 .0269057
798.698 .0268952
799.403 .0268861
800.108 .0268778
800.812 .0268702
801.517 .0268632
802.221 .0268569
802.924 .0268510
803.628 .0268455
804.331 .0268407
805.034 .0268365
805.736 .0268326
806.439 .0268287
807.141 .0268242
807.843 .0268193
808.544 .0268130
809.245 .0268046
809.946 .0267946
810.647 .0267828
811.347 .0267698
812.047 .0267561
812.747 .0267421
813.447 .0267282
814.146 .0267146
814.845 .0267014
815.543 .0266883
816.242 .0266757
816.940 .0266632
817.638 .0266512
818.335 .0266399
819.032 .0266291
819.729 .0266190
820.426 .0266103
821.122 .0266027
821.818 .0265954
822.514 .0265881
823.209 .0265808
823.905 .0265726
824.599 .0265634
825.294 .0265531
825.988 .0265414
826.682 .0265289
827.376 .0265159
828.069 .0265022
828.762 .0264880
829.455 .0264736
830.147 .0264584
830.840 .0264431
831.531 .0264275
832.223 .0264121
832.914 .0263965
833.605 .0263819
834.296 .0263681
834.986 .0263554
835.676 .0263442
836.366 .0263344
837.055 .0263256
837.744 .0263176
838.433 .0263098
839.121 .0263025
839.809 .0262950
840.497 .0262879
841.185 .0262806
841.872 .0262735
842.559 .0262666
843.245 .0262599
843.932 .0262532
844.617 .0262468
845.303 .0262399
845.988 .0262329
846.673 .0262254
847.358 .0262175
848.042 .0262090
848.726 .0262003
849.410 .0261911
850.093 .0261815
850.776 .0261716
851.459 .0261612
852.141 .0261498
852.823 .0261374
853.505 .0261243
854.186 .0261106
854.867 .0260964
855.548 .0260819
856.228 .0260680
856.908 .0260547
857.588 .0260422
858.267 .0260304
858.946 .0260197
859.625 .0260102
860.303 .0260014
860.981 .0259930
861.659 .0259852
862.336 .0259775
863.013 .0259699
863.690 .0259626
864.366 .0259555
865.042 .0259480
865.718 .0259409
866.393 .0259337
867.068 .0259263
867.743 .0259184
868.417 .0259100
869.091 .0259005
869.765 .0258898
870.438 .0258771
871.111 .0258625
871.783 .0258470
872.456 .0258306
873.127 .0258137
873.799 .0257968
874.470 .0257810
875.141 .0257661
875.811 .0257524
876.481 .0257400
877.151 .0257283
877.820 .0257179
878.489 .0257084
879.158 .0256994
879.826 .0256916
880.494 .0256852
881.162 .0256804
881.829 .0256770
882.496 .0256750
883.163 .0256734
883.829 .0256721
884.495 .0256705
885.160 .0256680
885.825 .0256642
886.490 .0256594
887.154 .0256537
887.818 .0256476
888.482 .0256412
889.145 .0256342
889.808 .0256268
890.471 .0256197
891.133 .0256120
891.795 .0256038
892.456 .0255951
893.117 .0255866
893.778 .0255779
894.439 .0255698
895.099 .0255625
895.758 .0255563
896.417 .0255511
897.076 .0255469
897.735 .0255429
898.393 .0255392
899.051 .0255352
899.708 .0255305
900.365 .0255249
901.022 .0255188
901.678 .0255120
902.334 .0255045
902.990 .0254968
903.645 .0254891
904.300 .0254808
904.954 .0254722
905.608 .0254632
906.262 .0254542
906.915 .0254448
907.568 .0254356
908.221 .0254266
908.873 .0254177
909.525 .0254089
910.176 .0253998
910.828 .0253900
911.478 .0253798
912.129 .0253684
912.778 .0253556
913.428 .0253420
914.077 .0253278
914.726 .0253131
915.375 .0252988
916.023 .0252857
916.670 .0252736
917.318 .0252623
917.964 .0252515
918.611 .0252407
919.257 .0252299
919.903 .0252192
920.548 .0252079
921.193 .0251971
921.838 .0251868
922.482 .0251774
923.126 .0251692
923.770 .0251628
924.413 .0251574
925.056 .0251528
925.698 .0251483
926.340 .0251436
926.982 .0251383
927.623 .0251324
928.264 .0251256
928.904 .0251183
929.544 .0251100
930.184 .0251007
930.823 .0250907
931.462 .0250804
932.101 .0250695
932.739 .0250587
933.377 .0250478
934.014 .0250369
934.651 .0250256
935.288 .0250138
935.924 .0250014
936.560 .0249884
937.196 .0249743
937.831 .0249591
938.466 .0249430
939.100 .0249264
939.734 .0249096
940.368 .0248935
941.001 .0248784
941.634 .0248644
942.266 .0248517
942.899 .0248392
943.530 .0248264
944.162 .0248131
944.793 .0247985
945.423 .0247823
946.053 .0247646
946.683 .0247456
947.313 .0247255
947.942 .0247046
948.571 .0246833
949.199 .0246612
949.827 .0246388
950.455 .0246159
951.082 .0245924
951.709 .0245682
952.335 .0245438
952.961 .0245195
953.587 .0244963
954.212 .0244746
954.837 .0244547
955.462 .0244369
956.086 .0244215
956.710 .0244084
957.334 .0243972
957.957 .0243879
958.579 .0243802
959.202 .0243736
959.824 .0243682
960.445 .0243632
961.067 .0243588
961.688 .0243553
962.308 .0243521
962.928 .0243489
963.548 .0243449
964.168 .0243398
964.787 .0243330
965.406 .0243244
966.024 .0243135
966.642 .0243006
967.260 .0242861
967.877 .0242702
968.494 .0242532
969.110 .0242357
969.727 .0242176
970.342 .0242000
970.958 .0241831
971.573 .0241667
972.188 .0241512
972.802 .0241373
973.416 .0241247
974.030 .0241140
974.643 .0241048
975.256 .0240971
975.869 .0240913
976.481 .0240873
977.093 .0240841
977.705 .0240821
978.316 .0240813
978.927 .0240813
979.538 .0240814
980.148 .0240821
980.758 .0240820
981.367 .0240812
981.977 .0240793
982.586 .0240752
983.194 .0240695
983.802 .0240623
984.410 .0240534
985.018 .0240436
985.625 .0240332
986.232 .0240223
986.838 .0240112
987.445 .0240008
988.050 .0239903
988.656 .0239796
989.261 .0239684
989.866 .0239559
990.471 .0239423
991.075 .0239283
991.679 .0239139
992.282 .0239000
992.886 .0238880
993.489 .0238778
994.091 .0238698
994.694 .0238641
995.296 .0238599
995.897 .0238567
996.499 .0238540
997.100 .0238514
997.701 .0238482
998.301 .0238454
998.901 .0238432
999.501 .0238423
1000.101 .0238437
1000.700 .0238460
1001.299 .0238494
1001.898 .0238532
1002.496 .0238569
1003.094 .0238597
1003.692 .0238607
1004.289 .0238605
1004.887 .0238597
1005.484 .0238583
1006.080 .0238567
1006.677 .0238549
1007.273 .0238538
1007.868 .0238524
1008.464 .0238512
1009.059 .0238498
1009.654 .0238481
1010.249 .0238468
1010.843 .0238464
1011.437 .0238461
1012.031 .0238469
1012.625 .0238483
1013.218 .0238502
1013.811 .0238525
1014.404 .0238545
1014.997 .0238553
1015.589 .0238557
1016.181 .0238560
1016.773 .0238565
1017.365 .0238578
1017.956 .0238610
1018.547 .0238649
1019.138 .0238701
1019.728 .0238766
1020.319 .0238833
1020.909 .0238903
1021.499 .0238971
1022.088 .0239032
1022.678 .0239090
1023.267 .0239138
1023.856 .0239178
1024.445 .0239209
1025.033 .0239234
1025.621 .0239242
1026.209 .0239231
1026.797 .0239204
1027.385 .0239157
1027.972 .0239102
1028.560 .0239041
1029.147 .0238981
1029.734 .0238929
1030.320 .0238891
1030.907 .0238860
1031.493 .0238842
1032.079 .0238831
1032.665 .0238818
1033.250 .0238812
1033.836 .0238807
1034.421 .0238807
1035.006 .0238817
1035.591 .0238839
1036.176 .0238873
1036.761 .0238906
1037.345 .0238942
1037.929 .0238959
1038.514 .0238961
1039.097 .0238954
1039.681 .0238931
1040.265 .0238898
1040.848 .0238866
1041.432 .0238836
1042.015 .0238809
1042.598 .0238789
1043.181 .0238773
1043.764 .0238763
1044.346 .0238762
1044.929 .0238767
1045.511 .0238778
1046.094 .0238806
1046.676 .0238856
1047.258 .0238916
1047.840 .0238986
1048.422 .0239063
1049.003 .0239131
1049.585 .0239178
1050.166 .0239188
1050.748 .0239163
1051.329 .0239102
1051.910 .0239007
1052.491 .0238885
1053.072 .0238743
1053.653 .0238595
1054.234 .0238445
1054.815 .0238291
1055.396 .0238140
1055.976 .0237991
1056.557 .0237837
1057.138 .0237678
1057.718 .0237517
1058.298 .0237368
1058.879 .0237241
1059.459 .0237146
1060.039 .0237098
1060.620 .0237090
1061.200 .0237122
1061.780 .0237181
1062.360 .0237259
1062.940 .0237349
1063.520 .0237426
1064.101 .0237485
1064.681 .0237526
1065.261 .0237544
1065.841 .0237529
1066.421 .0237492
1067.001 .0237433
1067.581 .0237355
1068.161 .0237251
1068.741 .0237116
1069.321 .0236956
1069.901 .0236792
1070.482 .0236640
1071.062 .0236512
1071.642 .0236435
1072.222 .0236420
1072.803 .0236448
1073.383 .0236532
1073.963 .0236647
1074.544 .0236782
1075.124 .0236917
1075.705 .0237043
1076.286 .0237151
1076.866 .0237248
1077.447 .0237333
1078.028 .0237404
1078.609 .0237465
1079.190 .0237517
1079.771 .0237546
1080.352 .0237551
1080.934 .0237536
1081.515 .0237493
1082.097 .0237429
1082.679 .0237347
1083.260 .0237243
1083.842 .0237133
1084.424 .0237017
1085.007 .0236911
1085.589 .0236819
1086.172 .0236757
1086.754 .0236727
1087.337 .0236737
1087.920 .0236792
1088.503 .0236881
1089.087 .0236984
1089.670 .0237098
1090.254 .0237194
1090.838 .0237259
1091.422 .0237282
1092.006 .0237265
1092.590 .0237211
1093.175 .0237139
1093.760 .0237063
1094.345 .0236983
1094.930 .0236896
1095.516 .0236831
1096.102 .0236765
1096.688 .0236709
1097.274 .0236667
1097.860 .0236628
1098.447 .0236590
1099.034 .0236554
1099.622 .0236523
1100.209 .0236496
1100.797 .0236473
1101.385 .0236461
1101.973 .0236457
1102.562 .0236461
1103.151 .0236475
1103.740 .0236497
1104.330 .0236548
1104.920 .0236612
1105.510 .0236691
1106.101 .0236786
1106.691 .0236878
1107.283 .0236971
1107.874 .0237070
1108.466 .0237164
1109.058 .0237273
1109.651 .0237388
1110.244 .0237499
1110.837 .0237607
1111.431 .0237723
1112.025 .0237822
1112.620 .0237906
1113.215 .0237979
1113.810 .0238045
1114.406 .0238103
1115.002 .0238195
1115.599 .0238277
1116.196 .0238357
1116.793 .0238450
1117.391 .0238528
1117.989 .0238579
1118.588 .0238625
1119.187 .0238638
1119.787 .0238630
1120.387 .0238599
1120.988 .0238552
1121.589 .0238497
1122.190 .0238471
1122.793 .0238475
1123.395 .0238508
1123.998 .0238563
1124.602 .0238652
1125.206 .0238746
1125.811 .0238891
1126.416 .0239037
1127.022 .0239186
1127.628 .0239323
1128.235 .0239436
1128.843 .0239553
1129.451 .0239673
1130.059 .0239780
1130.669 .0239956
1131.278 .0240190
1131.889 .0240485
1132.500 .0240789
1133.112 .0241130
1133.724 .0241440
1134.337 .0241743
1134.950 .0242001
1135.564 .0242197
1136.179 .0242330
1136.795 .0242534
1137.411 .0242777
1138.028 .0243115
1138.645 .0243584
1139.263 .0244248
1139.882 .0244977
1140.502 .0245858
1141.122 .0246874
1141.743 .0247956
1142.365 .0249493
1142.987 .0248509
1143.611 .0251457
1144.235 .0254647
1144.859 .0254108
1145.485 .0265568
