Measurement Sequence started on: 10-20-44-796
Integration time: 35
Scans to Average: 2 
>>>>>Begin Spectral Data<<<<<
432.953 .0288329
433.882 .0367703
434.810 .0331938
435.737 .0318045
436.662 .0308040
437.586 .0316263
438.509 .0314960
439.431 .0312268
440.351 .0311412
441.269 .0311450
442.187 .0311972
443.103 .0312538
444.018 .0313361
444.932 .0314422
445.844 .0315366
446.756 .0316192
447.666 .0316922
448.575 .0317428
449.482 .0317677
450.388 .0317726
451.294 .0317589
452.198 .0317396
453.100 .0317156
454.002 .0316937
454.902 .0316775
455.801 .0316713
456.699 .0316698
457.596 .0316772
458.492 .0316894
459.387 .0317122
460.280 .0317433
461.172 .0317745
462.064 .0318130
462.954 .0318570
463.843 .0319027
464.730 .0319505
465.617 .0319954
466.503 .0320344
467.387 .0320610
468.271 .0320771
469.153 .0320800
470.035 .0320729
470.915 .0320581
471.794 .0320386
472.673 .0320127
473.550 .0319841
474.426 .0319500
475.301 .0319166
476.175 .0318840
477.048 .0318482
477.920 .0318093
478.791 .0317726
479.661 .0317359
480.530 .0317044
481.398 .0316780
482.266 .0316581
483.132 .0316433
483.997 .0316312
484.861 .0316174
485.724 .0316045
486.587 .0315925
487.448 .0315770
488.308 .0315598
489.168 .0315448
490.026 .0315284
490.884 .0315127
491.741 .0315003
492.597 .0314879
493.452 .0314718
494.306 .0314531
495.159 .0314257
496.011 .0313919
496.862 .0313556
497.713 .0313129
498.562 .0312673
499.411 .0312213
500.259 .0311730
501.106 .0311187
501.952 .0310648
502.798 .0310054
503.642 .0309379
504.486 .0308656
505.329 .0307881
506.171 .0307067
507.012 .0306243
507.852 .0305449
508.692 .0304675
509.531 .0303924
510.369 .0303191
511.206 .0302397
512.043 .0301596
512.878 .0300753
513.713 .0299848
514.547 .0298916
515.381 .0297956
516.213 .0296991
517.045 .0295998
517.876 .0294971
518.706 .0293851
519.536 .0292596
520.365 .0291224
521.193 .0289689
522.020 .0287985
522.847 .0286178
523.673 .0284291
524.498 .0282395
525.323 .0280555
526.146 .0278784
526.969 .0277093
527.792 .0275506
528.614 .0273932
529.435 .0272396
530.255 .0270828
531.075 .0269254
531.894 .0267648
532.712 .0266035
533.530 .0264444
534.347 .0262786
535.163 .0261227
535.979 .0259784
536.794 .0258457
537.608 .0257296
538.422 .0256233
539.235 .0255333
540.048 .0254576
540.860 .0253930
541.671 .0253370
542.481 .0252902
543.292 .0252602
544.101 .0252446
544.910 .0252534
545.718 .0252866
546.526 .0253419
547.333 .0254200
548.139 .0255171
548.945 .0256185
549.750 .0257229
550.555 .0258261
551.359 .0259238
552.162 .0260154
552.965 .0260987
553.768 .0261745
554.569 .0262505
555.371 .0263215
556.171 .0263862
556.972 .0264413
557.771 .0264908
558.570 .0265329
559.369 .0265758
560.167 .0266247
560.964 .0266817
561.761 .0267476
562.558 .0268264
563.354 .0269140
564.149 .0270094
564.944 .0271064
565.738 .0272014
566.532 .0272913
567.325 .0273764
568.118 .0274533
568.910 .0275294
569.702 .0276104
570.494 .0276998
571.285 .0277962
572.075 .0278961
572.865 .0279970
573.654 .0280939
574.443 .0281831
575.232 .0282627
576.020 .0283304
576.807 .0283894
577.594 .0284403
578.381 .0284871
579.167 .0285340
579.952 .0285852
580.738 .0286414
581.522 .0287027
582.307 .0287641
583.091 .0288243
583.874 .0288793
584.657 .0289279
585.440 .0289697
586.222 .0290043
587.004 .0290329
587.785 .0290565
588.566 .0290768
589.346 .0290970
590.126 .0291168
590.906 .0291375
591.685 .0291577
592.464 .0291749
593.242 .0291884
594.020 .0291970
594.797 .0292012
595.575 .0292036
596.351 .0292042
597.128 .0292046
597.904 .0292051
598.679 .0292070
599.454 .0292093
600.229 .0292119
601.004 .0292140
601.778 .0292145
602.551 .0292125
603.325 .0292079
604.097 .0292006
604.870 .0291911
605.642 .0291804
606.414 .0291691
607.185 .0291572
607.956 .0291451
608.727 .0291324
609.497 .0291202
610.267 .0291079
611.037 .0290957
611.806 .0290829
612.575 .0290698
613.344 .0290564
614.112 .0290427
614.880 .0290290
615.647 .0290159
616.414 .0290038
617.181 .0289929
617.948 .0289834
618.714 .0289754
619.480 .0289683
620.245 .0289623
621.011 .0289561
621.775 .0289493
622.540 .0289404
623.304 .0289302
624.068 .0289187
624.832 .0289063
625.595 .0288931
626.358 .0288804
627.120 .0288685
627.883 .0288574
628.645 .0288468
629.406 .0288363
630.168 .0288255
630.929 .0288149
631.689 .0288034
632.450 .0287909
633.210 .0287778
633.970 .0287644
634.729 .0287502
635.489 .0287360
636.248 .0287206
637.006 .0287045
637.765 .0286877
638.523 .0286705
639.280 .0286525
640.038 .0286345
640.795 .0286169
641.552 .0285995
642.309 .0285824
643.065 .0285651
643.821 .0285469
644.577 .0285282
645.332 .0285088
646.088 .0284888
646.843 .0284688
647.597 .0284497
648.352 .0284318
649.106 .0284158
649.860 .0284013
650.613 .0283874
651.367 .0283742
652.120 .0283609
652.872 .0283461
653.625 .0283295
654.377 .0283112
655.129 .0282914
655.881 .0282707
656.632 .0282497
657.384 .0282289
658.135 .0282088
658.885 .0281894
659.636 .0281705
660.386 .0281522
661.136 .0281342
661.885 .0281167
662.635 .0280994
663.384 .0280831
664.133 .0280672
664.881 .0280519
665.630 .0280381
666.378 .0280248
667.126 .0280121
667.874 .0279988
668.621 .0279856
669.368 .0279722
670.115 .0279582
670.862 .0279437
671.608 .0279293
672.354 .0279152
673.100 .0279014
673.846 .0278880
674.591 .0278755
675.337 .0278635
676.082 .0278524
676.826 .0278413
677.571 .0278304
678.315 .0278197
679.059 .0278092
679.803 .0277988
680.547 .0277891
681.290 .0277793
682.033 .0277692
682.776 .0277589
683.518 .0277483
684.261 .0277368
685.003 .0277243
685.745 .0277107
686.487 .0276959
687.228 .0276800
687.969 .0276633
688.710 .0276456
689.451 .0276278
690.192 .0276096
690.932 .0275909
691.672 .0275721
692.412 .0275534
693.152 .0275353
693.891 .0275177
694.630 .0275011
695.369 .0274856
696.108 .0274708
696.846 .0274568
697.585 .0274429
698.323 .0274290
699.061 .0274147
699.798 .0273998
700.536 .0273844
701.273 .0273683
702.010 .0273523
702.746 .0273359
703.483 .0273198
704.219 .0273038
704.955 .0272884
705.691 .0272734
706.427 .0272587
707.162 .0272447
707.897 .0272314
708.632 .0272191
709.367 .0272084
710.101 .0271990
710.835 .0271910
711.569 .0271840
712.303 .0271781
713.037 .0271725
713.770 .0271675
714.503 .0271622
715.236 .0271570
715.969 .0271513
716.702 .0271452
717.434 .0271386
718.166 .0271311
718.898 .0271230
719.629 .0271138
720.361 .0271038
721.092 .0270931
721.823 .0270809
722.554 .0270674
723.284 .0270525
724.014 .0270364
724.744 .0270185
725.474 .0269991
726.204 .0269788
726.933 .0269577
727.662 .0269362
728.391 .0269144
729.120 .0268928
729.849 .0268717
730.577 .0268516
731.305 .0268317
732.033 .0268124
732.760 .0267930
733.488 .0267735
734.215 .0267546
734.942 .0267363
735.669 .0267191
736.395 .0267030
737.122 .0266882
737.848 .0266746
738.573 .0266616
739.299 .0266488
740.024 .0266356
740.750 .0266224
741.474 .0266082
742.199 .0265929
742.924 .0265767
743.648 .0265605
744.372 .0265442
745.096 .0265286
745.819 .0265135
746.543 .0264989
747.266 .0264853
747.989 .0264722
748.711 .0264596
749.434 .0264481
750.156 .0264377
750.878 .0264284
751.599 .0264206
752.321 .0264144
753.042 .0264095
753.763 .0264064
754.484 .0264047
755.205 .0264036
755.925 .0264030
756.645 .0264018
757.365 .0263997
758.085 .0263963
758.804 .0263911
759.523 .0263831
760.242 .0263724
760.961 .0263589
761.679 .0263424
762.397 .0263232
763.115 .0263023
763.833 .0262796
764.551 .0262559
765.268 .0262314
765.985 .0262064
766.702 .0261810
767.418 .0261555
768.134 .0261297
768.850 .0261039
769.566 .0260779
770.282 .0260522
770.997 .0260270
771.712 .0260029
772.427 .0259799
773.142 .0259581
773.856 .0259374
774.570 .0259175
775.284 .0258982
775.998 .0258793
776.711 .0258610
777.424 .0258429
778.137 .0258249
778.849 .0258068
779.562 .0257892
780.274 .0257723
780.986 .0257560
781.697 .0257405
782.409 .0257265
783.120 .0257133
783.831 .0257011
784.541 .0256904
785.252 .0256810
785.962 .0256728
786.671 .0256653
787.381 .0256578
788.090 .0256504
788.799 .0256423
789.508 .0256332
790.217 .0256236
790.925 .0256136
791.633 .0256028
792.341 .0255910
793.048 .0255785
793.755 .0255655
794.462 .0255512
795.169 .0255361
795.875 .0255198
796.581 .0255023
797.287 .0254841
797.993 .0254649
798.698 .0254460
799.403 .0254276
800.108 .0254098
800.812 .0253928
801.517 .0253762
802.221 .0253601
802.924 .0253441
803.628 .0253282
804.331 .0253130
805.034 .0252982
805.736 .0252839
806.439 .0252705
807.141 .0252581
807.843 .0252469
808.544 .0252364
809.245 .0252264
809.946 .0252171
810.647 .0252079
811.347 .0251988
812.047 .0251899
812.747 .0251811
813.447 .0251727
814.146 .0251644
814.845 .0251562
815.543 .0251484
816.242 .0251404
816.940 .0251324
817.638 .0251242
818.335 .0251158
819.032 .0251073
819.729 .0250988
820.426 .0250907
821.122 .0250824
821.818 .0250741
822.514 .0250657
823.209 .0250568
823.905 .0250479
824.599 .0250385
825.294 .0250288
825.988 .0250189
826.682 .0250092
827.376 .0249995
828.069 .0249901
828.762 .0249808
829.455 .0249713
830.147 .0249611
830.840 .0249503
831.531 .0249385
832.223 .0249260
832.914 .0249132
833.605 .0249001
834.296 .0248871
834.986 .0248744
835.676 .0248618
836.366 .0248499
837.055 .0248383
837.744 .0248268
838.433 .0248152
839.121 .0248038
839.809 .0247925
840.497 .0247818
841.185 .0247717
841.872 .0247623
842.559 .0247540
843.245 .0247468
843.932 .0247403
844.617 .0247347
845.303 .0247300
845.988 .0247260
846.673 .0247223
847.358 .0247192
848.042 .0247162
848.726 .0247134
849.410 .0247106
850.093 .0247075
850.776 .0247041
851.459 .0246999
852.141 .0246946
852.823 .0246886
853.505 .0246819
854.186 .0246745
854.867 .0246663
855.548 .0246579
856.228 .0246490
856.908 .0246398
857.588 .0246307
858.267 .0246219
858.946 .0246132
859.625 .0246050
860.303 .0245970
860.981 .0245899
861.659 .0245831
862.336 .0245769
863.013 .0245715
863.690 .0245670
864.366 .0245628
865.042 .0245594
865.718 .0245567
866.393 .0245550
867.068 .0245540
867.743 .0245539
868.417 .0245540
869.091 .0245541
869.765 .0245538
870.438 .0245523
871.111 .0245499
871.783 .0245468
872.456 .0245424
873.127 .0245374
873.799 .0245322
874.470 .0245265
875.141 .0245207
875.811 .0245151
876.481 .0245089
877.151 .0245023
877.820 .0244952
878.489 .0244877
879.158 .0244793
879.826 .0244710
880.494 .0244624
881.162 .0244531
881.829 .0244439
882.496 .0244341
883.163 .0244237
883.829 .0244129
884.495 .0244018
885.160 .0243905
885.825 .0243794
886.490 .0243691
887.154 .0243598
887.818 .0243518
888.482 .0243451
889.145 .0243392
889.808 .0243341
890.471 .0243294
891.133 .0243249
891.795 .0243203
892.456 .0243158
893.117 .0243118
893.778 .0243085
894.439 .0243061
895.099 .0243050
895.758 .0243051
896.417 .0243058
897.076 .0243073
897.735 .0243083
898.393 .0243084
899.051 .0243079
899.708 .0243064
900.365 .0243041
901.022 .0243012
901.678 .0242983
902.334 .0242949
902.990 .0242918
903.645 .0242887
904.300 .0242852
904.954 .0242815
905.608 .0242774
906.262 .0242721
906.915 .0242661
907.568 .0242589
908.221 .0242510
908.873 .0242423
909.525 .0242335
910.176 .0242241
910.828 .0242139
911.478 .0242031
912.129 .0241914
912.778 .0241784
913.428 .0241648
914.077 .0241503
914.726 .0241353
915.375 .0241201
916.023 .0241051
916.670 .0240903
917.318 .0240761
917.964 .0240620
918.611 .0240480
919.257 .0240333
919.903 .0240183
920.548 .0240029
921.193 .0239881
921.838 .0239746
922.482 .0239625
923.126 .0239521
923.770 .0239437
924.413 .0239363
925.056 .0239296
925.698 .0239225
926.340 .0239151
926.982 .0239064
927.623 .0238964
928.264 .0238854
928.904 .0238738
929.544 .0238622
930.184 .0238509
930.823 .0238395
931.462 .0238284
932.101 .0238169
932.739 .0238043
933.377 .0237904
934.014 .0237750
934.651 .0237580
935.288 .0237396
935.924 .0237202
936.560 .0237001
937.196 .0236793
937.831 .0236588
938.466 .0236385
939.100 .0236184
939.734 .0235986
940.368 .0235793
941.001 .0235605
941.634 .0235425
942.266 .0235247
942.899 .0235062
943.530 .0234874
944.162 .0234674
944.793 .0234460
945.423 .0234233
946.053 .0233998
946.683 .0233762
947.313 .0233527
947.942 .0233301
948.571 .0233080
949.199 .0232871
949.827 .0232670
950.455 .0232470
951.082 .0232269
951.709 .0232060
952.335 .0231840
952.961 .0231609
953.587 .0231374
954.212 .0231133
954.837 .0230891
955.462 .0230655
956.086 .0230428
956.710 .0230211
957.334 .0230004
957.957 .0229809
958.579 .0229624
959.202 .0229446
959.824 .0229267
960.445 .0229085
961.067 .0228907
961.688 .0228733
962.308 .0228564
962.928 .0228401
963.548 .0228249
964.168 .0228102
964.787 .0227960
965.406 .0227826
966.024 .0227695
966.642 .0227564
967.260 .0227437
967.877 .0227311
968.494 .0227188
969.110 .0227069
969.727 .0226956
970.342 .0226850
970.958 .0226754
971.573 .0226660
972.188 .0226564
972.802 .0226474
973.416 .0226386
974.030 .0226296
974.643 .0226207
975.256 .0226121
975.869 .0226034
976.481 .0225942
977.093 .0225847
977.705 .0225750
978.316 .0225650
978.927 .0225549
979.538 .0225442
980.148 .0225336
980.758 .0225231
981.367 .0225123
981.977 .0225020
982.586 .0224921
983.194 .0224826
983.802 .0224733
984.410 .0224641
985.018 .0224555
985.625 .0224474
986.232 .0224400
986.838 .0224337
987.445 .0224287
988.050 .0224252
988.656 .0224226
989.261 .0224207
989.866 .0224193
990.471 .0224178
991.075 .0224164
991.679 .0224141
992.282 .0224109
992.886 .0224074
993.489 .0224032
994.091 .0223990
994.694 .0223950
995.296 .0223911
995.897 .0223875
996.499 .0223832
997.100 .0223785
997.701 .0223731
998.301 .0223670
998.901 .0223600
999.501 .0223527
1000.101 .0223447
1000.700 .0223366
1001.299 .0223276
1001.898 .0223191
1002.496 .0223107
1003.094 .0223030
1003.692 .0222958
1004.289 .0222893
1004.887 .0222842
1005.484 .0222805
1006.080 .0222776
1006.677 .0222765
1007.273 .0222760
1007.868 .0222765
1008.464 .0222771
1009.059 .0222784
1009.654 .0222795
1010.249 .0222817
1010.843 .0222841
1011.437 .0222873
1012.031 .0222906
1012.625 .0222940
1013.218 .0222965
1013.811 .0222982
1014.404 .0222987
1014.997 .0222979
1015.589 .0222958
1016.181 .0222938
1016.773 .0222913
1017.365 .0222903
1017.956 .0222901
1018.547 .0222909
1019.138 .0222927
1019.728 .0222951
1020.319 .0222975
1020.909 .0223001
1021.499 .0223028
1022.088 .0223061
1022.678 .0223100
1023.267 .0223147
1023.856 .0223196
1024.445 .0223253
1025.033 .0223309
1025.621 .0223357
1026.209 .0223395
1026.797 .0223421
1027.385 .0223425
1027.972 .0223420
1028.560 .0223403
1029.147 .0223381
1029.734 .0223361
1030.320 .0223341
1030.907 .0223322
1031.493 .0223308
1032.079 .0223298
1032.665 .0223295
1033.250 .0223303
1033.836 .0223334
1034.421 .0223380
1035.006 .0223450
1035.591 .0223536
1036.176 .0223639
1036.761 .0223756
1037.345 .0223877
1037.929 .0223992
1038.514 .0224101
1039.097 .0224196
1039.681 .0224280
1040.265 .0224356
1040.848 .0224427
1041.432 .0224485
1042.015 .0224539
1042.598 .0224580
1043.181 .0224609
1043.764 .0224621
1044.346 .0224631
1044.929 .0224632
1045.511 .0224637
1046.094 .0224636
1046.676 .0224627
1047.258 .0224619
1047.840 .0224618
1048.422 .0224614
1049.003 .0224616
1049.585 .0224628
1050.166 .0224657
1050.748 .0224702
1051.329 .0224771
1051.910 .0224852
1052.491 .0224954
1053.072 .0225069
1053.653 .0225197
1054.234 .0225318
1054.815 .0225435
1055.396 .0225541
1055.976 .0225637
1056.557 .0225719
1057.138 .0225785
1057.718 .0225847
1058.298 .0225911
1058.879 .0225968
1059.459 .0226018
1060.039 .0226057
1060.620 .0226085
1061.200 .0226095
1061.780 .0226093
1062.360 .0226059
1062.940 .0226008
1063.520 .0225931
1064.101 .0225833
1064.681 .0225722
1065.261 .0225614
1065.841 .0225509
1066.421 .0225417
1067.001 .0225351
1067.581 .0225294
1068.161 .0225253
1068.741 .0225239
1069.321 .0225238
1069.901 .0225257
1070.482 .0225281
1071.062 .0225309
1071.642 .0225335
1072.222 .0225368
1072.803 .0225395
1073.383 .0225416
1073.963 .0225450
1074.544 .0225480
1075.124 .0225511
1075.705 .0225551
1076.286 .0225616
1076.866 .0225705
1077.447 .0225820
1078.028 .0225944
1078.609 .0226075
1079.190 .0226201
1079.771 .0226302
1080.352 .0226372
1080.934 .0226419
1081.515 .0226435
1082.097 .0226432
1082.679 .0226415
1083.260 .0226407
1083.842 .0226416
1084.424 .0226445
1085.007 .0226496
1085.589 .0226566
1086.172 .0226643
1086.754 .0226706
1087.337 .0226753
1087.920 .0226787
1088.503 .0226807
1089.087 .0226818
1089.670 .0226829
1090.254 .0226839
1090.838 .0226859
1091.422 .0226906
1092.006 .0226954
1092.590 .0227013
1093.175 .0227064
1093.760 .0227093
1094.345 .0227114
1094.930 .0227106
1095.516 .0227086
1096.102 .0227061
1096.688 .0227058
1097.274 .0227074
1097.860 .0227100
1098.447 .0227154
1099.034 .0227221
1099.622 .0227293
1100.209 .0227383
1100.797 .0227468
1101.385 .0227547
1101.973 .0227643
1102.562 .0227760
1103.151 .0227899
1103.740 .0228056
1104.330 .0228223
1104.920 .0228395
1105.510 .0228544
1106.101 .0228677
1106.691 .0228754
1107.283 .0228799
1107.874 .0228819
1108.466 .0228792
1109.058 .0228744
1109.651 .0228685
1110.244 .0228619
1110.837 .0228549
1111.431 .0228488
1112.025 .0228424
1112.620 .0228356
1113.215 .0228301
1113.810 .0228249
1114.406 .0228216
1115.002 .0228194
1115.599 .0228185
1116.196 .0228161
1116.793 .0228132
1117.391 .0228090
1117.989 .0228030
1118.588 .0227974
1119.187 .0227920
1119.787 .0227875
1120.387 .0227839
1120.988 .0227832
1121.589 .0227842
1122.190 .0227874
1122.793 .0227920
1123.395 .0227967
1123.998 .0228009
1124.602 .0228047
1125.206 .0228108
1125.811 .0228183
1126.416 .0228290
1127.022 .0228467
1127.628 .0228664
1128.235 .0228911
1128.843 .0229215
1129.451 .0229576
1130.059 .0229947
1130.669 .0230317
1131.278 .0230665
1131.889 .0230958
1132.500 .0231204
1133.112 .0231394
1133.724 .0231528
1134.337 .0231683
1134.950 .0231808
1135.564 .0231929
1136.179 .0232071
1136.795 .0232265
1137.411 .0232480
1138.028 .0232722
1138.645 .0232962
1139.263 .0233240
1139.882 .0233539
1140.502 .0233900
1141.122 .0234291
1141.743 .0234840
1142.365 .0235584
1142.987 .0235531
1143.611 .0237082
1144.235 .0237192
1144.859 .0239743
1145.485 .0243145
