Measurement Sequence started on: 10-20-44-796
Integration time: 35
Scans to Average: 2 
>>>>>Begin Spectral Data<<<<<
432.953 .0517038
433.882 .0378645
434.810 .0366713
435.737 .0352273
436.662 .0353418
437.586 .0356978
438.509 .0348313
439.431 .0345160
440.351 .0342732
441.269 .0341000
442.187 .0339470
443.103 .0338296
444.018 .0337692
444.932 .0337164
445.844 .0336789
446.756 .0336450
447.666 .0336089
448.575 .0335533
449.482 .0334725
450.388 .0333728
451.294 .0332617
452.198 .0331507
453.100 .0330525
454.002 .0329767
454.902 .0329220
455.801 .0328873
456.699 .0328645
457.596 .0328413
458.492 .0328072
459.387 .0327587
460.280 .0326946
461.172 .0326125
462.064 .0325251
462.954 .0324349
463.843 .0323562
464.730 .0322967
465.617 .0322577
466.503 .0322374
467.387 .0322305
468.271 .0322299
469.153 .0322330
470.035 .0322382
470.915 .0322407
471.794 .0322431
472.673 .0322461
473.550 .0322492
474.426 .0322543
475.301 .0322602
476.175 .0322688
477.048 .0322801
477.920 .0322933
478.791 .0323023
479.661 .0323094
480.530 .0323140
481.398 .0323119
482.266 .0323049
483.132 .0322943
483.997 .0322770
484.861 .0322535
485.724 .0322290
486.587 .0322042
487.448 .0321803
488.308 .0321595
489.168 .0321406
490.026 .0321260
490.884 .0321124
491.741 .0320952
492.597 .0320743
493.452 .0320502
494.306 .0320204
495.159 .0319838
496.011 .0319431
496.862 .0318970
497.713 .0318436
498.562 .0317838
499.411 .0317175
500.259 .0316435
501.106 .0315627
501.952 .0314744
502.798 .0313839
503.642 .0312906
504.486 .0311970
505.329 .0311054
506.171 .0310203
507.012 .0309399
507.852 .0308583
508.692 .0307744
509.531 .0306851
510.369 .0305893
511.206 .0304902
512.043 .0303890
512.878 .0302874
513.713 .0301868
514.547 .0300866
515.381 .0299843
516.213 .0298823
517.045 .0297713
517.876 .0296476
518.706 .0295026
519.536 .0293378
520.365 .0291490
521.193 .0289416
522.020 .0287318
522.847 .0285200
523.673 .0283168
524.498 .0281253
525.323 .0279436
526.146 .0277766
526.969 .0276192
527.792 .0274691
528.614 .0273155
529.435 .0271656
530.255 .0270148
531.075 .0268638
531.894 .0267255
532.712 .0266079
533.530 .0265038
534.347 .0264229
535.163 .0263612
535.979 .0263155
536.794 .0262860
537.608 .0262628
538.422 .0262419
539.235 .0262258
540.048 .0262080
540.860 .0261910
541.671 .0261769
542.481 .0261796
543.292 .0261888
544.101 .0262094
544.910 .0262457
545.718 .0262877
546.526 .0263390
547.333 .0263975
548.139 .0264563
548.945 .0265175
549.750 .0265731
550.555 .0266211
551.359 .0266634
552.162 .0266972
552.965 .0267194
553.768 .0267309
554.569 .0267376
555.371 .0267389
556.171 .0267398
556.972 .0267491
557.771 .0267686
558.570 .0267980
559.369 .0268417
560.167 .0268916
560.964 .0269497
561.761 .0270137
562.558 .0270818
563.354 .0271585
564.149 .0272394
564.944 .0273247
565.738 .0274179
566.532 .0275210
567.325 .0276313
568.118 .0277428
568.910 .0278565
569.702 .0279681
570.494 .0280740
571.285 .0281721
572.075 .0282624
572.865 .0283472
573.654 .0284256
574.443 .0284985
575.232 .0285667
576.020 .0286323
576.807 .0286934
577.594 .0287521
578.381 .0288064
579.167 .0288573
579.952 .0289031
580.738 .0289477
581.522 .0289924
582.307 .0290372
583.091 .0290832
583.874 .0291308
584.657 .0291811
585.440 .0292338
586.222 .0292851
587.004 .0293360
587.785 .0293852
588.566 .0294331
589.346 .0294771
590.126 .0295176
590.906 .0295546
591.685 .0295896
592.464 .0296219
593.242 .0296528
594.020 .0296811
594.797 .0297076
595.575 .0297318
596.351 .0297537
597.128 .0297728
597.904 .0297874
598.679 .0297974
599.454 .0298033
600.229 .0298049
601.004 .0298034
601.778 .0297986
602.551 .0297924
603.325 .0297855
604.097 .0297782
604.870 .0297698
605.642 .0297609
606.414 .0297513
607.185 .0297399
607.956 .0297275
608.727 .0297143
609.497 .0296997
610.267 .0296848
611.037 .0296700
611.806 .0296556
612.575 .0296409
613.344 .0296266
614.112 .0296120
614.880 .0295973
615.647 .0295826
616.414 .0295671
617.181 .0295511
617.948 .0295359
618.714 .0295204
619.480 .0295049
620.245 .0294891
621.011 .0294727
621.775 .0294551
622.540 .0294362
623.304 .0294163
624.068 .0293955
624.832 .0293748
625.595 .0293550
626.358 .0293363
627.120 .0293190
627.883 .0293024
628.645 .0292862
629.406 .0292701
630.168 .0292531
630.929 .0292345
631.689 .0292143
632.450 .0291924
633.210 .0291702
633.970 .0291473
634.729 .0291247
635.489 .0291028
636.248 .0290812
637.006 .0290596
637.765 .0290375
638.523 .0290146
639.280 .0289906
640.038 .0289657
640.795 .0289406
641.552 .0289149
642.309 .0288897
643.065 .0288657
643.821 .0288433
644.577 .0288230
645.332 .0288045
646.088 .0287877
646.843 .0287727
647.597 .0287589
648.352 .0287468
649.106 .0287364
649.860 .0287281
650.613 .0287222
651.367 .0287178
652.120 .0287148
652.872 .0287123
653.625 .0287092
654.377 .0287054
655.129 .0287002
655.881 .0286936
656.632 .0286849
657.384 .0286748
658.135 .0286639
658.885 .0286516
659.636 .0286388
660.386 .0286249
661.136 .0286097
661.885 .0285934
662.635 .0285764
663.384 .0285586
664.133 .0285409
664.881 .0285237
665.630 .0285080
666.378 .0284940
667.126 .0284819
667.874 .0284710
668.621 .0284621
669.368 .0284546
670.115 .0284477
670.862 .0284406
671.608 .0284342
672.354 .0284275
673.100 .0284212
673.846 .0284146
674.591 .0284085
675.337 .0284031
676.082 .0283982
676.826 .0283932
677.571 .0283881
678.315 .0283824
679.059 .0283760
679.803 .0283685
680.547 .0283602
681.290 .0283503
682.033 .0283395
682.776 .0283280
683.518 .0283164
684.261 .0283048
685.003 .0282943
685.745 .0282849
686.487 .0282766
687.228 .0282687
687.969 .0282604
688.710 .0282517
689.451 .0282419
690.192 .0282310
690.932 .0282184
691.672 .0282044
692.412 .0281900
693.152 .0281753
693.891 .0281608
694.630 .0281468
695.369 .0281335
696.108 .0281202
696.846 .0281063
697.585 .0280911
698.323 .0280741
699.061 .0280554
699.798 .0280354
700.536 .0280136
701.273 .0279909
702.010 .0279684
702.746 .0279462
703.483 .0279250
704.219 .0279052
704.955 .0278862
705.691 .0278680
706.427 .0278498
707.162 .0278313
707.897 .0278124
708.632 .0277934
709.367 .0277749
710.101 .0277571
710.835 .0277406
711.569 .0277251
712.303 .0277105
713.037 .0276970
713.770 .0276834
714.503 .0276688
715.236 .0276530
715.969 .0276356
716.702 .0276167
717.434 .0275966
718.166 .0275758
718.898 .0275552
719.629 .0275345
720.361 .0275139
721.092 .0274933
721.823 .0274725
722.554 .0274510
723.284 .0274283
724.014 .0274044
724.744 .0273790
725.474 .0273522
726.204 .0273248
726.933 .0272976
727.662 .0272707
728.391 .0272448
729.120 .0272197
729.849 .0271958
730.577 .0271728
731.305 .0271504
732.033 .0271282
732.760 .0271062
733.488 .0270842
734.215 .0270621
734.942 .0270400
735.669 .0270185
736.395 .0269977
737.122 .0269779
737.848 .0269592
738.573 .0269411
739.299 .0269235
740.024 .0269066
740.750 .0268898
741.474 .0268727
742.199 .0268552
742.924 .0268376
743.648 .0268202
744.372 .0268033
745.096 .0267874
745.819 .0267728
746.543 .0267599
747.266 .0267482
747.989 .0267377
748.711 .0267283
749.434 .0267195
750.156 .0267115
750.878 .0267044
751.599 .0266979
752.321 .0266923
753.042 .0266879
753.763 .0266846
754.484 .0266825
755.205 .0266814
755.925 .0266805
756.645 .0266798
757.365 .0266793
758.085 .0266782
758.804 .0266761
759.523 .0266732
760.242 .0266689
760.961 .0266628
761.679 .0266553
762.397 .0266462
763.115 .0266355
763.833 .0266236
764.551 .0266102
765.268 .0265957
765.985 .0265808
766.702 .0265658
767.418 .0265508
768.134 .0265360
768.850 .0265218
769.566 .0265073
770.282 .0264925
770.997 .0264776
771.712 .0264624
772.427 .0264472
773.142 .0264329
773.856 .0264191
774.570 .0264065
775.284 .0263955
775.998 .0263858
776.711 .0263773
777.424 .0263696
778.137 .0263621
778.849 .0263540
779.562 .0263452
780.274 .0263358
780.986 .0263254
781.697 .0263147
782.409 .0263041
783.120 .0262932
783.831 .0262830
784.541 .0262734
785.252 .0262641
785.962 .0262553
786.671 .0262472
787.381 .0262385
788.090 .0262295
788.799 .0262199
789.508 .0262094
790.217 .0261978
790.925 .0261854
791.633 .0261720
792.341 .0261581
793.048 .0261444
793.755 .0261307
794.462 .0261166
795.169 .0261031
795.875 .0260890
796.581 .0260743
797.287 .0260591
797.993 .0260429
798.698 .0260255
799.403 .0260080
800.108 .0259902
800.812 .0259727
801.517 .0259561
802.221 .0259410
802.924 .0259268
803.628 .0259139
804.331 .0259020
805.034 .0258901
805.736 .0258784
806.439 .0258673
807.141 .0258560
807.843 .0258453
808.544 .0258354
809.245 .0258261
809.946 .0258177
810.647 .0258101
811.347 .0258030
812.047 .0257959
812.747 .0257886
813.447 .0257809
814.146 .0257721
814.845 .0257631
815.543 .0257537
816.242 .0257439
816.940 .0257339
817.638 .0257234
818.335 .0257121
819.032 .0256998
819.729 .0256863
820.426 .0256717
821.122 .0256559
821.818 .0256393
822.514 .0256222
823.209 .0256050
823.905 .0255881
824.599 .0255715
825.294 .0255552
825.988 .0255385
826.682 .0255212
827.376 .0255028
828.069 .0254834
828.762 .0254627
829.455 .0254410
830.147 .0254185
830.840 .0253956
831.531 .0253725
832.223 .0253493
832.914 .0253258
833.605 .0253024
834.296 .0252786
834.986 .0252542
835.676 .0252294
836.366 .0252045
837.055 .0251795
837.744 .0251550
838.433 .0251309
839.121 .0251076
839.809 .0250852
840.497 .0250642
841.185 .0250440
841.872 .0250255
842.559 .0250086
843.245 .0249935
843.932 .0249802
844.617 .0249689
845.303 .0249590
845.988 .0249505
846.673 .0249428
847.358 .0249354
848.042 .0249281
848.726 .0249204
849.410 .0249122
850.093 .0249036
850.776 .0248946
851.459 .0248850
852.141 .0248746
852.823 .0248640
853.505 .0248524
854.186 .0248397
854.867 .0248259
855.548 .0248105
856.228 .0247942
856.908 .0247767
857.588 .0247585
858.267 .0247399
858.946 .0247218
859.625 .0247039
860.303 .0246865
860.981 .0246696
861.659 .0246535
862.336 .0246381
863.013 .0246237
863.690 .0246103
864.366 .0245978
865.042 .0245861
865.718 .0245758
866.393 .0245664
867.068 .0245588
867.743 .0245522
868.417 .0245469
869.091 .0245422
869.765 .0245384
870.438 .0245348
871.111 .0245312
871.783 .0245275
872.456 .0245236
873.127 .0245190
873.799 .0245137
874.470 .0245071
875.141 .0244998
875.811 .0244918
876.481 .0244834
877.151 .0244744
877.820 .0244655
878.489 .0244562
879.158 .0244466
879.826 .0244366
880.494 .0244264
881.162 .0244156
881.829 .0244051
882.496 .0243946
883.163 .0243848
883.829 .0243760
884.495 .0243688
885.160 .0243635
885.825 .0243604
886.490 .0243589
887.154 .0243584
887.818 .0243588
888.482 .0243593
889.145 .0243595
889.808 .0243600
890.471 .0243601
891.133 .0243605
891.795 .0243610
892.456 .0243616
893.117 .0243626
893.778 .0243637
894.439 .0243652
895.099 .0243661
895.758 .0243667
896.417 .0243665
897.076 .0243652
897.735 .0243635
898.393 .0243615
899.051 .0243595
899.708 .0243576
900.365 .0243560
901.022 .0243546
901.678 .0243532
902.334 .0243517
902.990 .0243498
903.645 .0243476
904.300 .0243451
904.954 .0243423
905.608 .0243392
906.262 .0243369
906.915 .0243348
907.568 .0243326
908.221 .0243308
908.873 .0243290
909.525 .0243272
910.176 .0243253
910.828 .0243237
911.478 .0243221
912.129 .0243202
912.778 .0243186
913.428 .0243168
914.077 .0243151
914.726 .0243133
915.375 .0243106
916.023 .0243080
916.670 .0243051
917.318 .0243014
917.964 .0242975
918.611 .0242938
919.257 .0242901
919.903 .0242862
920.548 .0242822
921.193 .0242780
921.838 .0242737
922.482 .0242694
923.126 .0242649
923.770 .0242605
924.413 .0242562
925.056 .0242522
925.698 .0242489
926.340 .0242462
926.982 .0242439
927.623 .0242416
928.264 .0242393
928.904 .0242363
929.544 .0242325
930.184 .0242280
930.823 .0242227
931.462 .0242169
932.101 .0242104
932.739 .0242029
933.377 .0241948
934.014 .0241862
934.651 .0241769
935.288 .0241672
935.924 .0241568
936.560 .0241454
937.196 .0241332
937.831 .0241197
938.466 .0241053
939.100 .0240898
939.734 .0240733
940.368 .0240562
941.001 .0240392
941.634 .0240226
942.266 .0240064
942.899 .0239906
943.530 .0239751
944.162 .0239591
944.793 .0239428
945.423 .0239250
946.053 .0239059
946.683 .0238857
947.313 .0238645
947.942 .0238423
948.571 .0238199
949.199 .0237973
949.827 .0237748
950.455 .0237528
951.082 .0237311
951.709 .0237090
952.335 .0236869
952.961 .0236644
953.587 .0236419
954.212 .0236190
954.837 .0235959
955.462 .0235723
956.086 .0235496
956.710 .0235276
957.334 .0235060
957.957 .0234854
958.579 .0234661
959.202 .0234476
959.824 .0234296
960.445 .0234120
961.067 .0233949
961.688 .0233778
962.308 .0233610
962.928 .0233440
963.548 .0233266
964.168 .0233094
964.787 .0232925
965.406 .0232763
966.024 .0232610
966.642 .0232462
967.260 .0232319
967.877 .0232183
968.494 .0232050
969.110 .0231916
969.727 .0231780
970.342 .0231648
970.958 .0231517
971.573 .0231388
972.188 .0231265
972.802 .0231148
973.416 .0231042
974.030 .0230943
974.643 .0230848
975.256 .0230758
975.869 .0230666
976.481 .0230571
977.093 .0230474
977.705 .0230374
978.316 .0230276
978.927 .0230178
979.538 .0230074
980.148 .0229966
980.758 .0229852
981.367 .0229732
981.977 .0229609
982.586 .0229485
983.194 .0229363
983.802 .0229243
984.410 .0229127
985.018 .0229014
985.625 .0228897
986.232 .0228783
986.838 .0228660
987.445 .0228530
988.050 .0228391
988.656 .0228250
989.261 .0228111
989.866 .0227979
990.471 .0227861
991.075 .0227757
991.679 .0227662
992.282 .0227578
992.886 .0227492
993.489 .0227405
994.091 .0227310
994.694 .0227212
995.296 .0227103
995.897 .0226990
996.499 .0226874
997.100 .0226761
997.701 .0226661
998.301 .0226579
998.901 .0226511
999.501 .0226457
1000.101 .0226415
1000.700 .0226376
1001.299 .0226332
1001.898 .0226280
1002.496 .0226211
1003.094 .0226124
1003.692 .0226020
1004.289 .0225904
1004.887 .0225785
1005.484 .0225675
1006.080 .0225582
1006.677 .0225505
1007.273 .0225453
1007.868 .0225411
1008.464 .0225377
1009.059 .0225340
1009.654 .0225295
1010.249 .0225244
1010.843 .0225187
1011.437 .0225133
1012.031 .0225089
1012.625 .0225066
1013.218 .0225071
1013.811 .0225103
1014.404 .0225157
1014.997 .0225227
1015.589 .0225303
1016.181 .0225377
1016.773 .0225442
1017.365 .0225489
1017.956 .0225516
1018.547 .0225526
1019.138 .0225515
1019.728 .0225490
1020.319 .0225452
1020.909 .0225410
1021.499 .0225360
1022.088 .0225310
1022.678 .0225257
1023.267 .0225207
1023.856 .0225161
1024.445 .0225125
1025.033 .0225092
1025.621 .0225064
1026.209 .0225036
1026.797 .0225015
1027.385 .0224994
1027.972 .0224985
1028.560 .0224986
1029.147 .0225002
1029.734 .0225035
1030.320 .0225084
1030.907 .0225146
1031.493 .0225221
1032.079 .0225293
1032.665 .0225363
1033.250 .0225417
1033.836 .0225463
1034.421 .0225490
1035.006 .0225512
1035.591 .0225531
1036.176 .0225546
1036.761 .0225559
1037.345 .0225576
1037.929 .0225579
1038.514 .0225574
1039.097 .0225562
1039.681 .0225539
1040.265 .0225511
1040.848 .0225486
1041.432 .0225468
1042.015 .0225468
1042.598 .0225482
1043.181 .0225511
1043.764 .0225541
1044.346 .0225581
1044.929 .0225618
1045.511 .0225640
1046.094 .0225664
1046.676 .0225691
1047.258 .0225727
1047.840 .0225784
1048.422 .0225861
1049.003 .0225962
1049.585 .0226087
1050.166 .0226226
1050.748 .0226369
1051.329 .0226501
1051.910 .0226620
1052.491 .0226712
1053.072 .0226775
1053.653 .0226816
1054.234 .0226833
1054.815 .0226837
1055.396 .0226838
1055.976 .0226834
1056.557 .0226842
1057.138 .0226870
1057.718 .0226928
1058.298 .0227008
1058.879 .0227109
1059.459 .0227220
1060.039 .0227329
1060.620 .0227424
1061.200 .0227500
1061.780 .0227562
1062.360 .0227614
1062.940 .0227664
1063.520 .0227713
1064.101 .0227770
1064.681 .0227820
1065.261 .0227865
1065.841 .0227896
1066.421 .0227894
1067.001 .0227854
1067.581 .0227763
1068.161 .0227636
1068.741 .0227485
1069.321 .0227323
1069.901 .0227174
1070.482 .0227038
1071.062 .0226940
1071.642 .0226865
1072.222 .0226810
1072.803 .0226786
1073.383 .0226783
1073.963 .0226797
1074.544 .0226828
1075.124 .0226880
1075.705 .0226945
1076.286 .0227029
1076.866 .0227125
1077.447 .0227229
1078.028 .0227336
1078.609 .0227451
1079.190 .0227564
1079.771 .0227685
1080.352 .0227805
1080.934 .0227924
1081.515 .0228039
1082.097 .0228165
1082.679 .0228277
1083.260 .0228375
1083.842 .0228460
1084.424 .0228529
1085.007 .0228586
1085.589 .0228638
1086.172 .0228681
1086.754 .0228727
1087.337 .0228772
1087.920 .0228818
1088.503 .0228851
1089.087 .0228878
1089.670 .0228898
1090.254 .0228916
1090.838 .0228932
1091.422 .0228942
1092.006 .0228949
1092.590 .0228956
1093.175 .0228970
1093.760 .0228983
1094.345 .0229007
1094.930 .0229037
1095.516 .0229072
1096.102 .0229101
1096.688 .0229113
1097.274 .0229129
1097.860 .0229132
1098.447 .0229120
1099.034 .0229093
1099.622 .0229029
1100.209 .0228953
1100.797 .0228868
1101.385 .0228769
1101.973 .0228664
1102.562 .0228561
1103.151 .0228466
1103.740 .0228371
1104.330 .0228301
1104.920 .0228235
1105.510 .0228184
1106.101 .0228157
1106.691 .0228132
1107.283 .0228100
1107.874 .0228067
1108.466 .0228022
1109.058 .0227949
1109.651 .0227880
1110.244 .0227795
1110.837 .0227701
1111.431 .0227633
1112.025 .0227580
1112.620 .0227547
1113.215 .0227543
1113.810 .0227574
1114.406 .0227598
1115.002 .0227623
1115.599 .0227620
1116.196 .0227586
1116.793 .0227538
1117.391 .0227487
1117.989 .0227439
1118.588 .0227417
1119.187 .0227446
1119.787 .0227504
1120.387 .0227598
1120.988 .0227724
1121.589 .0227853
1122.190 .0227976
1122.793 .0228083
1123.395 .0228176
1123.998 .0228268
1124.602 .0228408
1125.206 .0228593
1125.811 .0228835
1126.416 .0229105
1127.022 .0229415
1127.628 .0229716
1128.235 .0229971
1128.843 .0230177
1129.451 .0230333
1130.059 .0230470
1130.669 .0230593
1131.278 .0230714
1131.889 .0230879
1132.500 .0231081
1133.112 .0231324
1133.724 .0231531
1134.337 .0231708
1134.950 .0231803
1135.564 .0231853
1136.179 .0231881
1136.795 .0231957
1137.411 .0232108
1138.028 .0232382
1138.645 .0232815
1139.263 .0233356
1139.882 .0233990
1140.502 .0234675
1141.122 .0235426
1141.743 .0236340
1142.365 .0237298
1142.987 .0237041
1143.611 .0237873
1144.235 .0239991
1144.859 .0244448
1145.485 .0244000
