Measurement Sequence started on: 10-20-44-796
Integration time: 35
Scans to Average: 2 
>>>>>Begin Spectral Data<<<<<
432.953 .0704743
433.882 .0449078
434.810 .0457653
435.737 .0413396
436.662 .0405495
437.586 .0418453
438.509 .0403342
439.431 .0398731
440.351 .0395096
441.269 .0393299
442.187 .0391849
443.103 .0390508
444.018 .0389067
444.932 .0387465
445.844 .0385729
446.756 .0383960
447.666 .0382089
448.575 .0380244
449.482 .0378425
450.388 .0376746
451.294 .0375086
452.198 .0373425
453.100 .0371865
454.002 .0370365
454.902 .0369097
455.801 .0368015
456.699 .0367256
457.596 .0366801
458.492 .0366733
459.387 .0366880
460.280 .0367285
461.172 .0367821
462.064 .0368391
462.954 .0368844
463.843 .0369187
464.730 .0369443
465.617 .0369608
466.503 .0369695
467.387 .0369760
468.271 .0369741
469.153 .0369737
470.035 .0369648
470.915 .0369525
471.794 .0369291
472.673 .0369017
473.550 .0368637
474.426 .0368201
475.301 .0367715
476.175 .0367235
477.048 .0366726
477.920 .0366287
478.791 .0365856
479.661 .0365499
480.530 .0365172
481.398 .0364914
482.266 .0364681
483.132 .0364530
483.997 .0364396
484.861 .0364293
485.724 .0364185
486.587 .0364091
487.448 .0363916
488.308 .0363674
489.168 .0363352
490.026 .0362968
490.884 .0362498
491.741 .0362001
492.597 .0361470
493.452 .0361011
494.306 .0360598
495.159 .0360287
496.011 .0360074
496.862 .0359972
497.713 .0359857
498.562 .0359722
499.411 .0359504
500.259 .0359161
501.106 .0358691
501.952 .0358161
502.798 .0357581
503.642 .0357016
504.486 .0356441
505.329 .0355918
506.171 .0355383
507.012 .0354862
507.852 .0354192
508.692 .0353319
509.531 .0352216
510.369 .0350861
511.206 .0349246
512.043 .0347489
512.878 .0345620
513.713 .0343785
514.547 .0342013
515.381 .0340350
516.213 .0338759
517.045 .0337223
517.876 .0335742
518.706 .0334350
519.536 .0332947
520.365 .0331611
521.193 .0330231
522.020 .0328933
522.847 .0327676
523.673 .0326419
524.498 .0325186
525.323 .0323946
526.146 .0322737
526.969 .0321485
527.792 .0320099
528.614 .0318715
529.435 .0317299
530.255 .0315904
531.075 .0314508
531.894 .0313086
532.712 .0311732
533.530 .0310514
534.347 .0309461
535.163 .0308559
535.979 .0307800
536.794 .0307165
537.608 .0306579
538.422 .0305982
539.235 .0305382
540.048 .0304820
540.860 .0304333
541.671 .0303886
542.481 .0303452
543.292 .0303075
544.101 .0302796
544.910 .0302624
545.718 .0302486
546.526 .0302331
547.333 .0302171
548.139 .0302044
548.945 .0301874
549.750 .0301786
550.555 .0301838
551.359 .0302028
552.162 .0302347
552.965 .0302767
553.768 .0303235
554.569 .0303809
555.371 .0304351
556.171 .0304861
556.972 .0305272
557.771 .0305643
558.570 .0305968
559.369 .0306290
560.167 .0306615
560.964 .0306980
561.761 .0307358
562.558 .0307796
563.354 .0308199
564.149 .0308592
564.944 .0308970
565.738 .0309379
566.532 .0309842
567.325 .0310357
568.118 .0310919
568.910 .0311628
569.702 .0312414
570.494 .0313292
571.285 .0314188
572.075 .0315089
572.865 .0316000
573.654 .0316836
574.443 .0317583
575.232 .0318244
576.020 .0318848
576.807 .0319427
577.594 .0319956
578.381 .0320477
579.167 .0320973
579.952 .0321461
580.738 .0321940
581.522 .0322382
582.307 .0322787
583.091 .0323177
583.874 .0323546
584.657 .0323889
585.440 .0324208
586.222 .0324504
587.004 .0324794
587.785 .0325097
588.566 .0325391
589.346 .0325660
590.126 .0325900
590.906 .0326114
591.685 .0326299
592.464 .0326421
593.242 .0326500
594.020 .0326544
594.797 .0326573
595.575 .0326578
596.351 .0326564
597.128 .0326553
597.904 .0326532
598.679 .0326496
599.454 .0326443
600.229 .0326358
601.004 .0326253
601.778 .0326123
602.551 .0325982
603.325 .0325832
604.097 .0325682
604.870 .0325521
605.642 .0325360
606.414 .0325192
607.185 .0324992
607.956 .0324763
608.727 .0324523
609.497 .0324267
610.267 .0323985
611.037 .0323691
611.806 .0323406
612.575 .0323130
613.344 .0322879
614.112 .0322634
614.880 .0322411
615.647 .0322196
616.414 .0321982
617.181 .0321764
617.948 .0321551
618.714 .0321348
619.480 .0321154
620.245 .0320974
621.011 .0320810
621.775 .0320652
622.540 .0320509
623.304 .0320374
624.068 .0320251
624.832 .0320117
625.595 .0319972
626.358 .0319810
627.120 .0319633
627.883 .0319431
628.645 .0319215
629.406 .0318994
630.168 .0318770
630.929 .0318549
631.689 .0318340
632.450 .0318132
633.210 .0317946
633.970 .0317762
634.729 .0317585
635.489 .0317396
636.248 .0317196
637.006 .0316978
637.765 .0316754
638.523 .0316527
639.280 .0316310
640.038 .0316106
640.795 .0315926
641.552 .0315757
642.309 .0315596
643.065 .0315427
643.821 .0315248
644.577 .0315036
645.332 .0314802
646.088 .0314531
646.843 .0314237
647.597 .0313928
648.352 .0313621
649.106 .0313335
649.860 .0313076
650.613 .0312849
651.367 .0312657
652.120 .0312481
652.872 .0312331
653.625 .0312184
654.377 .0312046
655.129 .0311916
655.881 .0311791
656.632 .0311669
657.384 .0311552
658.135 .0311448
658.885 .0311353
659.636 .0311264
660.386 .0311175
661.136 .0311076
661.885 .0310963
662.635 .0310834
663.384 .0310688
664.133 .0310524
664.881 .0310356
665.630 .0310178
666.378 .0310005
667.126 .0309843
667.874 .0309685
668.621 .0309537
669.368 .0309401
670.115 .0309278
670.862 .0309154
671.608 .0309036
672.354 .0308920
673.100 .0308799
673.846 .0308681
674.591 .0308552
675.337 .0308423
676.082 .0308292
676.826 .0308158
677.571 .0308008
678.315 .0307855
679.059 .0307692
679.803 .0307520
680.547 .0307350
681.290 .0307184
682.033 .0307015
682.776 .0306850
683.518 .0306687
684.261 .0306530
685.003 .0306373
685.745 .0306221
686.487 .0306063
687.228 .0305914
687.969 .0305755
688.710 .0305590
689.451 .0305412
690.192 .0305235
690.932 .0305039
691.672 .0304829
692.412 .0304599
693.152 .0304360
693.891 .0304108
694.630 .0303850
695.369 .0303592
696.108 .0303344
696.846 .0303094
697.585 .0302848
698.323 .0302599
699.061 .0302361
699.798 .0302121
700.536 .0301880
701.273 .0301634
702.010 .0301397
702.746 .0301155
703.483 .0300917
704.219 .0300679
704.955 .0300454
705.691 .0300228
706.427 .0300005
707.162 .0299786
707.897 .0299570
708.632 .0299362
709.367 .0299159
710.101 .0298955
710.835 .0298761
711.569 .0298559
712.303 .0298356
713.037 .0298153
713.770 .0297955
714.503 .0297761
715.236 .0297579
715.969 .0297412
716.702 .0297259
717.434 .0297115
718.166 .0296974
718.898 .0296824
719.629 .0296657
720.361 .0296471
721.092 .0296253
721.823 .0296017
722.554 .0295768
723.284 .0295509
724.014 .0295250
724.744 .0295003
725.474 .0294763
726.204 .0294536
726.933 .0294311
727.662 .0294087
728.391 .0293852
729.120 .0293614
729.849 .0293370
730.577 .0293122
731.305 .0292881
732.033 .0292649
732.760 .0292419
733.488 .0292208
734.215 .0292007
734.942 .0291818
735.669 .0291646
736.395 .0291492
737.122 .0291336
737.848 .0291184
738.573 .0291029
739.299 .0290866
740.024 .0290693
740.750 .0290511
741.474 .0290320
742.199 .0290126
742.924 .0289945
743.648 .0289770
744.372 .0289615
745.096 .0289486
745.819 .0289363
746.543 .0289242
747.266 .0289123
747.989 .0288998
748.711 .0288865
749.434 .0288728
750.156 .0288600
750.878 .0288477
751.599 .0288374
752.321 .0288287
753.042 .0288224
753.763 .0288180
754.484 .0288150
755.205 .0288120
755.925 .0288101
756.645 .0288078
757.365 .0288049
758.085 .0288015
758.804 .0287979
759.523 .0287934
760.242 .0287877
760.961 .0287808
761.679 .0287730
762.397 .0287635
763.115 .0287526
763.833 .0287396
764.551 .0287254
765.268 .0287097
765.985 .0286928
766.702 .0286750
767.418 .0286562
768.134 .0286363
768.850 .0286154
769.566 .0285937
770.282 .0285715
770.997 .0285491
771.712 .0285268
772.427 .0285047
773.142 .0284832
773.856 .0284621
774.570 .0284416
775.284 .0284222
775.998 .0284041
776.711 .0283874
777.424 .0283717
778.137 .0283569
778.849 .0283431
779.562 .0283302
780.274 .0283185
780.986 .0283077
781.697 .0282978
782.409 .0282890
783.120 .0282820
783.831 .0282768
784.541 .0282734
785.252 .0282713
785.962 .0282705
786.671 .0282697
787.381 .0282688
788.090 .0282668
788.799 .0282642
789.508 .0282603
790.217 .0282549
790.925 .0282478
791.633 .0282390
792.341 .0282282
793.048 .0282160
793.755 .0282021
794.462 .0281864
795.169 .0281692
795.875 .0281511
796.581 .0281322
797.287 .0281130
797.993 .0280940
798.698 .0280752
799.403 .0280566
800.108 .0280382
800.812 .0280201
801.517 .0280026
802.221 .0279863
802.924 .0279704
803.628 .0279564
804.331 .0279440
805.034 .0279338
805.736 .0279247
806.439 .0279171
807.141 .0279102
807.843 .0279034
808.544 .0278958
809.245 .0278872
809.946 .0278778
810.647 .0278680
811.347 .0278575
812.047 .0278476
812.747 .0278378
813.447 .0278282
814.146 .0278185
814.845 .0278090
815.543 .0277981
816.242 .0277865
816.940 .0277738
817.638 .0277605
818.335 .0277473
819.032 .0277342
819.729 .0277213
820.426 .0277090
821.122 .0276971
821.818 .0276841
822.514 .0276705
823.209 .0276565
823.905 .0276414
824.599 .0276254
825.294 .0276090
825.988 .0275927
826.682 .0275764
827.376 .0275603
828.069 .0275437
828.762 .0275260
829.455 .0275069
830.147 .0274862
830.840 .0274636
831.531 .0274406
832.223 .0274183
832.914 .0273970
833.605 .0273782
834.296 .0273617
834.986 .0273479
835.676 .0273367
836.366 .0273272
837.055 .0273187
837.744 .0273100
838.433 .0273016
839.121 .0272932
839.809 .0272853
840.497 .0272789
841.185 .0272740
841.872 .0272708
842.559 .0272696
843.245 .0272690
843.932 .0272685
844.617 .0272674
845.303 .0272649
845.988 .0272605
846.673 .0272535
847.358 .0272437
848.042 .0272317
848.726 .0272179
849.410 .0272034
850.093 .0271876
850.776 .0271721
851.459 .0271572
852.141 .0271422
852.823 .0271275
853.505 .0271128
854.186 .0270977
854.867 .0270816
855.548 .0270640
856.228 .0270452
856.908 .0270256
857.588 .0270062
858.267 .0269871
858.946 .0269686
859.625 .0269517
860.303 .0269361
860.981 .0269215
861.659 .0269078
862.336 .0268942
863.013 .0268803
863.690 .0268660
864.366 .0268516
865.042 .0268371
865.718 .0268238
866.393 .0268120
867.068 .0268018
867.743 .0267929
868.417 .0267845
869.091 .0267759
869.765 .0267663
870.438 .0267555
871.111 .0267429
871.783 .0267283
872.456 .0267121
873.127 .0266950
873.799 .0266773
874.470 .0266592
875.141 .0266404
875.811 .0266211
876.481 .0266014
877.151 .0265812
877.820 .0265607
878.489 .0265410
879.158 .0265226
879.826 .0265060
880.494 .0264910
881.162 .0264778
881.829 .0264665
882.496 .0264567
883.163 .0264480
883.829 .0264405
884.495 .0264345
885.160 .0264300
885.825 .0264277
886.490 .0264280
887.154 .0264307
887.818 .0264353
888.482 .0264406
889.145 .0264461
889.808 .0264513
890.471 .0264552
891.133 .0264577
891.795 .0264587
892.456 .0264595
893.117 .0264601
893.778 .0264608
894.439 .0264620
895.099 .0264634
895.758 .0264646
896.417 .0264645
897.076 .0264626
897.735 .0264591
898.393 .0264536
899.051 .0264467
899.708 .0264377
900.365 .0264270
901.022 .0264152
901.678 .0264015
902.334 .0263865
902.990 .0263704
903.645 .0263526
904.300 .0263339
904.954 .0263147
905.608 .0262953
906.262 .0262761
906.915 .0262577
907.568 .0262404
908.221 .0262244
908.873 .0262091
909.525 .0261945
910.176 .0261801
910.828 .0261667
911.478 .0261536
912.129 .0261405
912.778 .0261288
913.428 .0261185
914.077 .0261099
914.726 .0261030
915.375 .0260978
916.023 .0260946
916.670 .0260927
917.318 .0260908
917.964 .0260881
918.611 .0260841
919.257 .0260785
919.903 .0260707
920.548 .0260620
921.193 .0260531
921.838 .0260444
922.482 .0260371
923.126 .0260314
923.770 .0260270
924.413 .0260235
925.056 .0260195
925.698 .0260146
926.340 .0260080
926.982 .0259995
927.623 .0259893
928.264 .0259791
928.904 .0259691
929.544 .0259599
930.184 .0259517
930.823 .0259443
931.462 .0259368
932.101 .0259282
932.739 .0259179
933.377 .0259058
934.014 .0258915
934.651 .0258750
935.288 .0258572
935.924 .0258396
936.560 .0258219
937.196 .0258046
937.831 .0257875
938.466 .0257706
939.100 .0257538
939.734 .0257364
940.368 .0257190
941.001 .0257021
941.634 .0256858
942.266 .0256700
942.899 .0256552
943.530 .0256414
944.162 .0256278
944.793 .0256147
945.423 .0256010
946.053 .0255865
946.683 .0255712
947.313 .0255550
947.942 .0255389
948.571 .0255229
949.199 .0255078
949.827 .0254929
950.455 .0254797
951.082 .0254671
951.709 .0254541
952.335 .0254411
952.961 .0254276
953.587 .0254133
954.212 .0253987
954.837 .0253839
955.462 .0253697
956.086 .0253567
956.710 .0253455
957.334 .0253360
957.957 .0253290
958.579 .0253225
959.202 .0253167
959.824 .0253103
960.445 .0253032
961.067 .0252950
961.688 .0252856
962.308 .0252757
962.928 .0252653
963.548 .0252551
964.168 .0252443
964.787 .0252329
965.406 .0252217
966.024 .0252100
966.642 .0251977
967.260 .0251853
967.877 .0251730
968.494 .0251607
969.110 .0251490
969.727 .0251372
970.342 .0251255
970.958 .0251138
971.573 .0251013
972.188 .0250881
972.802 .0250746
973.416 .0250615
974.030 .0250487
974.643 .0250372
975.256 .0250278
975.869 .0250195
976.481 .0250128
977.093 .0250074
977.705 .0250028
978.316 .0249992
978.927 .0249961
979.538 .0249933
980.148 .0249909
980.758 .0249895
981.367 .0249881
981.977 .0249873
982.586 .0249871
983.194 .0249870
983.802 .0249869
984.410 .0249869
985.018 .0249861
985.625 .0249844
986.232 .0249823
986.838 .0249795
987.445 .0249748
988.050 .0249684
988.656 .0249593
989.261 .0249482
989.866 .0249347
990.471 .0249198
991.075 .0249038
991.679 .0248872
992.282 .0248711
992.886 .0248551
993.489 .0248404
994.091 .0248266
994.694 .0248139
995.296 .0248020
995.897 .0247908
996.499 .0247802
997.100 .0247695
997.701 .0247598
998.301 .0247514
998.901 .0247438
999.501 .0247375
1000.101 .0247328
1000.700 .0247293
1001.299 .0247266
1001.898 .0247248
1002.496 .0247232
1003.094 .0247223
1003.692 .0247214
1004.289 .0247197
1004.887 .0247176
1005.484 .0247154
1006.080 .0247130
1006.677 .0247097
1007.273 .0247069
1007.868 .0247044
1008.464 .0247023
1009.059 .0247009
1009.654 .0246998
1010.249 .0246999
1010.843 .0247005
1011.437 .0247007
1012.031 .0247006
1012.625 .0246999
1013.218 .0246990
1013.811 .0246978
1014.404 .0246969
1014.997 .0246957
1015.589 .0246951
1016.181 .0246952
1016.773 .0246961
1017.365 .0246977
1017.956 .0247002
1018.547 .0247034
1019.138 .0247087
1019.728 .0247146
1020.319 .0247207
1020.909 .0247266
1021.499 .0247325
1022.088 .0247375
1022.678 .0247414
1023.267 .0247427
1023.856 .0247423
1024.445 .0247397
1025.033 .0247354
1025.621 .0247286
1026.209 .0247205
1026.797 .0247110
1027.385 .0247006
1027.972 .0246896
1028.560 .0246774
1029.147 .0246644
1029.734 .0246529
1030.320 .0246414
1030.907 .0246314
1031.493 .0246230
1032.079 .0246169
1032.665 .0246127
1033.250 .0246110
1033.836 .0246099
1034.421 .0246110
1035.006 .0246134
1035.591 .0246175
1036.176 .0246220
1036.761 .0246295
1037.345 .0246392
1037.929 .0246513
1038.514 .0246659
1039.097 .0246817
1039.681 .0246973
1040.265 .0247125
1040.848 .0247256
1041.432 .0247372
1042.015 .0247461
1042.598 .0247542
1043.181 .0247600
1043.764 .0247663
1044.346 .0247714
1044.929 .0247772
1045.511 .0247833
1046.094 .0247900
1046.676 .0247954
1047.258 .0247984
1047.840 .0247981
1048.422 .0247945
1049.003 .0247875
1049.585 .0247784
1050.166 .0247665
1050.748 .0247540
1051.329 .0247398
1051.910 .0247257
1052.491 .0247101
1053.072 .0246952
1053.653 .0246809
1054.234 .0246683
1054.815 .0246566
1055.396 .0246461
1055.976 .0246348
1056.557 .0246243
1057.138 .0246143
1057.718 .0246027
1058.298 .0245895
1058.879 .0245771
1059.459 .0245645
1060.039 .0245533
1060.620 .0245430
1061.200 .0245342
1061.780 .0245270
1062.360 .0245243
1062.940 .0245214
1063.520 .0245186
1064.101 .0245170
1064.681 .0245157
1065.261 .0245149
1065.841 .0245160
1066.421 .0245163
1067.001 .0245147
1067.581 .0245129
1068.161 .0245100
1068.741 .0245021
1069.321 .0244932
1069.901 .0244837
1070.482 .0244746
1071.062 .0244663
1071.642 .0244590
1072.222 .0244511
1072.803 .0244474
1073.383 .0244458
1073.963 .0244424
1074.544 .0244392
1075.124 .0244358
1075.705 .0244304
1076.286 .0244245
1076.866 .0244198
1077.447 .0244161
1078.028 .0244134
1078.609 .0244141
1079.190 .0244149
1079.771 .0244170
1080.352 .0244206
1080.934 .0244236
1081.515 .0244282
1082.097 .0244327
1082.679 .0244344
1083.260 .0244334
1083.842 .0244308
1084.424 .0244261
1085.007 .0244190
1085.589 .0244097
1086.172 .0244007
1086.754 .0243940
1087.337 .0243907
1087.920 .0243917
1088.503 .0243973
1089.087 .0244029
1089.670 .0244073
1090.254 .0244068
1090.838 .0244025
1091.422 .0243909
1092.006 .0243745
1092.590 .0243564
1093.175 .0243365
1093.760 .0243189
1094.345 .0243019
1094.930 .0242868
1095.516 .0242760
1096.102 .0242638
1096.688 .0242502
1097.274 .0242331
1097.860 .0242155
1098.447 .0241986
1099.034 .0241858
1099.622 .0241785
1100.209 .0241781
1100.797 .0241831
1101.385 .0241931
1101.973 .0242068
1102.562 .0242230
1103.151 .0242386
1103.740 .0242535
1104.330 .0242712
1104.920 .0242874
1105.510 .0243022
1106.101 .0243201
1106.691 .0243375
1107.283 .0243572
1107.874 .0243751
1108.466 .0243894
1109.058 .0244009
1109.651 .0244108
1110.244 .0244184
1110.837 .0244253
1111.431 .0244335
1112.025 .0244404
1112.620 .0244427
1113.215 .0244428
1113.810 .0244374
1114.406 .0244276
1115.002 .0244156
1115.599 .0244002
1116.196 .0243861
1116.793 .0243752
1117.391 .0243681
1117.989 .0243680
1118.588 .0243718
1119.187 .0243803
1119.787 .0243863
1120.387 .0243881
1120.988 .0243850
1121.589 .0243797
1122.190 .0243751
1122.793 .0243717
1123.395 .0243751
1123.998 .0243885
1124.602 .0244083
1125.206 .0244393
1125.811 .0244778
1126.416 .0245174
1127.022 .0245543
1127.628 .0245850
1128.235 .0246063
1128.843 .0246227
1129.451 .0246339
1130.059 .0246440
1130.669 .0246574
1131.278 .0246787
1131.889 .0247027
1132.500 .0247312
1133.112 .0247713
1133.724 .0248173
1134.337 .0248670
1134.950 .0249198
1135.564 .0249714
1136.179 .0250292
1136.795 .0250901
1137.411 .0251554
1138.028 .0252254
1138.645 .0252998
1139.263 .0253815
1139.882 .0254638
1140.502 .0255543
1141.122 .0256432
1141.743 .0257335
1142.365 .0258086
1142.987 .0259016
1143.611 .0261012
1144.235 .0260110
1144.859 .0261224
1145.485 .0257921
