Measurement Sequence started on: 10-20-44-796
Integration time: 35
Scans to Average: 2 
>>>>>Begin Spectral Data<<<<<
432.953 .0417810
433.882 .0430183
434.810 .0380759
435.737 .0390929
436.662 .0396064
437.586 .0395982
438.509 .0393962
439.431 .0391927
440.351 .0391103
441.269 .0389794
442.187 .0388352
443.103 .0387150
444.018 .0386027
444.932 .0385168
445.844 .0384397
446.756 .0383441
447.666 .0382417
448.575 .0381221
449.482 .0380026
450.388 .0378918
451.294 .0377991
452.198 .0377350
453.100 .0376881
454.002 .0376719
454.902 .0376619
455.801 .0376545
456.699 .0376430
457.596 .0376173
458.492 .0375764
459.387 .0375197
460.280 .0374573
461.172 .0373890
462.064 .0373264
462.954 .0372694
463.843 .0372177
464.730 .0371724
465.617 .0371306
466.503 .0370913
467.387 .0370436
468.271 .0369856
469.153 .0369179
470.035 .0368401
470.915 .0367571
471.794 .0366719
472.673 .0365913
473.550 .0365172
474.426 .0364560
475.301 .0364046
476.175 .0363608
477.048 .0363238
477.920 .0362872
478.791 .0362482
479.661 .0362039
480.530 .0361552
481.398 .0360995
482.266 .0360448
483.132 .0359919
483.997 .0359422
484.861 .0359016
485.724 .0358719
486.587 .0358530
487.448 .0358464
488.308 .0358455
489.168 .0358467
490.026 .0358462
490.884 .0358427
491.741 .0358309
492.597 .0358160
493.452 .0357987
494.306 .0357782
495.159 .0357588
496.011 .0357427
496.862 .0357281
497.713 .0357163
498.562 .0357001
499.411 .0356757
500.259 .0356405
501.106 .0355904
501.952 .0355207
502.798 .0354374
503.642 .0353445
504.486 .0352465
505.329 .0351458
506.171 .0350470
507.012 .0349489
507.852 .0348517
508.692 .0347560
509.531 .0346564
510.369 .0345505
511.206 .0344387
512.043 .0343186
512.878 .0341948
513.713 .0340668
514.547 .0339366
515.381 .0338078
516.213 .0336799
517.045 .0335460
517.876 .0334070
518.706 .0332588
519.536 .0331047
520.365 .0329384
521.193 .0327603
522.020 .0325779
522.847 .0323855
523.673 .0321808
524.498 .0319658
525.323 .0317446
526.146 .0315234
526.969 .0312968
527.792 .0310745
528.614 .0308550
529.435 .0306461
530.255 .0304528
531.075 .0302772
531.894 .0301262
532.712 .0299968
533.530 .0298823
534.347 .0297924
535.163 .0297269
535.979 .0296812
536.794 .0296597
537.608 .0296672
538.422 .0296959
539.235 .0297366
540.048 .0297838
540.860 .0298383
541.671 .0298949
542.481 .0299485
543.292 .0299888
544.101 .0300233
544.910 .0300616
545.718 .0300954
546.526 .0301259
547.333 .0301603
548.139 .0301919
548.945 .0302189
549.750 .0302378
550.555 .0302497
551.359 .0302556
552.162 .0302638
552.965 .0302754
553.768 .0302961
554.569 .0303283
555.371 .0303710
556.171 .0304252
556.972 .0304921
557.771 .0305625
558.570 .0306291
559.369 .0306921
560.167 .0307507
560.964 .0308033
561.761 .0308507
562.558 .0308938
563.354 .0309368
564.149 .0309797
564.944 .0310226
565.738 .0310660
566.532 .0311117
567.325 .0311595
568.118 .0312077
568.910 .0312575
569.702 .0313101
570.494 .0313678
571.285 .0314262
572.075 .0314894
572.865 .0315514
573.654 .0316103
574.443 .0316651
575.232 .0317173
576.020 .0317659
576.807 .0318128
577.594 .0318587
578.381 .0319044
579.167 .0319488
579.952 .0319936
580.738 .0320332
581.522 .0320692
582.307 .0320993
583.091 .0321238
583.874 .0321423
584.657 .0321595
585.440 .0321770
586.222 .0321973
587.004 .0322226
587.785 .0322525
588.566 .0322838
589.346 .0323169
590.126 .0323483
590.906 .0323783
591.685 .0324062
592.464 .0324309
593.242 .0324537
594.020 .0324741
594.797 .0324949
595.575 .0325146
596.351 .0325326
597.128 .0325485
597.904 .0325603
598.679 .0325680
599.454 .0325704
600.229 .0325680
601.004 .0325617
601.778 .0325532
602.551 .0325426
603.325 .0325308
604.097 .0325185
604.870 .0325059
605.642 .0324932
606.414 .0324799
607.185 .0324659
607.956 .0324501
608.727 .0324343
609.497 .0324188
610.267 .0324029
611.037 .0323871
611.806 .0323707
612.575 .0323536
613.344 .0323351
614.112 .0323147
614.880 .0322923
615.647 .0322678
616.414 .0322420
617.181 .0322148
617.948 .0321864
618.714 .0321581
619.480 .0321300
620.245 .0321027
621.011 .0320759
621.775 .0320490
622.540 .0320215
623.304 .0319945
624.068 .0319685
624.832 .0319430
625.595 .0319174
626.358 .0318938
627.120 .0318716
627.883 .0318503
628.645 .0318298
629.406 .0318100
630.168 .0317905
630.929 .0317715
631.689 .0317524
632.450 .0317326
633.210 .0317134
633.970 .0316948
634.729 .0316759
635.489 .0316571
636.248 .0316374
637.006 .0316166
637.765 .0315946
638.523 .0315726
639.280 .0315495
640.038 .0315260
640.795 .0315031
641.552 .0314814
642.309 .0314603
643.065 .0314398
643.821 .0314191
644.577 .0313982
645.332 .0313765
646.088 .0313535
646.843 .0313292
647.597 .0313043
648.352 .0312792
649.106 .0312548
649.860 .0312308
650.613 .0312085
651.367 .0311877
652.120 .0311680
652.872 .0311497
653.625 .0311319
654.377 .0311139
655.129 .0310961
655.881 .0310787
656.632 .0310608
657.384 .0310426
658.135 .0310245
658.885 .0310066
659.636 .0309881
660.386 .0309701
661.136 .0309516
661.885 .0309335
662.635 .0309159
663.384 .0308985
664.133 .0308813
664.881 .0308648
665.630 .0308484
666.378 .0308322
667.126 .0308163
667.874 .0308004
668.621 .0307844
669.368 .0307689
670.115 .0307536
670.862 .0307388
671.608 .0307247
672.354 .0307121
673.100 .0307004
673.846 .0306901
674.591 .0306800
675.337 .0306705
676.082 .0306613
676.826 .0306515
677.571 .0306406
678.315 .0306288
679.059 .0306162
679.803 .0306025
680.547 .0305883
681.290 .0305735
682.033 .0305579
682.776 .0305419
683.518 .0305251
684.261 .0305076
685.003 .0304895
685.745 .0304708
686.487 .0304521
687.228 .0304334
687.969 .0304149
688.710 .0303962
689.451 .0303781
690.192 .0303608
690.932 .0303432
691.672 .0303253
692.412 .0303075
693.152 .0302890
693.891 .0302701
694.630 .0302505
695.369 .0302306
696.108 .0302103
696.846 .0301896
697.585 .0301685
698.323 .0301473
699.061 .0301261
699.798 .0301047
700.536 .0300830
701.273 .0300616
702.010 .0300403
702.746 .0300185
703.483 .0299975
704.219 .0299771
704.955 .0299571
705.691 .0299376
706.427 .0299185
707.162 .0299001
707.897 .0298819
708.632 .0298637
709.367 .0298453
710.101 .0298264
710.835 .0298069
711.569 .0297865
712.303 .0297657
713.037 .0297443
713.770 .0297227
714.503 .0297008
715.236 .0296793
715.969 .0296576
716.702 .0296359
717.434 .0296143
718.166 .0295926
718.898 .0295710
719.629 .0295487
720.361 .0295261
721.092 .0295031
721.823 .0294796
722.554 .0294557
723.284 .0294310
724.014 .0294058
724.744 .0293796
725.474 .0293531
726.204 .0293261
726.933 .0292987
727.662 .0292710
728.391 .0292440
729.120 .0292176
729.849 .0291923
730.577 .0291688
731.305 .0291467
732.033 .0291266
732.760 .0291080
733.488 .0290906
734.215 .0290741
734.942 .0290588
735.669 .0290443
736.395 .0290303
737.122 .0290177
737.848 .0290054
738.573 .0289938
739.299 .0289832
740.024 .0289725
740.750 .0289612
741.474 .0289491
742.199 .0289354
742.924 .0289200
743.648 .0289033
744.372 .0288855
745.096 .0288673
745.819 .0288497
746.543 .0288329
747.266 .0288169
747.989 .0288028
748.711 .0287895
749.434 .0287765
750.156 .0287641
750.878 .0287514
751.599 .0287381
752.321 .0287244
753.042 .0287105
753.763 .0286971
754.484 .0286847
755.205 .0286730
755.925 .0286621
756.645 .0286523
757.365 .0286432
758.085 .0286340
758.804 .0286244
759.523 .0286137
760.242 .0286015
760.961 .0285880
761.679 .0285737
762.397 .0285581
763.115 .0285422
763.833 .0285262
764.551 .0285105
765.268 .0284947
765.985 .0284789
766.702 .0284630
767.418 .0284470
768.134 .0284308
768.850 .0284134
769.566 .0283952
770.282 .0283769
770.997 .0283578
771.712 .0283382
772.427 .0283183
773.142 .0282986
773.856 .0282786
774.570 .0282587
775.284 .0282390
775.998 .0282193
776.711 .0281999
777.424 .0281807
778.137 .0281611
778.849 .0281419
779.562 .0281229
780.274 .0281037
780.986 .0280853
781.697 .0280678
782.409 .0280512
783.120 .0280360
783.831 .0280228
784.541 .0280118
785.252 .0280024
785.962 .0279952
786.671 .0279894
787.381 .0279844
788.090 .0279800
788.799 .0279755
789.508 .0279707
790.217 .0279657
790.925 .0279595
791.633 .0279523
792.341 .0279444
793.048 .0279357
793.755 .0279257
794.462 .0279143
795.169 .0279014
795.875 .0278868
796.581 .0278703
797.287 .0278523
797.993 .0278329
798.698 .0278131
799.403 .0277933
800.108 .0277739
800.812 .0277553
801.517 .0277382
802.221 .0277227
802.924 .0277085
803.628 .0276953
804.331 .0276829
805.034 .0276710
805.736 .0276595
806.439 .0276484
807.141 .0276378
807.843 .0276277
808.544 .0276185
809.245 .0276099
809.946 .0276014
810.647 .0275931
811.347 .0275850
812.047 .0275764
812.747 .0275675
813.447 .0275574
814.146 .0275462
814.845 .0275346
815.543 .0275228
816.242 .0275108
816.940 .0274989
817.638 .0274878
818.335 .0274775
819.032 .0274676
819.729 .0274582
820.426 .0274488
821.122 .0274391
821.818 .0274284
822.514 .0274166
823.209 .0274032
823.905 .0273889
824.599 .0273733
825.294 .0273570
825.988 .0273400
826.682 .0273225
827.376 .0273043
828.069 .0272858
828.762 .0272671
829.455 .0272479
830.147 .0272283
830.840 .0272095
831.531 .0271911
832.223 .0271739
832.914 .0271577
833.605 .0271430
834.296 .0271295
834.986 .0271171
835.676 .0271049
836.366 .0270929
837.055 .0270810
837.744 .0270691
838.433 .0270566
839.121 .0270444
839.809 .0270321
840.497 .0270202
841.185 .0270082
841.872 .0269964
842.559 .0269844
843.245 .0269725
843.932 .0269603
844.617 .0269480
845.303 .0269358
845.988 .0269237
846.673 .0269115
847.358 .0268998
848.042 .0268888
848.726 .0268787
849.410 .0268692
850.093 .0268607
850.776 .0268528
851.459 .0268451
852.141 .0268374
852.823 .0268296
853.505 .0268217
854.186 .0268132
854.867 .0268041
855.548 .0267944
856.228 .0267843
856.908 .0267740
857.588 .0267634
858.267 .0267530
858.946 .0267426
859.625 .0267325
860.303 .0267225
860.981 .0267133
861.659 .0267048
862.336 .0266965
863.013 .0266884
863.690 .0266799
864.366 .0266709
865.042 .0266616
865.718 .0266518
866.393 .0266420
867.068 .0266315
867.743 .0266207
868.417 .0266092
869.091 .0265972
869.765 .0265843
870.438 .0265706
871.111 .0265558
871.783 .0265405
872.456 .0265241
873.127 .0265075
873.799 .0264912
874.470 .0264757
875.141 .0264610
875.811 .0264468
876.481 .0264331
877.151 .0264201
877.820 .0264073
878.489 .0263948
879.158 .0263821
879.826 .0263697
880.494 .0263573
881.162 .0263453
881.829 .0263340
882.496 .0263238
883.163 .0263139
883.829 .0263045
884.495 .0262946
885.160 .0262849
885.825 .0262750
886.490 .0262657
887.154 .0262576
887.818 .0262508
888.482 .0262453
889.145 .0262414
889.808 .0262391
890.471 .0262384
891.133 .0262386
891.795 .0262393
892.456 .0262400
893.117 .0262412
893.778 .0262420
894.439 .0262430
895.099 .0262444
895.758 .0262461
896.417 .0262476
897.076 .0262484
897.735 .0262483
898.393 .0262464
899.051 .0262426
899.708 .0262368
900.365 .0262287
901.022 .0262190
901.678 .0262085
902.334 .0261977
902.990 .0261872
903.645 .0261776
904.300 .0261686
904.954 .0261599
905.608 .0261510
906.262 .0261413
906.915 .0261309
907.568 .0261194
908.221 .0261075
908.873 .0260951
909.525 .0260829
910.176 .0260716
910.828 .0260609
911.478 .0260510
912.129 .0260414
912.778 .0260315
913.428 .0260206
914.077 .0260087
914.726 .0259958
915.375 .0259817
916.023 .0259673
916.670 .0259537
917.318 .0259408
917.964 .0259289
918.611 .0259186
919.257 .0259089
919.903 .0259000
920.548 .0258911
921.193 .0258816
921.838 .0258717
922.482 .0258615
923.126 .0258516
923.770 .0258419
924.413 .0258331
925.056 .0258257
925.698 .0258190
926.340 .0258132
926.982 .0258074
927.623 .0258013
928.264 .0257943
928.904 .0257862
929.544 .0257769
930.184 .0257663
930.823 .0257548
931.462 .0257427
932.101 .0257307
932.739 .0257188
933.377 .0257071
934.014 .0256950
934.651 .0256824
935.288 .0256694
935.924 .0256552
936.560 .0256402
937.196 .0256250
937.831 .0256095
938.466 .0255938
939.100 .0255784
939.734 .0255635
940.368 .0255493
941.001 .0255365
941.634 .0255240
942.266 .0255113
942.899 .0254984
943.530 .0254841
944.162 .0254682
944.793 .0254507
945.423 .0254317
946.053 .0254106
946.683 .0253883
947.313 .0253651
947.942 .0253408
948.571 .0253165
949.199 .0252921
949.827 .0252676
950.455 .0252432
951.082 .0252188
951.709 .0251945
952.335 .0251709
952.961 .0251486
953.587 .0251275
954.212 .0251081
954.837 .0250905
955.462 .0250750
956.086 .0250616
956.710 .0250503
957.334 .0250407
957.957 .0250322
958.579 .0250240
959.202 .0250161
959.824 .0250075
960.445 .0249982
961.067 .0249881
961.688 .0249772
962.308 .0249656
962.928 .0249536
963.548 .0249416
964.168 .0249293
964.787 .0249169
965.406 .0249045
966.024 .0248914
966.642 .0248778
967.260 .0248640
967.877 .0248495
968.494 .0248349
969.110 .0248203
969.727 .0248056
970.342 .0247911
970.958 .0247775
971.573 .0247647
972.188 .0247527
972.802 .0247416
973.416 .0247310
974.030 .0247205
974.643 .0247108
975.256 .0247012
975.869 .0246917
976.481 .0246828
977.093 .0246747
977.705 .0246673
978.316 .0246615
978.927 .0246568
979.538 .0246531
980.148 .0246497
980.758 .0246464
981.367 .0246422
981.977 .0246379
982.586 .0246331
983.194 .0246280
983.802 .0246228
984.410 .0246179
985.018 .0246128
985.625 .0246080
986.232 .0246031
986.838 .0245986
987.445 .0245933
988.050 .0245874
988.656 .0245805
989.261 .0245732
989.866 .0245652
990.471 .0245567
991.075 .0245483
991.679 .0245399
992.282 .0245314
992.886 .0245236
993.489 .0245163
994.091 .0245100
994.694 .0245039
995.296 .0244975
995.897 .0244910
996.499 .0244844
997.100 .0244774
997.701 .0244705
998.301 .0244646
998.901 .0244599
999.501 .0244561
1000.101 .0244541
1000.700 .0244537
1001.299 .0244545
1001.898 .0244569
1002.496 .0244605
1003.094 .0244642
1003.692 .0244681
1004.289 .0244713
1004.887 .0244742
1005.484 .0244774
1006.080 .0244806
1006.677 .0244836
1007.273 .0244867
1007.868 .0244904
1008.464 .0244936
1009.059 .0244967
1009.654 .0245005
1010.249 .0245043
1010.843 .0245085
1011.437 .0245126
1012.031 .0245161
1012.625 .0245190
1013.218 .0245212
1013.811 .0245230
1014.404 .0245241
1014.997 .0245246
1015.589 .0245246
1016.181 .0245236
1016.773 .0245222
1017.365 .0245211
1017.956 .0245191
1018.547 .0245165
1019.138 .0245138
1019.728 .0245101
1020.319 .0245055
1020.909 .0245006
1021.499 .0244953
1022.088 .0244897
1022.678 .0244843
1023.267 .0244778
1023.856 .0244704
1024.445 .0244641
1025.033 .0244590
1025.621 .0244547
1026.209 .0244529
1026.797 .0244529
1027.385 .0244530
1027.972 .0244535
1028.560 .0244535
1029.147 .0244518
1029.734 .0244495
1030.320 .0244451
1030.907 .0244391
1031.493 .0244332
1032.079 .0244280
1032.665 .0244233
1033.250 .0244203
1033.836 .0244196
1034.421 .0244192
1035.006 .0244182
1035.591 .0244171
1036.176 .0244144
1036.761 .0244101
1037.345 .0244048
1037.929 .0243976
1038.514 .0243903
1039.097 .0243838
1039.681 .0243778
1040.265 .0243739
1040.848 .0243722
1041.432 .0243719
1042.015 .0243722
1042.598 .0243725
1043.181 .0243727
1043.764 .0243715
1044.346 .0243692
1044.929 .0243653
1045.511 .0243608
1046.094 .0243566
1046.676 .0243529
1047.258 .0243506
1047.840 .0243507
1048.422 .0243526
1049.003 .0243559
1049.585 .0243596
1050.166 .0243633
1050.748 .0243668
1051.329 .0243692
1051.910 .0243706
1052.491 .0243723
1053.072 .0243746
1053.653 .0243778
1054.234 .0243814
1054.815 .0243866
1055.396 .0243918
1055.976 .0243959
1056.557 .0243992
1057.138 .0244022
1057.718 .0244050
1058.298 .0244077
1058.879 .0244107
1059.459 .0244154
1060.039 .0244210
1060.620 .0244264
1061.200 .0244299
1061.780 .0244304
1062.360 .0244279
1062.940 .0244209
1063.520 .0244101
1064.101 .0243969
1064.681 .0243821
1065.261 .0243672
1065.841 .0243518
1066.421 .0243371
1067.001 .0243211
1067.581 .0243040
1068.161 .0242859
1068.741 .0242645
1069.321 .0242408
1069.901 .0242161
1070.482 .0241909
1071.062 .0241683
1071.642 .0241493
1072.222 .0241344
1072.803 .0241240
1073.383 .0241179
1073.963 .0241141
1074.544 .0241120
1075.124 .0241111
1075.705 .0241105
1076.286 .0241101
1076.866 .0241109
1077.447 .0241125
1078.028 .0241155
1078.609 .0241223
1079.190 .0241306
1079.771 .0241406
1080.352 .0241514
1080.934 .0241608
1081.515 .0241690
1082.097 .0241758
1082.679 .0241802
1083.260 .0241819
1083.842 .0241843
1084.424 .0241871
1085.007 .0241894
1085.589 .0241930
1086.172 .0241972
1086.754 .0242016
1087.337 .0242058
1087.920 .0242088
1088.503 .0242092
1089.087 .0242075
1089.670 .0242042
1090.254 .0241972
1090.838 .0241901
1091.422 .0241830
1092.006 .0241756
1092.590 .0241675
1093.175 .0241608
1093.760 .0241542
1094.345 .0241477
1094.930 .0241410
1095.516 .0241340
1096.102 .0241261
1096.688 .0241185
1097.274 .0241105
1097.860 .0241025
1098.447 .0240952
1099.034 .0240901
1099.622 .0240852
1100.209 .0240842
1100.797 .0240855
1101.385 .0240882
1101.973 .0240912
1102.562 .0240954
1103.151 .0240987
1103.740 .0241003
1104.330 .0241017
1104.920 .0241040
1105.510 .0241070
1106.101 .0241119
1106.691 .0241160
1107.283 .0241213
1107.874 .0241282
1108.466 .0241321
1109.058 .0241318
1109.651 .0241294
1110.244 .0241235
1110.837 .0241136
1111.431 .0241008
1112.025 .0240873
1112.620 .0240766
1113.215 .0240700
1113.810 .0240658
1114.406 .0240630
1115.002 .0240639
1115.599 .0240685
1116.196 .0240737
1116.793 .0240834
1117.391 .0240943
1117.989 .0241060
1118.588 .0241223
1119.187 .0241391
1119.787 .0241561
1120.387 .0241748
1120.988 .0241955
1121.589 .0242164
1122.190 .0242381
1122.793 .0242602
1123.395 .0242814
1123.998 .0243080
1124.602 .0243395
1125.206 .0243704
1125.811 .0244027
1126.416 .0244370
1127.022 .0244657
1127.628 .0244902
1128.235 .0245079
1128.843 .0245169
1129.451 .0245256
1130.059 .0245332
1130.669 .0245419
1131.278 .0245546
1131.889 .0245759
1132.500 .0246041
1133.112 .0246369
1133.724 .0246754
1134.337 .0247122
1134.950 .0247454
1135.564 .0247790
1136.179 .0248075
1136.795 .0248363
1137.411 .0248706
1138.028 .0249129
1138.645 .0249682
1139.263 .0250332
1139.882 .0251047
1140.502 .0251865
1141.122 .0252712
1141.743 .0253595
1142.365 .0254468
1142.987 .0254590
1143.611 .0256505
1144.235 .0256376
1144.859 .0257676
1145.485 .0259313
