Measurement Sequence started on: 10-20-44-796
Integration time: 35
Scans to Average: 2 
>>>>>Begin Spectral Data<<<<<
432.953 .0210274
433.882 .0271675
434.810 .0313901
435.737 .0331509
436.662 .0317901
437.586 .0329980
438.509 .0340257
439.431 .0346987
440.351 .0351584
441.269 .0354926
442.187 .0357684
443.103 .0359175
444.018 .0359850
444.932 .0359963
445.844 .0359561
446.756 .0358921
447.666 .0358000
448.575 .0356899
449.482 .0355732
450.388 .0354412
451.294 .0353139
452.198 .0351953
453.100 .0350823
454.002 .0349906
454.902 .0349248
455.801 .0348693
456.699 .0348245
457.596 .0347878
458.492 .0347475
459.387 .0347054
460.280 .0346601
461.172 .0346066
462.064 .0345543
462.954 .0345028
463.843 .0344506
464.730 .0344072
465.617 .0343766
466.503 .0343491
467.387 .0343296
468.271 .0343124
469.153 .0342927
470.035 .0342621
470.915 .0342205
471.794 .0341659
472.673 .0341045
473.550 .0340417
474.426 .0339839
475.301 .0339385
476.175 .0339118
477.048 .0338978
477.920 .0338956
478.791 .0338980
479.661 .0338987
480.530 .0338873
481.398 .0338629
482.266 .0338264
483.132 .0337790
483.997 .0337240
484.861 .0336692
485.724 .0336226
486.587 .0335881
487.448 .0335654
488.308 .0335480
489.168 .0335358
490.026 .0335226
490.884 .0335042
491.741 .0334786
492.597 .0334465
493.452 .0334093
494.306 .0333681
495.159 .0333293
496.011 .0332942
496.862 .0332604
497.713 .0332352
498.562 .0332100
499.411 .0331887
500.259 .0331622
501.106 .0331301
501.952 .0330914
502.798 .0330510
503.642 .0330057
504.486 .0329587
505.329 .0329100
506.171 .0328582
507.012 .0327978
507.852 .0327355
508.692 .0326704
509.531 .0326039
510.369 .0325327
511.206 .0324638
512.043 .0323858
512.878 .0323058
513.713 .0322216
514.547 .0321350
515.381 .0320373
516.213 .0319243
517.045 .0317926
517.876 .0316423
518.706 .0314752
519.536 .0312941
520.365 .0311066
521.193 .0309330
522.020 .0307605
522.847 .0305872
523.673 .0304088
524.498 .0302291
525.323 .0300418
526.146 .0298500
526.969 .0296558
527.792 .0294647
528.614 .0292881
529.435 .0291351
530.255 .0290001
531.075 .0288910
531.894 .0287916
532.712 .0286940
533.530 .0285880
534.347 .0284691
535.163 .0283348
535.979 .0282082
536.794 .0280951
537.608 .0279995
538.422 .0279286
539.235 .0278814
540.048 .0278525
540.860 .0278381
541.671 .0278290
542.481 .0278205
543.292 .0278141
544.101 .0278156
544.910 .0278206
545.718 .0278350
546.526 .0278529
547.333 .0278737
548.139 .0278965
548.945 .0279135
549.750 .0279171
550.555 .0279131
551.359 .0279054
552.162 .0278917
552.965 .0278919
553.768 .0279073
554.569 .0279436
555.371 .0279945
556.171 .0280515
556.972 .0281146
557.771 .0281802
558.570 .0282467
559.369 .0283103
560.167 .0283788
560.964 .0284557
561.761 .0285343
562.558 .0286194
563.354 .0287076
564.149 .0287973
564.944 .0288889
565.738 .0289841
566.532 .0290697
567.325 .0291567
568.118 .0292426
568.910 .0293307
569.702 .0294269
570.494 .0295263
571.285 .0296249
572.075 .0297220
572.865 .0298135
573.654 .0298940
574.443 .0299641
575.232 .0300307
576.020 .0300879
576.807 .0301445
577.594 .0301990
578.381 .0302541
579.167 .0303082
579.952 .0303686
580.738 .0304267
581.522 .0304830
582.307 .0305327
583.091 .0305753
583.874 .0306137
584.657 .0306476
585.440 .0306770
586.222 .0307069
587.004 .0307363
587.785 .0307672
588.566 .0307965
589.346 .0308264
590.126 .0308537
590.906 .0308787
591.685 .0309005
592.464 .0309185
593.242 .0309319
594.020 .0309416
594.797 .0309455
595.575 .0309448
596.351 .0309394
597.128 .0309296
597.904 .0309162
598.679 .0309012
599.454 .0308861
600.229 .0308730
601.004 .0308623
601.778 .0308551
602.551 .0308491
603.325 .0308439
604.097 .0308390
604.870 .0308316
605.642 .0308208
606.414 .0308072
607.185 .0307906
607.956 .0307735
608.727 .0307570
609.497 .0307421
610.267 .0307291
611.037 .0307192
611.806 .0307107
612.575 .0307017
613.344 .0306908
614.112 .0306775
614.880 .0306614
615.647 .0306431
616.414 .0306220
617.181 .0305993
617.948 .0305763
618.714 .0305545
619.480 .0305345
620.245 .0305166
621.011 .0305003
621.775 .0304858
622.540 .0304726
623.304 .0304595
624.068 .0304457
624.832 .0304305
625.595 .0304138
626.358 .0303955
627.120 .0303750
627.883 .0303525
628.645 .0303297
629.406 .0303080
630.168 .0302876
630.929 .0302682
631.689 .0302496
632.450 .0302307
633.210 .0302119
633.970 .0301920
634.729 .0301714
635.489 .0301498
636.248 .0301281
637.006 .0301072
637.765 .0300869
638.523 .0300675
639.280 .0300503
640.038 .0300345
640.795 .0300206
641.552 .0300076
642.309 .0299951
643.065 .0299821
643.821 .0299696
644.577 .0299560
645.332 .0299406
646.088 .0299231
646.843 .0299033
647.597 .0298807
648.352 .0298574
649.106 .0298330
649.860 .0298078
650.613 .0297844
651.367 .0297623
652.120 .0297404
652.872 .0297187
653.625 .0296964
654.377 .0296722
655.129 .0296461
655.881 .0296188
656.632 .0295900
657.384 .0295621
658.135 .0295358
658.885 .0295117
659.636 .0294910
660.386 .0294736
661.136 .0294578
661.885 .0294432
662.635 .0294287
663.384 .0294124
664.133 .0293946
664.881 .0293760
665.630 .0293566
666.378 .0293371
667.126 .0293178
667.874 .0292987
668.621 .0292807
669.368 .0292640
670.115 .0292479
670.862 .0292333
671.608 .0292199
672.354 .0292078
673.100 .0291966
673.846 .0291866
674.591 .0291765
675.337 .0291673
676.082 .0291582
676.826 .0291491
677.571 .0291404
678.315 .0291329
679.059 .0291263
679.803 .0291215
680.547 .0291175
681.290 .0291140
682.033 .0291097
682.776 .0291045
683.518 .0290967
684.261 .0290873
685.003 .0290750
685.745 .0290603
686.487 .0290441
687.228 .0290268
687.969 .0290080
688.710 .0289889
689.451 .0289689
690.192 .0289483
690.932 .0289266
691.672 .0289046
692.412 .0288820
693.152 .0288600
693.891 .0288385
694.630 .0288177
695.369 .0287980
696.108 .0287791
696.846 .0287602
697.585 .0287418
698.323 .0287230
699.061 .0287036
699.798 .0286837
700.536 .0286635
701.273 .0286434
702.010 .0286239
702.746 .0286044
703.483 .0285850
704.219 .0285654
704.955 .0285455
705.691 .0285246
706.427 .0285033
707.162 .0284817
707.897 .0284603
708.632 .0284409
709.367 .0284230
710.101 .0284070
710.835 .0283930
711.569 .0283803
712.303 .0283685
713.037 .0283570
713.770 .0283447
714.503 .0283316
715.236 .0283181
715.969 .0283037
716.702 .0282891
717.434 .0282748
718.166 .0282606
718.898 .0282462
719.629 .0282317
720.361 .0282161
721.092 .0281986
721.823 .0281794
722.554 .0281573
723.284 .0281339
724.014 .0281092
724.744 .0280832
725.474 .0280575
726.204 .0280331
726.933 .0280099
727.662 .0279879
728.391 .0279679
729.120 .0279497
729.849 .0279328
730.577 .0279178
731.305 .0279024
732.033 .0278879
732.760 .0278732
733.488 .0278584
734.215 .0278427
734.942 .0278273
735.669 .0278111
736.395 .0277948
737.122 .0277790
737.848 .0277633
738.573 .0277479
739.299 .0277329
740.024 .0277179
740.750 .0277027
741.474 .0276862
742.199 .0276688
742.924 .0276500
743.648 .0276313
744.372 .0276120
745.096 .0275937
745.819 .0275764
746.543 .0275610
747.266 .0275477
747.989 .0275367
748.711 .0275275
749.434 .0275199
750.156 .0275132
750.878 .0275074
751.599 .0275021
752.321 .0274973
753.042 .0274931
753.763 .0274904
754.484 .0274887
755.205 .0274883
755.925 .0274886
756.645 .0274893
757.365 .0274892
758.085 .0274878
758.804 .0274847
759.523 .0274793
760.242 .0274718
760.961 .0274618
761.679 .0274494
762.397 .0274349
763.115 .0274173
763.833 .0273977
764.551 .0273758
765.268 .0273515
765.985 .0273249
766.702 .0272964
767.418 .0272667
768.134 .0272371
768.850 .0272082
769.566 .0271805
770.282 .0271541
770.997 .0271297
771.712 .0271062
772.427 .0270841
773.142 .0270640
773.856 .0270456
774.570 .0270296
775.284 .0270159
775.998 .0270043
776.711 .0269945
777.424 .0269870
778.137 .0269812
778.849 .0269764
779.562 .0269725
780.274 .0269684
780.986 .0269636
781.697 .0269585
782.409 .0269526
783.120 .0269462
783.831 .0269397
784.541 .0269328
785.252 .0269252
785.962 .0269177
786.671 .0269101
787.381 .0269021
788.090 .0268942
788.799 .0268858
789.508 .0268757
790.217 .0268639
790.925 .0268500
791.633 .0268341
792.341 .0268165
793.048 .0267981
793.755 .0267789
794.462 .0267598
795.169 .0267415
795.875 .0267242
796.581 .0267082
797.287 .0266937
797.993 .0266795
798.698 .0266658
799.403 .0266525
800.108 .0266393
800.812 .0266263
801.517 .0266142
802.221 .0266037
802.924 .0265944
803.628 .0265857
804.331 .0265779
805.034 .0265702
805.736 .0265622
806.439 .0265532
807.141 .0265431
807.843 .0265324
808.544 .0265210
809.245 .0265090
809.946 .0264961
810.647 .0264827
811.347 .0264692
812.047 .0264549
812.747 .0264400
813.447 .0264251
814.146 .0264098
814.845 .0263946
815.543 .0263805
816.242 .0263669
816.940 .0263539
817.638 .0263419
818.335 .0263309
819.032 .0263193
819.729 .0263074
820.426 .0262955
821.122 .0262829
821.818 .0262705
822.514 .0262581
823.209 .0262451
823.905 .0262321
824.599 .0262193
825.294 .0262059
825.988 .0261916
826.682 .0261769
827.376 .0261610
828.069 .0261440
828.762 .0261263
829.455 .0261078
830.147 .0260892
830.840 .0260714
831.531 .0260536
832.223 .0260357
832.914 .0260183
833.605 .0260012
834.296 .0259841
834.986 .0259678
835.676 .0259518
836.366 .0259363
837.055 .0259216
837.744 .0259076
838.433 .0258944
839.121 .0258821
839.809 .0258710
840.497 .0258611
841.185 .0258517
841.872 .0258436
842.559 .0258362
843.245 .0258301
843.932 .0258246
844.617 .0258187
845.303 .0258126
845.988 .0258061
846.673 .0257987
847.358 .0257911
848.042 .0257821
848.726 .0257728
849.410 .0257627
850.093 .0257521
850.776 .0257411
851.459 .0257299
852.141 .0257180
852.823 .0257059
853.505 .0256929
854.186 .0256793
854.867 .0256645
855.548 .0256498
856.228 .0256352
856.908 .0256208
857.588 .0256068
858.267 .0255943
858.946 .0255828
859.625 .0255739
860.303 .0255667
860.981 .0255613
861.659 .0255571
862.336 .0255539
863.013 .0255505
863.690 .0255468
864.366 .0255421
865.042 .0255360
865.718 .0255283
866.393 .0255197
867.068 .0255093
867.743 .0254974
868.417 .0254847
869.091 .0254706
869.765 .0254548
870.438 .0254380
871.111 .0254199
871.783 .0254015
872.456 .0253830
873.127 .0253649
873.799 .0253474
874.470 .0253310
875.141 .0253160
875.811 .0253021
876.481 .0252898
877.151 .0252797
877.820 .0252715
878.489 .0252654
879.158 .0252618
879.826 .0252600
880.494 .0252605
881.162 .0252623
881.829 .0252643
882.496 .0252661
883.163 .0252670
883.829 .0252667
884.495 .0252647
885.160 .0252615
885.825 .0252584
886.490 .0252551
887.154 .0252527
887.818 .0252510
888.482 .0252498
889.145 .0252487
889.808 .0252474
890.471 .0252450
891.133 .0252410
891.795 .0252350
892.456 .0252279
893.117 .0252200
893.778 .0252119
894.439 .0252041
895.099 .0251975
895.758 .0251927
896.417 .0251893
897.076 .0251859
897.735 .0251832
898.393 .0251801
899.051 .0251763
899.708 .0251710
900.365 .0251646
901.022 .0251573
901.678 .0251506
902.334 .0251449
902.990 .0251409
903.645 .0251386
904.300 .0251383
904.954 .0251393
905.608 .0251407
906.262 .0251420
906.915 .0251424
907.568 .0251416
908.221 .0251405
908.873 .0251384
909.525 .0251362
910.176 .0251347
910.828 .0251339
911.478 .0251339
912.129 .0251335
912.778 .0251321
913.428 .0251291
914.077 .0251242
914.726 .0251174
915.375 .0251084
916.023 .0250981
916.670 .0250877
917.318 .0250772
917.964 .0250674
918.611 .0250574
919.257 .0250471
919.903 .0250364
920.548 .0250246
921.193 .0250119
921.838 .0249985
922.482 .0249849
923.126 .0249727
923.770 .0249618
924.413 .0249526
925.056 .0249449
925.698 .0249387
926.340 .0249339
926.982 .0249290
927.623 .0249232
928.264 .0249164
928.904 .0249085
929.544 .0248995
930.184 .0248890
930.823 .0248779
931.462 .0248669
932.101 .0248561
932.739 .0248453
933.377 .0248344
934.014 .0248235
934.651 .0248125
935.288 .0248010
935.924 .0247894
936.560 .0247779
937.196 .0247669
937.831 .0247570
938.466 .0247480
939.100 .0247404
939.734 .0247336
940.368 .0247279
941.001 .0247229
941.634 .0247174
942.266 .0247110
942.899 .0247031
943.530 .0246937
944.162 .0246831
944.793 .0246706
945.423 .0246568
946.053 .0246423
946.683 .0246276
947.313 .0246115
947.942 .0245942
948.571 .0245757
949.199 .0245562
949.827 .0245352
950.455 .0245134
951.082 .0244912
951.709 .0244706
952.335 .0244520
952.961 .0244352
953.587 .0244208
954.212 .0244090
954.837 .0243985
955.462 .0243890
956.086 .0243801
956.710 .0243716
957.334 .0243627
957.957 .0243536
958.579 .0243445
959.202 .0243352
959.824 .0243255
960.445 .0243150
961.067 .0243045
961.688 .0242934
962.308 .0242815
962.928 .0242690
963.548 .0242567
964.168 .0242443
964.787 .0242314
965.406 .0242181
966.024 .0242046
966.642 .0241904
967.260 .0241747
967.877 .0241575
968.494 .0241399
969.110 .0241216
969.727 .0241037
970.342 .0240865
970.958 .0240717
971.573 .0240587
972.188 .0240475
972.802 .0240377
973.416 .0240289
974.030 .0240202
974.643 .0240111
975.256 .0240013
975.869 .0239907
976.481 .0239796
977.093 .0239690
977.705 .0239591
978.316 .0239506
978.927 .0239440
979.538 .0239386
980.148 .0239341
980.758 .0239300
981.367 .0239253
981.977 .0239198
982.586 .0239137
983.194 .0239065
983.802 .0238978
984.410 .0238884
985.018 .0238792
985.625 .0238704
986.232 .0238627
986.838 .0238561
987.445 .0238508
988.050 .0238462
988.656 .0238422
989.261 .0238375
989.866 .0238315
990.471 .0238242
991.075 .0238151
991.679 .0238044
992.282 .0237919
992.886 .0237796
993.489 .0237678
994.091 .0237573
994.694 .0237493
995.296 .0237436
995.897 .0237398
996.499 .0237379
997.100 .0237367
997.701 .0237354
998.301 .0237342
998.901 .0237337
999.501 .0237326
1000.101 .0237324
1000.700 .0237327
1001.299 .0237337
1001.898 .0237352
1002.496 .0237380
1003.094 .0237408
1003.692 .0237433
1004.289 .0237456
1004.887 .0237465
1005.484 .0237449
1006.080 .0237418
1006.677 .0237364
1007.273 .0237297
1007.868 .0237215
1008.464 .0237131
1009.059 .0237044
1009.654 .0236963
1010.249 .0236894
1010.843 .0236830
1011.437 .0236775
1012.031 .0236726
1012.625 .0236671
1013.218 .0236607
1013.811 .0236540
1014.404 .0236470
1014.997 .0236400
1015.589 .0236332
1016.181 .0236272
1016.773 .0236225
1017.365 .0236186
1017.956 .0236166
1018.547 .0236160
1019.138 .0236167
1019.728 .0236186
1020.319 .0236206
1020.909 .0236231
1021.499 .0236246
1022.088 .0236259
1022.678 .0236266
1023.267 .0236265
1023.856 .0236263
1024.445 .0236254
1025.033 .0236245
1025.621 .0236236
1026.209 .0236226
1026.797 .0236203
1027.385 .0236177
1027.972 .0236148
1028.560 .0236109
1029.147 .0236065
1029.734 .0236029
1030.320 .0236010
1030.907 .0236012
1031.493 .0236045
1032.079 .0236093
1032.665 .0236156
1033.250 .0236229
1033.836 .0236287
1034.421 .0236326
1035.006 .0236344
1035.591 .0236341
1036.176 .0236317
1036.761 .0236289
1037.345 .0236258
1037.929 .0236216
1038.514 .0236175
1039.097 .0236111
1039.681 .0236014
1040.265 .0235874
1040.848 .0235692
1041.432 .0235485
1042.015 .0235260
1042.598 .0235030
1043.181 .0234809
1043.764 .0234614
1044.346 .0234449
1044.929 .0234311
1045.511 .0234194
1046.094 .0234098
1046.676 .0234014
1047.258 .0233926
1047.840 .0233826
1048.422 .0233734
1049.003 .0233646
1049.585 .0233562
1050.166 .0233499
1050.748 .0233447
1051.329 .0233399
1051.910 .0233377
1052.491 .0233369
1053.072 .0233375
1053.653 .0233395
1054.234 .0233427
1054.815 .0233449
1055.396 .0233468
1055.976 .0233463
1056.557 .0233427
1057.138 .0233389
1057.718 .0233343
1058.298 .0233278
1058.879 .0233224
1059.459 .0233194
1060.039 .0233170
1060.620 .0233156
1061.200 .0233143
1061.780 .0233095
1062.360 .0233014
1062.940 .0232897
1063.520 .0232747
1064.101 .0232578
1064.681 .0232412
1065.261 .0232259
1065.841 .0232121
1066.421 .0232020
1067.001 .0231918
1067.581 .0231827
1068.161 .0231732
1068.741 .0231623
1069.321 .0231500
1069.901 .0231385
1070.482 .0231288
1071.062 .0231201
1071.642 .0231149
1072.222 .0231139
1072.803 .0231135
1073.383 .0231140
1073.963 .0231130
1074.544 .0231115
1075.124 .0231067
1075.705 .0230989
1076.286 .0230888
1076.866 .0230804
1077.447 .0230725
1078.028 .0230649
1078.609 .0230574
1079.190 .0230516
1079.771 .0230446
1080.352 .0230367
1080.934 .0230273
1081.515 .0230188
1082.097 .0230100
1082.679 .0230033
1083.260 .0229984
1083.842 .0229989
1084.424 .0230025
1085.007 .0230114
1085.589 .0230245
1086.172 .0230380
1086.754 .0230518
1087.337 .0230664
1087.920 .0230814
1088.503 .0230990
1089.087 .0231173
1089.670 .0231380
1090.254 .0231621
1090.838 .0231917
1091.422 .0232218
1092.006 .0232510
1092.590 .0232804
1093.175 .0233040
1093.760 .0233193
1094.345 .0233266
1094.930 .0233242
1095.516 .0233169
1096.102 .0233079
1096.688 .0232971
1097.274 .0232875
1097.860 .0232810
1098.447 .0232761
1099.034 .0232710
1099.622 .0232634
1100.209 .0232491
1100.797 .0232294
1101.385 .0232044
1101.973 .0231759
1102.562 .0231456
1103.151 .0231211
1103.740 .0231023
1104.330 .0230924
1104.920 .0230893
1105.510 .0230902
1106.101 .0230922
1106.691 .0230917
1107.283 .0230835
1107.874 .0230679
1108.466 .0230436
1109.058 .0230136
1109.651 .0229788
1110.244 .0229466
1110.837 .0229138
1111.431 .0228811
1112.025 .0228514
1112.620 .0228222
1113.215 .0227906
1113.810 .0227583
1114.406 .0227268
1115.002 .0226983
1115.599 .0226721
1116.196 .0226528
1116.793 .0226416
1117.391 .0226443
1117.989 .0226593
1118.588 .0226812
1119.187 .0227103
1119.787 .0227448
1120.387 .0227751
1120.988 .0228007
1121.589 .0228248
1122.190 .0228427
1122.793 .0228574
1123.395 .0228728
1123.998 .0228894
1124.602 .0229071
1125.206 .0229289
1125.811 .0229537
1126.416 .0229785
1127.022 .0230051
1127.628 .0230300
1128.235 .0230509
1128.843 .0230774
1129.451 .0231052
1130.059 .0231360
1130.669 .0231702
1131.278 .0232127
1131.889 .0232578
1132.500 .0233085
1133.112 .0233625
1133.724 .0234123
1134.337 .0234580
1134.950 .0234980
1135.564 .0235336
1136.179 .0235658
1136.795 .0235982
1137.411 .0236327
1138.028 .0236642
1138.645 .0237000
1139.263 .0237371
1139.882 .0237744
1140.502 .0238073
1141.122 .0238484
1141.743 .0239105
1142.365 .0239679
1142.987 .0239753
1143.611 .0238430
1144.235 .0242701
1144.859 .0248008
1145.485 .0242641
