Measurement Sequence started on: 10-20-44-796
Integration time: 35
Scans to Average: 2 
>>>>>Begin Spectral Data<<<<<
432.953 .0292408
433.882 .0333649
434.810 .0356782
435.737 .0362804
436.662 .0366217
437.586 .0363821
438.509 .0368168
439.431 .0370145
440.351 .0371036
441.269 .0371559
442.187 .0371735
443.103 .0371518
444.018 .0371334
444.932 .0371034
445.844 .0370391
446.756 .0369610
447.666 .0368838
448.575 .0368132
449.482 .0367632
450.388 .0367280
451.294 .0367134
452.198 .0367122
453.100 .0367083
454.002 .0366956
454.902 .0366747
455.801 .0366483
456.699 .0366116
457.596 .0365822
458.492 .0365555
459.387 .0365314
460.280 .0365176
461.172 .0365089
462.064 .0365074
462.954 .0365022
463.843 .0364937
464.730 .0364816
465.617 .0364610
466.503 .0364333
467.387 .0363982
468.271 .0363590
469.153 .0363209
470.035 .0362777
470.915 .0362327
471.794 .0361860
472.673 .0361376
473.550 .0360920
474.426 .0360520
475.301 .0360174
476.175 .0359890
477.048 .0359636
477.920 .0359449
478.791 .0359281
479.661 .0359139
480.530 .0359020
481.398 .0358895
482.266 .0358800
483.132 .0358712
483.997 .0358617
484.861 .0358531
485.724 .0358459
486.587 .0358432
487.448 .0358409
488.308 .0358364
489.168 .0358280
490.026 .0358162
490.884 .0358000
491.741 .0357752
492.597 .0357441
493.452 .0357065
494.306 .0356644
495.159 .0356172
496.011 .0355673
496.862 .0355144
497.713 .0354610
498.562 .0354041
499.411 .0353455
500.259 .0352816
501.106 .0352095
501.952 .0351303
502.798 .0350458
503.642 .0349554
504.486 .0348570
505.329 .0347518
506.171 .0346445
507.012 .0345344
507.852 .0344261
508.692 .0343162
509.531 .0342110
510.369 .0341103
511.206 .0340137
512.043 .0339186
512.878 .0338228
513.713 .0337234
514.547 .0336206
515.381 .0335136
516.213 .0334001
517.045 .0332791
517.876 .0331529
518.706 .0330216
519.536 .0328855
520.365 .0327427
521.193 .0325899
522.020 .0324284
522.847 .0322576
523.673 .0320724
524.498 .0318713
525.323 .0316596
526.146 .0314430
526.969 .0312305
527.792 .0310276
528.614 .0308368
529.435 .0306657
530.255 .0305198
531.075 .0303901
531.894 .0302791
532.712 .0301837
533.530 .0301007
534.347 .0300218
535.163 .0299472
535.979 .0298775
536.794 .0298128
537.608 .0297572
538.422 .0297157
539.235 .0296857
540.048 .0296655
540.860 .0296528
541.671 .0296456
542.481 .0296445
543.292 .0296450
544.101 .0296454
544.910 .0296496
545.718 .0296598
546.526 .0296784
547.333 .0297069
548.139 .0297481
548.945 .0298005
549.750 .0298553
550.555 .0299091
551.359 .0299592
552.162 .0300005
552.965 .0300303
553.768 .0300522
554.569 .0300710
555.371 .0300851
556.171 .0300952
556.972 .0301090
557.771 .0301238
558.570 .0301377
559.369 .0301517
560.167 .0301646
560.964 .0301757
561.761 .0301858
562.558 .0301954
563.354 .0302088
564.149 .0302319
564.944 .0302616
565.738 .0303020
566.532 .0303566
567.325 .0304218
568.118 .0304926
568.910 .0305647
569.702 .0306397
570.494 .0307111
571.285 .0307762
572.075 .0308365
572.865 .0308904
573.654 .0309407
574.443 .0309869
575.232 .0310308
576.020 .0310740
576.807 .0311179
577.594 .0311620
578.381 .0312060
579.167 .0312484
579.952 .0312893
580.738 .0313294
581.522 .0313700
582.307 .0314132
583.091 .0314572
583.874 .0315038
584.657 .0315530
585.440 .0316029
586.222 .0316528
587.004 .0317006
587.785 .0317468
588.566 .0317890
589.346 .0318259
590.126 .0318574
590.906 .0318827
591.685 .0319034
592.464 .0319192
593.242 .0319302
594.020 .0319360
594.797 .0319373
595.575 .0319344
596.351 .0319294
597.128 .0319231
597.904 .0319146
598.679 .0319058
599.454 .0318960
600.229 .0318858
601.004 .0318752
601.778 .0318656
602.551 .0318569
603.325 .0318488
604.097 .0318416
604.870 .0318347
605.642 .0318277
606.414 .0318214
607.185 .0318144
607.956 .0318079
608.727 .0318002
609.497 .0317910
610.267 .0317789
611.037 .0317647
611.806 .0317481
612.575 .0317286
613.344 .0317058
614.112 .0316805
614.880 .0316518
615.647 .0316208
616.414 .0315874
617.181 .0315523
617.948 .0315157
618.714 .0314785
619.480 .0314409
620.245 .0314027
621.011 .0313646
621.775 .0313269
622.540 .0312899
623.304 .0312545
624.068 .0312209
624.832 .0311884
625.595 .0311588
626.358 .0311309
627.120 .0311043
627.883 .0310786
628.645 .0310540
629.406 .0310305
630.168 .0310075
630.929 .0309852
631.689 .0309637
632.450 .0309425
633.210 .0309230
633.970 .0309035
634.729 .0308844
635.489 .0308645
636.248 .0308428
637.006 .0308188
637.765 .0307927
638.523 .0307640
639.280 .0307341
640.038 .0307035
640.795 .0306739
641.552 .0306453
642.309 .0306188
643.065 .0305940
643.821 .0305703
644.577 .0305473
645.332 .0305245
646.088 .0305012
646.843 .0304779
647.597 .0304545
648.352 .0304325
649.106 .0304123
649.860 .0303940
650.613 .0303778
651.367 .0303642
652.120 .0303522
652.872 .0303415
653.625 .0303310
654.377 .0303204
655.129 .0303095
655.881 .0302991
656.632 .0302889
657.384 .0302798
658.135 .0302719
658.885 .0302651
659.636 .0302591
660.386 .0302533
661.136 .0302463
661.885 .0302380
662.635 .0302285
663.384 .0302174
664.133 .0302047
664.881 .0301914
665.630 .0301776
666.378 .0301641
667.126 .0301504
667.874 .0301363
668.621 .0301211
669.368 .0301055
670.115 .0300886
670.862 .0300709
671.608 .0300529
672.354 .0300355
673.100 .0300189
673.846 .0300041
674.591 .0299905
675.337 .0299783
676.082 .0299675
676.826 .0299576
677.571 .0299482
678.315 .0299388
679.059 .0299289
679.803 .0299189
680.547 .0299085
681.290 .0298981
682.033 .0298867
682.776 .0298751
683.518 .0298624
684.261 .0298484
685.003 .0298327
685.745 .0298154
686.487 .0297969
687.228 .0297776
687.969 .0297576
688.710 .0297371
689.451 .0297166
690.192 .0296961
690.932 .0296751
691.672 .0296539
692.412 .0296318
693.152 .0296088
693.891 .0295842
694.630 .0295587
695.369 .0295319
696.108 .0295045
696.846 .0294765
697.585 .0294483
698.323 .0294201
699.061 .0293921
699.798 .0293645
700.536 .0293377
701.273 .0293114
702.010 .0292856
702.746 .0292599
703.483 .0292351
704.219 .0292106
704.955 .0291872
705.691 .0291641
706.427 .0291422
707.162 .0291206
707.897 .0290998
708.632 .0290794
709.367 .0290594
710.101 .0290397
710.835 .0290200
711.569 .0290000
712.303 .0289794
713.037 .0289578
713.770 .0289355
714.503 .0289119
715.236 .0288877
715.969 .0288628
716.702 .0288380
717.434 .0288139
718.166 .0287906
718.898 .0287682
719.629 .0287470
720.361 .0287264
721.092 .0287066
721.823 .0286867
722.554 .0286666
723.284 .0286466
724.014 .0286261
724.744 .0286057
725.474 .0285853
726.204 .0285649
726.933 .0285447
727.662 .0285239
728.391 .0285028
729.120 .0284810
729.849 .0284588
730.577 .0284364
731.305 .0284134
732.033 .0283907
732.760 .0283682
733.488 .0283462
734.215 .0283249
734.942 .0283042
735.669 .0282840
736.395 .0282646
737.122 .0282454
737.848 .0282266
738.573 .0282085
739.299 .0281911
740.024 .0281746
740.750 .0281584
741.474 .0281427
742.199 .0281270
742.924 .0281114
743.648 .0280959
744.372 .0280798
745.096 .0280641
745.819 .0280479
746.543 .0280315
747.266 .0280160
747.989 .0280016
748.711 .0279882
749.434 .0279764
750.156 .0279664
750.878 .0279580
751.599 .0279512
752.321 .0279457
753.042 .0279413
753.763 .0279379
754.484 .0279350
755.205 .0279324
755.925 .0279302
756.645 .0279287
757.365 .0279275
758.085 .0279267
758.804 .0279259
759.523 .0279239
760.242 .0279205
760.961 .0279151
761.679 .0279075
762.397 .0278969
763.115 .0278838
763.833 .0278685
764.551 .0278516
765.268 .0278337
765.985 .0278151
766.702 .0277963
767.418 .0277780
768.134 .0277595
768.850 .0277408
769.566 .0277219
770.282 .0277032
770.997 .0276846
771.712 .0276667
772.427 .0276493
773.142 .0276326
773.856 .0276164
774.570 .0276009
775.284 .0275855
775.998 .0275704
776.711 .0275552
777.424 .0275402
778.137 .0275257
778.849 .0275117
779.562 .0274984
780.274 .0274866
780.986 .0274766
781.697 .0274674
782.409 .0274587
783.120 .0274509
783.831 .0274436
784.541 .0274368
785.252 .0274310
785.962 .0274262
786.671 .0274226
787.381 .0274200
788.090 .0274184
788.799 .0274175
789.508 .0274168
790.217 .0274154
790.925 .0274129
791.633 .0274091
792.341 .0274038
793.048 .0273968
793.755 .0273891
794.462 .0273808
795.169 .0273720
795.875 .0273628
796.581 .0273533
797.287 .0273436
797.993 .0273338
798.698 .0273238
799.403 .0273141
800.108 .0273043
800.812 .0272945
801.517 .0272844
802.221 .0272737
802.924 .0272621
803.628 .0272497
804.331 .0272365
805.034 .0272232
805.736 .0272095
806.439 .0271959
807.141 .0271831
807.843 .0271713
808.544 .0271599
809.245 .0271485
809.946 .0271371
810.647 .0271248
811.347 .0271121
812.047 .0270990
812.747 .0270860
813.447 .0270735
814.146 .0270620
814.845 .0270517
815.543 .0270419
816.242 .0270327
816.940 .0270232
817.638 .0270129
818.335 .0270019
819.032 .0269888
819.729 .0269743
820.426 .0269587
821.122 .0269422
821.818 .0269245
822.514 .0269064
823.209 .0268875
823.905 .0268680
824.599 .0268476
825.294 .0268262
825.988 .0268041
826.682 .0267818
827.376 .0267594
828.069 .0267370
828.762 .0267152
829.455 .0266943
830.147 .0266737
830.840 .0266541
831.531 .0266347
832.223 .0266154
832.914 .0265962
833.605 .0265768
834.296 .0265574
834.986 .0265380
835.676 .0265185
836.366 .0264994
837.055 .0264805
837.744 .0264619
838.433 .0264429
839.121 .0264244
839.809 .0264058
840.497 .0263876
841.185 .0263696
841.872 .0263519
842.559 .0263350
843.245 .0263192
843.932 .0263039
844.617 .0262888
845.303 .0262747
845.988 .0262616
846.673 .0262489
847.358 .0262369
848.042 .0262256
848.726 .0262149
849.410 .0262047
850.093 .0261946
850.776 .0261843
851.459 .0261732
852.141 .0261610
852.823 .0261472
853.505 .0261319
854.186 .0261155
854.867 .0260983
855.548 .0260807
856.228 .0260635
856.908 .0260464
857.588 .0260296
858.267 .0260130
858.946 .0259968
859.625 .0259802
860.303 .0259635
860.981 .0259467
861.659 .0259299
862.336 .0259130
863.013 .0258968
863.690 .0258809
864.366 .0258655
865.042 .0258505
865.718 .0258353
866.393 .0258198
867.068 .0258044
867.743 .0257886
868.417 .0257729
869.091 .0257572
869.765 .0257417
870.438 .0257261
871.111 .0257107
871.783 .0256955
872.456 .0256796
873.127 .0256637
873.799 .0256475
874.470 .0256309
875.141 .0256145
875.811 .0255980
876.481 .0255819
877.151 .0255665
877.820 .0255515
878.489 .0255367
879.158 .0255223
879.826 .0255081
880.494 .0254941
881.162 .0254798
881.829 .0254655
882.496 .0254507
883.163 .0254356
883.829 .0254207
884.495 .0254061
885.160 .0253926
885.825 .0253806
886.490 .0253703
887.154 .0253624
887.818 .0253562
888.482 .0253516
889.145 .0253475
889.808 .0253440
890.471 .0253402
891.133 .0253358
891.795 .0253308
892.456 .0253260
893.117 .0253213
893.778 .0253173
894.439 .0253140
895.099 .0253115
895.758 .0253092
896.417 .0253067
897.076 .0253034
897.735 .0252994
898.393 .0252941
899.051 .0252886
899.708 .0252828
900.365 .0252780
901.022 .0252738
901.678 .0252707
902.334 .0252686
902.990 .0252669
903.645 .0252648
904.300 .0252625
904.954 .0252597
905.608 .0252563
906.262 .0252522
906.915 .0252486
907.568 .0252453
908.221 .0252430
908.873 .0252409
909.525 .0252394
910.176 .0252378
910.828 .0252361
911.478 .0252336
912.129 .0252302
912.778 .0252263
913.428 .0252219
914.077 .0252168
914.726 .0252121
915.375 .0252077
916.023 .0252044
916.670 .0252023
917.318 .0252015
917.964 .0252017
918.611 .0252023
919.257 .0252033
919.903 .0252040
920.548 .0252044
921.193 .0252043
921.838 .0252041
922.482 .0252043
923.126 .0252048
923.770 .0252063
924.413 .0252084
925.056 .0252116
925.698 .0252150
926.340 .0252180
926.982 .0252198
927.623 .0252200
928.264 .0252190
928.904 .0252162
929.544 .0252125
930.184 .0252079
930.823 .0252032
931.462 .0251985
932.101 .0251933
932.739 .0251877
933.377 .0251810
934.014 .0251731
934.651 .0251636
935.288 .0251523
935.924 .0251401
936.560 .0251277
937.196 .0251160
937.831 .0251049
938.466 .0250944
939.100 .0250845
939.734 .0250750
940.368 .0250655
941.001 .0250556
941.634 .0250451
942.266 .0250347
942.899 .0250238
943.530 .0250127
944.162 .0250014
944.793 .0249903
945.423 .0249793
946.053 .0249680
946.683 .0249563
947.313 .0249442
947.942 .0249316
948.571 .0249185
949.199 .0249047
949.827 .0248904
950.455 .0248752
951.082 .0248595
951.709 .0248430
952.335 .0248264
952.961 .0248092
953.587 .0247926
954.212 .0247759
954.837 .0247599
955.462 .0247445
956.086 .0247301
956.710 .0247174
957.334 .0247060
957.957 .0246960
958.579 .0246873
959.202 .0246797
959.824 .0246733
960.445 .0246675
961.067 .0246625
961.688 .0246579
962.308 .0246540
962.928 .0246502
963.548 .0246466
964.168 .0246434
964.787 .0246408
965.406 .0246384
966.024 .0246363
966.642 .0246340
967.260 .0246310
967.877 .0246275
968.494 .0246231
969.110 .0246171
969.727 .0246097
970.342 .0246011
970.958 .0245924
971.573 .0245835
972.188 .0245751
972.802 .0245670
973.416 .0245594
974.030 .0245521
974.643 .0245440
975.256 .0245352
975.869 .0245256
976.481 .0245151
977.093 .0245039
977.705 .0244922
978.316 .0244809
978.927 .0244700
979.538 .0244598
980.148 .0244501
980.758 .0244406
981.367 .0244313
981.977 .0244221
982.586 .0244129
983.194 .0244040
983.802 .0243954
984.410 .0243869
985.018 .0243789
985.625 .0243711
986.232 .0243639
986.838 .0243570
987.445 .0243506
988.050 .0243447
988.656 .0243389
989.261 .0243331
989.866 .0243269
990.471 .0243205
991.075 .0243137
991.679 .0243059
992.282 .0242976
992.886 .0242882
993.489 .0242787
994.091 .0242687
994.694 .0242585
995.296 .0242484
995.897 .0242382
996.499 .0242279
997.100 .0242171
997.701 .0242067
998.301 .0241965
998.901 .0241867
999.501 .0241779
1000.101 .0241701
1000.700 .0241640
1001.299 .0241586
1001.898 .0241542
1002.496 .0241500
1003.094 .0241462
1003.692 .0241425
1004.289 .0241387
1004.887 .0241355
1005.484 .0241326
1006.080 .0241303
1006.677 .0241281
1007.273 .0241260
1007.868 .0241235
1008.464 .0241206
1009.059 .0241169
1009.654 .0241116
1010.249 .0241054
1010.843 .0240982
1011.437 .0240903
1012.031 .0240819
1012.625 .0240730
1013.218 .0240637
1013.811 .0240535
1014.404 .0240429
1014.997 .0240320
1015.589 .0240206
1016.181 .0240097
1016.773 .0239991
1017.365 .0239892
1017.956 .0239794
1018.547 .0239697
1019.138 .0239596
1019.728 .0239499
1020.319 .0239404
1020.909 .0239306
1021.499 .0239209
1022.088 .0239124
1022.678 .0239042
1023.267 .0238968
1023.856 .0238903
1024.445 .0238850
1025.033 .0238794
1025.621 .0238743
1026.209 .0238685
1026.797 .0238624
1027.385 .0238558
1027.972 .0238494
1028.560 .0238428
1029.147 .0238371
1029.734 .0238320
1030.320 .0238270
1030.907 .0238223
1031.493 .0238180
1032.079 .0238132
1032.665 .0238083
1033.250 .0238034
1033.836 .0237983
1034.421 .0237924
1035.006 .0237867
1035.591 .0237810
1036.176 .0237749
1036.761 .0237681
1037.345 .0237608
1037.929 .0237518
1038.514 .0237409
1039.097 .0237290
1039.681 .0237164
1040.265 .0237040
1040.848 .0236926
1041.432 .0236825
1042.015 .0236735
1042.598 .0236656
1043.181 .0236588
1043.764 .0236515
1044.346 .0236441
1044.929 .0236355
1045.511 .0236252
1046.094 .0236141
1046.676 .0236030
1047.258 .0235920
1047.840 .0235828
1048.422 .0235756
1049.003 .0235693
1049.585 .0235633
1050.166 .0235563
1050.748 .0235486
1051.329 .0235395
1051.910 .0235291
1052.491 .0235186
1053.072 .0235082
1053.653 .0234994
1054.234 .0234920
1054.815 .0234868
1055.396 .0234826
1055.976 .0234787
1056.557 .0234744
1057.138 .0234685
1057.718 .0234614
1058.298 .0234538
1058.879 .0234465
1059.459 .0234406
1060.039 .0234362
1060.620 .0234320
1061.200 .0234283
1061.780 .0234246
1062.360 .0234189
1062.940 .0234122
1063.520 .0234038
1064.101 .0233936
1064.681 .0233822
1065.261 .0233714
1065.841 .0233604
1066.421 .0233505
1067.001 .0233416
1067.581 .0233336
1068.161 .0233262
1068.741 .0233194
1069.321 .0233124
1069.901 .0233071
1070.482 .0233042
1071.062 .0233007
1071.642 .0232980
1072.222 .0232961
1072.803 .0232935
1073.383 .0232917
1073.963 .0232899
1074.544 .0232890
1075.124 .0232890
1075.705 .0232904
1076.286 .0232924
1076.866 .0232954
1077.447 .0232983
1078.028 .0232983
1078.609 .0232953
1079.190 .0232885
1079.771 .0232772
1080.352 .0232619
1080.934 .0232453
1081.515 .0232274
1082.097 .0232104
1082.679 .0231942
1083.260 .0231778
1083.842 .0231628
1084.424 .0231467
1085.007 .0231308
1085.589 .0231140
1086.172 .0230972
1086.754 .0230811
1087.337 .0230665
1087.920 .0230551
1088.503 .0230469
1089.087 .0230419
1089.670 .0230399
1090.254 .0230391
1090.838 .0230394
1091.422 .0230395
1092.006 .0230395
1092.590 .0230396
1093.175 .0230409
1093.760 .0230430
1094.345 .0230480
1094.930 .0230542
1095.516 .0230635
1096.102 .0230744
1096.688 .0230866
1097.274 .0230985
1097.860 .0231095
1098.447 .0231201
1099.034 .0231285
1099.622 .0231355
1100.209 .0231420
1100.797 .0231488
1101.385 .0231568
1101.973 .0231651
1102.562 .0231734
1103.151 .0231795
1103.740 .0231836
1104.330 .0231844
1104.920 .0231828
1105.510 .0231780
1106.101 .0231729
1106.691 .0231664
1107.283 .0231618
1107.874 .0231587
1108.466 .0231547
1109.058 .0231533
1109.651 .0231534
1110.244 .0231530
1110.837 .0231510
1111.431 .0231487
1112.025 .0231471
1112.620 .0231468
1113.215 .0231511
1113.810 .0231571
1114.406 .0231686
1115.002 .0231848
1115.599 .0232039
1116.196 .0232227
1116.793 .0232442
1117.391 .0232661
1117.989 .0232864
1118.588 .0233086
1119.187 .0233297
1119.787 .0233489
1120.387 .0233680
1120.988 .0233866
1121.589 .0234029
1122.190 .0234144
1122.793 .0234207
1123.395 .0234195
1123.998 .0234141
1124.602 .0234036
1125.206 .0233857
1125.811 .0233662
1126.416 .0233493
1127.022 .0233358
1127.628 .0233257
1128.235 .0233230
1128.843 .0233291
1129.451 .0233465
1130.059 .0233736
1130.669 .0234129
1131.278 .0234636
1131.889 .0235235
1132.500 .0235908
1133.112 .0236647
1133.724 .0237426
1134.337 .0238241
1134.950 .0239059
1135.564 .0239901
1136.179 .0240717
1136.795 .0241524
1137.411 .0242291
1138.028 .0243030
1138.645 .0243758
1139.263 .0244406
1139.882 .0244916
1140.502 .0245385
1141.122 .0245815
1141.743 .0246229
1142.365 .0246923
1142.987 .0245371
1143.611 .0247336
1144.235 .0248423
1144.859 .0249141
1145.485 .0257641
