Measurement Sequence started on: 10-20-44-796
Integration time: 35
Scans to Average: 2 
>>>>>Begin Spectral Data<<<<<
432.953 .0576792
433.882 .0493797
434.810 .0407130
435.737 .0363823
436.662 .0360160
437.586 .0379497
438.509 .0366070
439.431 .0358497
440.351 .0354841
441.269 .0352693
442.187 .0350803
443.103 .0349291
444.018 .0348323
444.932 .0347860
445.844 .0347636
446.756 .0347610
447.666 .0347601
448.575 .0347383
449.482 .0346852
450.388 .0346022
451.294 .0345087
452.198 .0344189
453.100 .0343413
454.002 .0342949
454.902 .0342742
455.801 .0342722
456.699 .0342854
457.596 .0343016
458.492 .0343098
459.387 .0343058
460.280 .0342960
461.172 .0342722
462.064 .0342377
462.954 .0341946
463.843 .0341510
464.730 .0341071
465.617 .0340660
466.503 .0340238
467.387 .0339744
468.271 .0339200
469.153 .0338594
470.035 .0337886
470.915 .0337205
471.794 .0336563
472.673 .0336001
473.550 .0335554
474.426 .0335234
475.301 .0334962
476.175 .0334773
477.048 .0334669
477.920 .0334600
478.791 .0334513
479.661 .0334460
480.530 .0334393
481.398 .0334339
482.266 .0334315
483.132 .0334316
483.997 .0334301
484.861 .0334320
485.724 .0334314
486.587 .0334283
487.448 .0334229
488.308 .0334157
489.168 .0334040
490.026 .0333895
490.884 .0333699
491.741 .0333435
492.597 .0333116
493.452 .0332794
494.306 .0332446
495.159 .0332095
496.011 .0331764
496.862 .0331468
497.713 .0331177
498.562 .0330884
499.411 .0330533
500.259 .0330105
501.106 .0329571
501.952 .0328927
502.798 .0328155
503.642 .0327303
504.486 .0326395
505.329 .0325430
506.171 .0324470
507.012 .0323527
507.852 .0322584
508.692 .0321654
509.531 .0320714
510.369 .0319719
511.206 .0318676
512.043 .0317564
512.878 .0316388
513.713 .0315196
514.547 .0313977
515.381 .0312742
516.213 .0311490
517.045 .0310241
517.876 .0308996
518.706 .0307804
519.536 .0306672
520.365 .0305496
521.193 .0304302
522.020 .0303057
522.847 .0301652
523.673 .0300132
524.498 .0298450
525.323 .0296610
526.146 .0294720
526.969 .0292823
527.792 .0290970
528.614 .0289261
529.435 .0287777
530.255 .0286491
531.075 .0285337
531.894 .0284277
532.712 .0283213
533.530 .0282086
534.347 .0280939
535.163 .0279689
535.979 .0278432
536.794 .0277271
537.608 .0276246
538.422 .0275459
539.235 .0274923
540.048 .0274584
540.860 .0274412
541.671 .0274349
542.481 .0274326
543.292 .0274226
544.101 .0274035
544.910 .0273774
545.718 .0273475
546.526 .0273226
547.333 .0273020
548.139 .0272913
548.945 .0272963
549.750 .0273141
550.555 .0273410
551.359 .0273736
552.162 .0274133
552.965 .0274559
553.768 .0274998
554.569 .0275460
555.371 .0275942
556.171 .0276513
556.972 .0277202
557.771 .0278025
558.570 .0278985
559.369 .0280068
560.167 .0281263
560.964 .0282530
561.761 .0283847
562.558 .0285155
563.354 .0286420
564.149 .0287618
564.944 .0288737
565.738 .0289769
566.532 .0290725
567.325 .0291627
568.118 .0292502
568.910 .0293348
569.702 .0294150
570.494 .0294920
571.285 .0295658
572.075 .0296378
572.865 .0297073
573.654 .0297731
574.443 .0298374
575.232 .0299022
576.020 .0299685
576.807 .0300367
577.594 .0301101
578.381 .0301877
579.167 .0302657
579.952 .0303430
580.738 .0304183
581.522 .0304896
582.307 .0305568
583.091 .0306192
583.874 .0306747
584.657 .0307254
585.440 .0307720
586.222 .0308154
587.004 .0308557
587.785 .0308941
588.566 .0309300
589.346 .0309624
590.126 .0309905
590.906 .0310117
591.685 .0310266
592.464 .0310359
593.242 .0310386
594.020 .0310360
594.797 .0310286
595.575 .0310185
596.351 .0310072
597.128 .0309952
597.904 .0309828
598.679 .0309704
599.454 .0309579
600.229 .0309453
601.004 .0309324
601.778 .0309189
602.551 .0309044
603.325 .0308896
604.097 .0308753
604.870 .0308600
605.642 .0308455
606.414 .0308316
607.185 .0308175
607.956 .0308039
608.727 .0307915
609.497 .0307800
610.267 .0307704
611.037 .0307622
611.806 .0307552
612.575 .0307492
613.344 .0307437
614.112 .0307375
614.880 .0307309
615.647 .0307234
616.414 .0307147
617.181 .0307050
617.948 .0306957
618.714 .0306867
619.480 .0306790
620.245 .0306725
621.011 .0306671
621.775 .0306616
622.540 .0306558
623.304 .0306490
624.068 .0306415
624.832 .0306323
625.595 .0306209
626.358 .0306079
627.120 .0305944
627.883 .0305796
628.645 .0305651
629.406 .0305511
630.168 .0305384
630.929 .0305266
631.689 .0305152
632.450 .0305039
633.210 .0304924
633.970 .0304796
634.729 .0304646
635.489 .0304457
636.248 .0304239
637.006 .0303985
637.765 .0303707
638.523 .0303415
639.280 .0303125
640.038 .0302848
640.795 .0302591
641.552 .0302354
642.309 .0302140
643.065 .0301938
643.821 .0301746
644.577 .0301551
645.332 .0301355
646.088 .0301156
646.843 .0300957
647.597 .0300764
648.352 .0300583
649.106 .0300415
649.860 .0300256
650.613 .0300107
651.367 .0299967
652.120 .0299824
652.872 .0299674
653.625 .0299515
654.377 .0299348
655.129 .0299169
655.881 .0298978
656.632 .0298777
657.384 .0298572
658.135 .0298364
658.885 .0298154
659.636 .0297947
660.386 .0297748
661.136 .0297560
661.885 .0297377
662.635 .0297210
663.384 .0297053
664.133 .0296901
664.881 .0296757
665.630 .0296611
666.378 .0296464
667.126 .0296307
667.874 .0296144
668.621 .0295975
669.368 .0295803
670.115 .0295628
670.862 .0295447
671.608 .0295278
672.354 .0295118
673.100 .0294959
673.846 .0294808
674.591 .0294668
675.337 .0294538
676.082 .0294415
676.826 .0294301
677.571 .0294195
678.315 .0294102
679.059 .0294020
679.803 .0293942
680.547 .0293867
681.290 .0293790
682.033 .0293702
682.776 .0293601
683.518 .0293489
684.261 .0293361
685.003 .0293226
685.745 .0293086
686.487 .0292948
687.228 .0292809
687.969 .0292669
688.710 .0292526
689.451 .0292380
690.192 .0292217
690.932 .0292032
691.672 .0291829
692.412 .0291615
693.152 .0291392
693.891 .0291175
694.630 .0290964
695.369 .0290766
696.108 .0290588
696.846 .0290418
697.585 .0290253
698.323 .0290097
699.061 .0289943
699.798 .0289795
700.536 .0289649
701.273 .0289507
702.010 .0289372
702.746 .0289251
703.483 .0289142
704.219 .0289037
704.955 .0288937
705.691 .0288839
706.427 .0288736
707.162 .0288635
707.897 .0288533
708.632 .0288433
709.367 .0288342
710.101 .0288255
710.835 .0288170
711.569 .0288081
712.303 .0287985
713.037 .0287876
713.770 .0287753
714.503 .0287614
715.236 .0287459
715.969 .0287290
716.702 .0287121
717.434 .0286952
718.166 .0286786
718.898 .0286622
719.629 .0286466
720.361 .0286312
721.092 .0286152
721.823 .0285985
722.554 .0285807
723.284 .0285620
724.014 .0285425
724.744 .0285216
725.474 .0284999
726.204 .0284783
726.933 .0284566
727.662 .0284347
728.391 .0284136
729.120 .0283929
729.849 .0283730
730.577 .0283538
731.305 .0283351
732.033 .0283160
732.760 .0282968
733.488 .0282776
734.215 .0282574
734.942 .0282369
735.669 .0282158
736.395 .0281942
737.122 .0281732
737.848 .0281524
738.573 .0281318
739.299 .0281116
740.024 .0280919
740.750 .0280718
741.474 .0280512
742.199 .0280294
742.924 .0280069
743.648 .0279835
744.372 .0279595
745.096 .0279354
745.819 .0279114
746.543 .0278883
747.266 .0278663
747.989 .0278460
748.711 .0278272
749.434 .0278097
750.156 .0277941
750.878 .0277797
751.599 .0277666
752.321 .0277547
753.042 .0277438
753.763 .0277342
754.484 .0277258
755.205 .0277183
755.925 .0277110
756.645 .0277038
757.365 .0276959
758.085 .0276867
758.804 .0276756
759.523 .0276623
760.242 .0276465
760.961 .0276284
761.679 .0276082
762.397 .0275862
763.115 .0275626
763.833 .0275380
764.551 .0275126
765.268 .0274868
765.985 .0274601
766.702 .0274332
767.418 .0274058
768.134 .0273782
768.850 .0273512
769.566 .0273243
770.282 .0272980
770.997 .0272727
771.712 .0272487
772.427 .0272255
773.142 .0272038
773.856 .0271829
774.570 .0271625
775.284 .0271423
775.998 .0271221
776.711 .0271019
777.424 .0270819
778.137 .0270623
778.849 .0270431
779.562 .0270244
780.274 .0270072
780.986 .0269902
781.697 .0269744
782.409 .0269597
783.120 .0269460
783.831 .0269332
784.541 .0269215
785.252 .0269103
785.962 .0268997
786.671 .0268895
787.381 .0268792
788.090 .0268682
788.799 .0268561
789.508 .0268427
790.217 .0268278
790.925 .0268112
791.633 .0267932
792.341 .0267738
793.048 .0267539
793.755 .0267333
794.462 .0267123
795.169 .0266917
795.875 .0266718
796.581 .0266530
797.287 .0266354
797.993 .0266192
798.698 .0266049
799.403 .0265923
800.108 .0265819
800.812 .0265734
801.517 .0265667
802.221 .0265615
802.924 .0265572
803.628 .0265538
804.331 .0265510
805.034 .0265482
805.736 .0265452
806.439 .0265418
807.141 .0265377
807.843 .0265328
808.544 .0265269
809.245 .0265194
809.946 .0265106
810.647 .0265004
811.347 .0264894
812.047 .0264774
812.747 .0264654
813.447 .0264537
814.146 .0264427
814.845 .0264334
815.543 .0264255
816.242 .0264189
816.940 .0264139
817.638 .0264099
818.335 .0264068
819.032 .0264035
819.729 .0264005
820.426 .0263972
821.122 .0263937
821.818 .0263896
822.514 .0263849
823.209 .0263796
823.905 .0263738
824.599 .0263670
825.294 .0263592
825.988 .0263501
826.682 .0263402
827.376 .0263295
828.069 .0263185
828.762 .0263072
829.455 .0262960
830.147 .0262850
830.840 .0262746
831.531 .0262638
832.223 .0262530
832.914 .0262415
833.605 .0262295
834.296 .0262171
834.986 .0262043
835.676 .0261914
836.366 .0261788
837.055 .0261668
837.744 .0261555
838.433 .0261440
839.121 .0261326
839.809 .0261210
840.497 .0261093
841.185 .0260975
841.872 .0260859
842.559 .0260747
843.245 .0260647
843.932 .0260559
844.617 .0260483
845.303 .0260419
845.988 .0260367
846.673 .0260318
847.358 .0260270
848.042 .0260225
848.726 .0260182
849.410 .0260139
850.093 .0260097
850.776 .0260050
851.459 .0259997
852.141 .0259932
852.823 .0259854
853.505 .0259766
854.186 .0259664
854.867 .0259547
855.548 .0259422
856.228 .0259295
856.908 .0259167
857.588 .0259040
858.267 .0258917
858.946 .0258793
859.625 .0258664
860.303 .0258522
860.981 .0258369
861.659 .0258209
862.336 .0258044
863.013 .0257875
863.690 .0257709
864.366 .0257549
865.042 .0257392
865.718 .0257242
866.393 .0257097
867.068 .0256951
867.743 .0256805
868.417 .0256652
869.091 .0256490
869.765 .0256322
870.438 .0256149
871.111 .0255976
871.783 .0255805
872.456 .0255632
873.127 .0255455
873.799 .0255280
874.470 .0255100
875.141 .0254920
875.811 .0254741
876.481 .0254565
877.151 .0254392
877.820 .0254224
878.489 .0254063
879.158 .0253910
879.826 .0253765
880.494 .0253627
881.162 .0253487
881.829 .0253350
882.496 .0253205
883.163 .0253050
883.829 .0252892
884.495 .0252731
885.160 .0252567
885.825 .0252405
886.490 .0252243
887.154 .0252085
887.818 .0251924
888.482 .0251762
889.145 .0251594
889.808 .0251420
890.471 .0251233
891.133 .0251039
891.795 .0250836
892.456 .0250630
893.117 .0250426
893.778 .0250228
894.439 .0250041
895.099 .0249862
895.758 .0249691
896.417 .0249526
897.076 .0249369
897.735 .0249216
898.393 .0249061
899.051 .0248912
899.708 .0248762
900.365 .0248614
901.022 .0248469
901.678 .0248331
902.334 .0248202
902.990 .0248079
903.645 .0247964
904.300 .0247853
904.954 .0247747
905.608 .0247644
906.262 .0247540
906.915 .0247442
907.568 .0247341
908.221 .0247239
908.873 .0247134
909.525 .0247027
910.176 .0246915
910.828 .0246794
911.478 .0246671
912.129 .0246541
912.778 .0246408
913.428 .0246271
914.077 .0246130
914.726 .0245988
915.375 .0245839
916.023 .0245685
916.670 .0245527
917.318 .0245364
917.964 .0245193
918.611 .0245016
919.257 .0244831
919.903 .0244640
920.548 .0244448
921.193 .0244252
921.838 .0244055
922.482 .0243859
923.126 .0243670
923.770 .0243486
924.413 .0243312
925.056 .0243149
925.698 .0242996
926.340 .0242854
926.982 .0242716
927.623 .0242578
928.264 .0242444
928.904 .0242309
929.544 .0242175
930.184 .0242041
930.823 .0241913
931.462 .0241790
932.101 .0241680
932.739 .0241583
933.377 .0241493
934.014 .0241403
934.651 .0241316
935.288 .0241220
935.924 .0241119
936.560 .0241008
937.196 .0240893
937.831 .0240778
938.466 .0240664
939.100 .0240552
939.734 .0240443
940.368 .0240340
941.001 .0240242
941.634 .0240139
942.266 .0240035
942.899 .0239920
943.530 .0239797
944.162 .0239666
944.793 .0239526
945.423 .0239374
946.053 .0239214
946.683 .0239044
947.313 .0238874
947.942 .0238700
948.571 .0238517
949.199 .0238331
949.827 .0238140
950.455 .0237941
951.082 .0237736
951.709 .0237529
952.335 .0237327
952.961 .0237126
953.587 .0236934
954.212 .0236747
954.837 .0236570
955.462 .0236408
956.086 .0236255
956.710 .0236115
957.334 .0235991
957.957 .0235875
958.579 .0235772
959.202 .0235684
959.824 .0235611
960.445 .0235551
961.067 .0235504
961.688 .0235468
962.308 .0235442
962.928 .0235425
963.548 .0235415
964.168 .0235412
964.787 .0235415
965.406 .0235422
966.024 .0235427
966.642 .0235433
967.260 .0235437
967.877 .0235432
968.494 .0235418
969.110 .0235390
969.727 .0235347
970.342 .0235291
970.958 .0235227
971.573 .0235161
972.188 .0235102
972.802 .0235061
973.416 .0235034
974.030 .0235026
974.643 .0235033
975.256 .0235047
975.869 .0235061
976.481 .0235074
977.093 .0235079
977.705 .0235083
978.316 .0235091
978.927 .0235109
979.538 .0235148
980.148 .0235213
980.758 .0235302
981.367 .0235410
981.977 .0235534
982.586 .0235661
983.194 .0235776
983.802 .0235878
984.410 .0235955
985.018 .0236007
985.625 .0236042
986.232 .0236065
986.838 .0236086
987.445 .0236113
988.050 .0236150
988.656 .0236196
989.261 .0236245
989.866 .0236293
990.471 .0236332
991.075 .0236358
991.679 .0236371
992.282 .0236371
992.886 .0236363
993.489 .0236359
994.091 .0236365
994.694 .0236391
995.296 .0236438
995.897 .0236507
996.499 .0236588
997.100 .0236672
997.701 .0236757
998.301 .0236836
998.901 .0236906
999.501 .0236973
1000.101 .0237038
1000.700 .0237101
1001.299 .0237166
1001.898 .0237233
1002.496 .0237302
1003.094 .0237367
1003.692 .0237417
1004.289 .0237447
1004.887 .0237447
1005.484 .0237423
1006.080 .0237376
1006.677 .0237317
1007.273 .0237252
1007.868 .0237179
1008.464 .0237109
1009.059 .0237046
1009.654 .0236997
1010.249 .0236957
1010.843 .0236935
1011.437 .0236934
1012.031 .0236947
1012.625 .0236978
1013.218 .0237020
1013.811 .0237082
1014.404 .0237158
1014.997 .0237249
1015.589 .0237352
1016.181 .0237467
1016.773 .0237593
1017.365 .0237725
1017.956 .0237861
1018.547 .0237993
1019.138 .0238116
1019.728 .0238226
1020.319 .0238321
1020.909 .0238400
1021.499 .0238457
1022.088 .0238500
1022.678 .0238525
1023.267 .0238543
1023.856 .0238550
1024.445 .0238551
1025.033 .0238544
1025.621 .0238526
1026.209 .0238499
1026.797 .0238456
1027.385 .0238408
1027.972 .0238364
1028.560 .0238325
1029.147 .0238294
1029.734 .0238274
1030.320 .0238264
1030.907 .0238265
1031.493 .0238276
1032.079 .0238287
1032.665 .0238299
1033.250 .0238305
1033.836 .0238297
1034.421 .0238279
1035.006 .0238259
1035.591 .0238239
1036.176 .0238213
1036.761 .0238184
1037.345 .0238151
1037.929 .0238104
1038.514 .0238051
1039.097 .0237985
1039.681 .0237910
1040.265 .0237829
1040.848 .0237739
1041.432 .0237645
1042.015 .0237559
1042.598 .0237482
1043.181 .0237425
1043.764 .0237386
1044.346 .0237368
1044.929 .0237362
1045.511 .0237369
1046.094 .0237389
1046.676 .0237421
1047.258 .0237456
1047.840 .0237499
1048.422 .0237539
1049.003 .0237579
1049.585 .0237612
1050.166 .0237638
1050.748 .0237653
1051.329 .0237654
1051.910 .0237648
1052.491 .0237630
1053.072 .0237595
1053.653 .0237553
1054.234 .0237501
1054.815 .0237434
1055.396 .0237358
1055.976 .0237268
1056.557 .0237171
1057.138 .0237072
1057.718 .0236964
1058.298 .0236848
1058.879 .0236721
1059.459 .0236593
1060.039 .0236454
1060.620 .0236308
1061.200 .0236163
1061.780 .0235996
1062.360 .0235810
1062.940 .0235613
1063.520 .0235403
1064.101 .0235180
1064.681 .0234957
1065.261 .0234734
1065.841 .0234513
1066.421 .0234300
1067.001 .0234084
1067.581 .0233875
1068.161 .0233674
1068.741 .0233488
1069.321 .0233295
1069.901 .0233111
1070.482 .0232936
1071.062 .0232754
1071.642 .0232595
1072.222 .0232450
1072.803 .0232314
1073.383 .0232197
1073.963 .0232100
1074.544 .0232033
1075.124 .0231980
1075.705 .0231949
1076.286 .0231921
1076.866 .0231909
1077.447 .0231902
1078.028 .0231904
1078.609 .0231911
1079.190 .0231936
1079.771 .0231967
1080.352 .0231998
1080.934 .0232026
1081.515 .0232032
1082.097 .0232037
1082.679 .0232033
1083.260 .0232002
1083.842 .0231957
1084.424 .0231881
1085.007 .0231802
1085.589 .0231709
1086.172 .0231595
1086.754 .0231460
1087.337 .0231310
1087.920 .0231147
1088.503 .0230975
1089.087 .0230787
1089.670 .0230600
1090.254 .0230407
1090.838 .0230206
1091.422 .0230002
1092.006 .0229779
1092.590 .0229554
1093.175 .0229338
1093.760 .0229119
1094.345 .0228898
1094.930 .0228673
1095.516 .0228478
1096.102 .0228297
1096.688 .0228138
1097.274 .0228000
1097.860 .0227876
1098.447 .0227769
1099.034 .0227679
1099.622 .0227600
1100.209 .0227538
1100.797 .0227486
1101.385 .0227450
1101.973 .0227424
1102.562 .0227402
1103.151 .0227371
1103.740 .0227337
1104.330 .0227320
1104.920 .0227305
1105.510 .0227287
1106.101 .0227296
1106.691 .0227326
1107.283 .0227381
1107.874 .0227427
1108.466 .0227458
1109.058 .0227489
1109.651 .0227478
1110.244 .0227434
1110.837 .0227375
1111.431 .0227318
1112.025 .0227274
1112.620 .0227249
1113.215 .0227277
1113.810 .0227339
1114.406 .0227425
1115.002 .0227534
1115.599 .0227617
1116.196 .0227674
1116.793 .0227669
1117.391 .0227609
1117.989 .0227524
1118.588 .0227424
1119.187 .0227304
1119.787 .0227208
1120.387 .0227162
1120.988 .0227153
1121.589 .0227179
1122.190 .0227229
1122.793 .0227293
1123.395 .0227343
1123.998 .0227373
1124.602 .0227373
1125.206 .0227338
1125.811 .0227319
1126.416 .0227311
1127.022 .0227324
1127.628 .0227364
1128.235 .0227460
1128.843 .0227601
1129.451 .0227785
1130.059 .0228003
1130.669 .0228234
1131.278 .0228515
1131.889 .0228804
1132.500 .0229105
1133.112 .0229433
1133.724 .0229815
1134.337 .0230245
1134.950 .0230696
1135.564 .0231210
1136.179 .0231775
1136.795 .0232381
1137.411 .0233082
1138.028 .0233857
1138.645 .0234697
1139.263 .0235604
1139.882 .0236526
1140.502 .0237510
1141.122 .0238493
1141.743 .0239547
1142.365 .0240564
1142.987 .0240809
1143.611 .0242991
1144.235 .0242990
1144.859 .0246109
1145.485 .0245314
