Measurement Sequence started on: 10-20-44-796
Integration time: 35
Scans to Average: 2 
>>>>>Begin Spectral Data<<<<<
432.953 .0466161
433.882 .0303787
434.810 .0319483
435.737 .0311136
436.662 .0311628
437.586 .0316453
438.509 .0310744
439.431 .0310797
440.351 .0310565
441.269 .0310779
442.187 .0311094
443.103 .0311466
444.018 .0312189
444.932 .0312867
445.844 .0313576
446.756 .0314497
447.666 .0315416
448.575 .0316321
449.482 .0317182
450.388 .0317863
451.294 .0318272
452.198 .0318526
453.100 .0318641
454.002 .0318750
454.902 .0318959
455.801 .0319285
456.699 .0319707
457.596 .0320292
458.492 .0320958
459.387 .0321505
460.280 .0321981
461.172 .0322266
462.064 .0322273
462.954 .0322116
463.843 .0321763
464.730 .0321354
465.617 .0320982
466.503 .0320659
467.387 .0320348
468.271 .0320093
469.153 .0319834
470.035 .0319487
470.915 .0319056
471.794 .0318488
472.673 .0317795
473.550 .0317018
474.426 .0316234
475.301 .0315444
476.175 .0314770
477.048 .0314281
477.920 .0313923
478.791 .0313747
479.661 .0313691
480.530 .0313715
481.398 .0313777
482.266 .0313813
483.132 .0313816
483.997 .0313768
484.861 .0313723
485.724 .0313677
486.587 .0313686
487.448 .0313706
488.308 .0313762
489.168 .0313834
490.026 .0313889
490.884 .0313906
491.741 .0313820
492.597 .0313640
493.452 .0313357
494.306 .0312959
495.159 .0312498
496.011 .0311973
496.862 .0311431
497.713 .0310835
498.562 .0310191
499.411 .0309488
500.259 .0308744
501.106 .0307943
501.952 .0307131
502.798 .0306291
503.642 .0305449
504.486 .0304607
505.329 .0303764
506.171 .0302967
507.012 .0302203
507.852 .0301458
508.692 .0300746
509.531 .0299967
510.369 .0299193
511.206 .0298395
512.043 .0297548
512.878 .0296650
513.713 .0295661
514.547 .0294591
515.381 .0293439
516.213 .0292165
517.045 .0290750
517.876 .0289149
518.706 .0287406
519.536 .0285485
520.365 .0283392
521.193 .0281142
522.020 .0278791
522.847 .0276342
523.673 .0273827
524.498 .0271195
525.323 .0268492
526.146 .0265824
526.969 .0263222
527.792 .0260745
528.614 .0258434
529.435 .0256419
530.255 .0254793
531.075 .0253508
531.894 .0252643
532.712 .0252062
533.530 .0251711
534.347 .0251489
535.163 .0251279
535.979 .0251104
536.794 .0251029
537.608 .0251140
538.422 .0251472
539.235 .0252143
540.048 .0253102
540.860 .0254218
541.671 .0255450
542.481 .0256571
543.292 .0257481
544.101 .0258093
544.910 .0258464
545.718 .0258612
546.526 .0258711
547.333 .0258864
548.139 .0259151
548.945 .0259631
549.750 .0260211
550.555 .0260816
551.359 .0261416
552.162 .0261929
552.965 .0262300
553.768 .0262538
554.569 .0262728
555.371 .0262829
556.171 .0262949
556.972 .0263023
557.771 .0263117
558.570 .0263238
559.369 .0263316
560.167 .0263407
560.964 .0263517
561.761 .0263648
562.558 .0263811
563.354 .0264095
564.149 .0264504
564.944 .0264968
565.738 .0265534
566.532 .0266152
567.325 .0266792
568.118 .0267452
568.910 .0268102
569.702 .0268793
570.494 .0269605
571.285 .0270491
572.075 .0271425
572.865 .0272457
573.654 .0273529
574.443 .0274555
575.232 .0275497
576.020 .0276360
576.807 .0277093
577.594 .0277714
578.381 .0278269
579.167 .0278774
579.952 .0279294
580.738 .0279828
581.522 .0280380
582.307 .0280964
583.091 .0281562
583.874 .0282155
584.657 .0282723
585.440 .0283291
586.222 .0283820
587.004 .0284315
587.785 .0284803
588.566 .0285265
589.346 .0285699
590.126 .0286090
590.906 .0286429
591.685 .0286702
592.464 .0286890
593.242 .0287010
594.020 .0287074
594.797 .0287100
595.575 .0287098
596.351 .0287086
597.128 .0287060
597.904 .0287036
598.679 .0286994
599.454 .0286948
600.229 .0286885
601.004 .0286810
601.778 .0286729
602.551 .0286649
603.325 .0286588
604.097 .0286547
604.870 .0286520
605.642 .0286517
606.414 .0286518
607.185 .0286521
607.956 .0286512
608.727 .0286497
609.497 .0286464
610.267 .0286417
611.037 .0286362
611.806 .0286306
612.575 .0286234
613.344 .0286157
614.112 .0286064
614.880 .0285954
615.647 .0285812
616.414 .0285642
617.181 .0285451
617.948 .0285248
618.714 .0285034
619.480 .0284825
620.245 .0284617
621.011 .0284425
621.775 .0284234
622.540 .0284045
623.304 .0283852
624.068 .0283656
624.832 .0283448
625.595 .0283235
626.358 .0283021
627.120 .0282815
627.883 .0282617
628.645 .0282441
629.406 .0282279
630.168 .0282125
630.929 .0281975
631.689 .0281824
632.450 .0281657
633.210 .0281472
633.970 .0281265
634.729 .0281047
635.489 .0280817
636.248 .0280591
637.006 .0280372
637.765 .0280166
638.523 .0279978
639.280 .0279804
640.038 .0279632
640.795 .0279467
641.552 .0279300
642.309 .0279127
643.065 .0278947
643.821 .0278778
644.577 .0278612
645.332 .0278458
646.088 .0278314
646.843 .0278179
647.597 .0278054
648.352 .0277940
649.106 .0277828
649.860 .0277717
650.613 .0277608
651.367 .0277500
652.120 .0277383
652.872 .0277259
653.625 .0277135
654.377 .0277009
655.129 .0276875
655.881 .0276737
656.632 .0276590
657.384 .0276443
658.135 .0276294
658.885 .0276146
659.636 .0276006
660.386 .0275872
661.136 .0275739
661.885 .0275602
662.635 .0275463
663.384 .0275323
664.133 .0275174
664.881 .0275016
665.630 .0274862
666.378 .0274711
667.126 .0274564
667.874 .0274430
668.621 .0274315
669.368 .0274214
670.115 .0274119
670.862 .0274027
671.608 .0273940
672.354 .0273856
673.100 .0273772
673.846 .0273687
674.591 .0273615
675.337 .0273551
676.082 .0273491
676.826 .0273439
677.571 .0273392
678.315 .0273336
679.059 .0273261
679.803 .0273165
680.547 .0273051
681.290 .0272915
682.033 .0272756
682.776 .0272584
683.518 .0272412
684.261 .0272240
685.003 .0272064
685.745 .0271889
686.487 .0271716
687.228 .0271538
687.969 .0271347
688.710 .0271148
689.451 .0270941
690.192 .0270732
690.932 .0270519
691.672 .0270313
692.412 .0270113
693.152 .0269922
693.891 .0269731
694.630 .0269541
695.369 .0269353
696.108 .0269154
696.846 .0268940
697.585 .0268719
698.323 .0268485
699.061 .0268248
699.798 .0268005
700.536 .0267765
701.273 .0267536
702.010 .0267318
702.746 .0267111
703.483 .0266913
704.219 .0266728
704.955 .0266551
705.691 .0266375
706.427 .0266204
707.162 .0266038
707.897 .0265872
708.632 .0265718
709.367 .0265572
710.101 .0265436
710.835 .0265313
711.569 .0265202
712.303 .0265100
713.037 .0265007
713.770 .0264920
714.503 .0264839
715.236 .0264758
715.969 .0264679
716.702 .0264588
717.434 .0264487
718.166 .0264375
718.898 .0264244
719.629 .0264106
720.361 .0263960
721.092 .0263810
721.823 .0263657
722.554 .0263500
723.284 .0263341
724.014 .0263169
724.744 .0262976
725.474 .0262754
726.204 .0262503
726.933 .0262220
727.662 .0261912
728.391 .0261599
729.120 .0261292
729.849 .0261015
730.577 .0260774
731.305 .0260570
732.033 .0260398
732.760 .0260255
733.488 .0260123
734.215 .0259993
734.942 .0259866
735.669 .0259738
736.395 .0259612
737.122 .0259505
737.848 .0259424
738.573 .0259364
739.299 .0259333
740.024 .0259325
740.750 .0259323
741.474 .0259326
742.199 .0259319
742.924 .0259299
743.648 .0259274
744.372 .0259247
745.096 .0259211
745.819 .0259173
746.543 .0259145
747.266 .0259114
747.989 .0259072
748.711 .0259030
749.434 .0258973
750.156 .0258903
750.878 .0258828
751.599 .0258754
752.321 .0258678
753.042 .0258616
753.763 .0258565
754.484 .0258518
755.205 .0258479
755.925 .0258446
756.645 .0258399
757.365 .0258355
758.085 .0258310
758.804 .0258262
759.523 .0258214
760.242 .0258179
760.961 .0258140
761.679 .0258105
762.397 .0258062
763.115 .0258000
763.833 .0257910
764.551 .0257801
765.268 .0257666
765.985 .0257507
766.702 .0257338
767.418 .0257159
768.134 .0256974
768.850 .0256794
769.566 .0256606
770.282 .0256414
770.997 .0256219
771.712 .0256020
772.427 .0255809
773.142 .0255593
773.856 .0255379
774.570 .0255170
775.284 .0254979
775.998 .0254800
776.711 .0254634
777.424 .0254479
778.137 .0254333
778.849 .0254188
779.562 .0254040
780.274 .0253890
780.986 .0253738
781.697 .0253586
782.409 .0253439
783.120 .0253297
783.831 .0253169
784.541 .0253051
785.252 .0252943
785.962 .0252842
786.671 .0252742
787.381 .0252635
788.090 .0252529
788.799 .0252413
789.508 .0252293
790.217 .0252161
790.925 .0252024
791.633 .0251883
792.341 .0251743
793.048 .0251602
793.755 .0251460
794.462 .0251316
795.169 .0251171
795.875 .0251016
796.581 .0250865
797.287 .0250710
797.993 .0250550
798.698 .0250396
799.403 .0250247
800.108 .0250096
800.812 .0249959
801.517 .0249826
802.221 .0249701
802.924 .0249575
803.628 .0249453
804.331 .0249326
805.034 .0249202
805.736 .0249079
806.439 .0248955
807.141 .0248833
807.843 .0248716
808.544 .0248589
809.245 .0248461
809.946 .0248325
810.647 .0248182
811.347 .0248022
812.047 .0247855
812.747 .0247678
813.447 .0247494
814.146 .0247306
814.845 .0247124
815.543 .0246945
816.242 .0246771
816.940 .0246596
817.638 .0246424
818.335 .0246254
819.032 .0246082
819.729 .0245910
820.426 .0245743
821.122 .0245586
821.818 .0245431
822.514 .0245279
823.209 .0245138
823.905 .0245001
824.599 .0244864
825.294 .0244721
825.988 .0244572
826.682 .0244421
827.376 .0244265
828.069 .0244103
828.762 .0243941
829.455 .0243780
830.147 .0243622
830.840 .0243465
831.531 .0243313
832.223 .0243170
832.914 .0243030
833.605 .0242897
834.296 .0242762
834.986 .0242630
835.676 .0242495
836.366 .0242353
837.055 .0242213
837.744 .0242074
838.433 .0241941
839.121 .0241813
839.809 .0241699
840.497 .0241603
841.185 .0241526
841.872 .0241461
842.559 .0241405
843.245 .0241355
843.932 .0241304
844.617 .0241248
845.303 .0241186
845.988 .0241125
846.673 .0241067
847.358 .0241015
848.042 .0240978
848.726 .0240954
849.410 .0240943
850.093 .0240936
850.776 .0240933
851.459 .0240925
852.141 .0240899
852.823 .0240857
853.505 .0240799
854.186 .0240731
854.867 .0240654
855.548 .0240572
856.228 .0240490
856.908 .0240419
857.588 .0240355
858.267 .0240297
858.946 .0240247
859.625 .0240203
860.303 .0240165
860.981 .0240125
861.659 .0240084
862.336 .0240039
863.013 .0239984
863.690 .0239923
864.366 .0239852
865.042 .0239778
865.718 .0239701
866.393 .0239626
867.068 .0239554
867.743 .0239490
868.417 .0239425
869.091 .0239362
869.765 .0239297
870.438 .0239233
871.111 .0239168
871.783 .0239103
872.456 .0239041
873.127 .0238982
873.799 .0238925
874.470 .0238874
875.141 .0238821
875.811 .0238771
876.481 .0238713
877.151 .0238655
877.820 .0238594
878.489 .0238533
879.158 .0238473
879.826 .0238418
880.494 .0238371
881.162 .0238330
881.829 .0238291
882.496 .0238253
883.163 .0238214
883.829 .0238178
884.495 .0238138
885.160 .0238102
885.825 .0238069
886.490 .0238050
887.154 .0238047
887.818 .0238064
888.482 .0238091
889.145 .0238125
889.808 .0238168
890.471 .0238209
891.133 .0238246
891.795 .0238274
892.456 .0238293
893.117 .0238305
893.778 .0238308
894.439 .0238302
895.099 .0238289
895.758 .0238271
896.417 .0238252
897.076 .0238229
897.735 .0238208
898.393 .0238185
899.051 .0238165
899.708 .0238145
900.365 .0238124
901.022 .0238093
901.678 .0238057
902.334 .0238013
902.990 .0237967
903.645 .0237920
904.300 .0237874
904.954 .0237837
905.608 .0237811
906.262 .0237792
906.915 .0237789
907.568 .0237789
908.221 .0237790
908.873 .0237788
909.525 .0237770
910.176 .0237735
910.828 .0237684
911.478 .0237623
912.129 .0237555
912.778 .0237488
913.428 .0237434
914.077 .0237389
914.726 .0237363
915.375 .0237344
916.023 .0237323
916.670 .0237301
917.318 .0237267
917.964 .0237216
918.611 .0237150
919.257 .0237073
919.903 .0236990
920.548 .0236907
921.193 .0236829
921.838 .0236763
922.482 .0236707
923.126 .0236660
923.770 .0236611
924.413 .0236555
925.056 .0236493
925.698 .0236419
926.340 .0236342
926.982 .0236264
927.623 .0236188
928.264 .0236120
928.904 .0236062
929.544 .0236013
930.184 .0235967
930.823 .0235920
931.462 .0235870
932.101 .0235809
932.739 .0235742
933.377 .0235667
934.014 .0235586
934.651 .0235500
935.288 .0235411
935.924 .0235311
936.560 .0235197
937.196 .0235070
937.831 .0234933
938.466 .0234779
939.100 .0234615
939.734 .0234441
940.368 .0234263
941.001 .0234087
941.634 .0233916
942.266 .0233749
942.899 .0233589
943.530 .0233429
944.162 .0233265
944.793 .0233098
945.423 .0232921
946.053 .0232731
946.683 .0232529
947.313 .0232319
947.942 .0232107
948.571 .0231891
949.199 .0231677
949.827 .0231464
950.455 .0231259
951.082 .0231056
951.709 .0230859
952.335 .0230670
952.961 .0230491
953.587 .0230315
954.212 .0230143
954.837 .0229972
955.462 .0229799
956.086 .0229631
956.710 .0229466
957.334 .0229305
957.957 .0229147
958.579 .0228987
959.202 .0228827
959.824 .0228664
960.445 .0228502
961.067 .0228331
961.688 .0228159
962.308 .0227982
962.928 .0227799
963.548 .0227612
964.168 .0227423
964.787 .0227230
965.406 .0227038
966.024 .0226847
966.642 .0226655
967.260 .0226474
967.877 .0226301
968.494 .0226138
969.110 .0225988
969.727 .0225848
970.342 .0225717
970.958 .0225590
971.573 .0225465
972.188 .0225338
972.802 .0225213
973.416 .0225087
974.030 .0224954
974.643 .0224817
975.256 .0224677
975.869 .0224540
976.481 .0224410
977.093 .0224299
977.705 .0224208
978.316 .0224143
978.927 .0224099
979.538 .0224063
980.148 .0224028
980.758 .0223983
981.367 .0223926
981.977 .0223848
982.586 .0223748
983.194 .0223633
983.802 .0223510
984.410 .0223394
985.018 .0223292
985.625 .0223199
986.232 .0223122
986.838 .0223058
987.445 .0222991
988.050 .0222916
988.656 .0222827
989.261 .0222724
989.866 .0222607
990.471 .0222486
991.075 .0222368
991.679 .0222252
992.282 .0222157
992.886 .0222076
993.489 .0222007
994.091 .0221948
994.694 .0221890
995.296 .0221825
995.897 .0221757
996.499 .0221678
997.100 .0221577
997.701 .0221467
998.301 .0221357
998.901 .0221247
999.501 .0221140
1000.101 .0221046
1000.700 .0220958
1001.299 .0220875
1001.898 .0220794
1002.496 .0220699
1003.094 .0220602
1003.692 .0220492
1004.289 .0220370
1004.887 .0220239
1005.484 .0220107
1006.080 .0219982
1006.677 .0219866
1007.273 .0219770
1007.868 .0219688
1008.464 .0219615
1009.059 .0219554
1009.654 .0219501
1010.249 .0219463
1010.843 .0219437
1011.437 .0219424
1012.031 .0219426
1012.625 .0219450
1013.218 .0219479
1013.811 .0219517
1014.404 .0219561
1014.997 .0219609
1015.589 .0219645
1016.181 .0219667
1016.773 .0219676
1017.365 .0219668
1017.956 .0219646
1018.547 .0219615
1019.138 .0219577
1019.728 .0219543
1020.319 .0219502
1020.909 .0219459
1021.499 .0219412
1022.088 .0219361
1022.678 .0219301
1023.267 .0219235
1023.856 .0219164
1024.445 .0219093
1025.033 .0219026
1025.621 .0218970
1026.209 .0218932
1026.797 .0218906
1027.385 .0218882
1027.972 .0218862
1028.560 .0218845
1029.147 .0218814
1029.734 .0218771
1030.320 .0218719
1030.907 .0218656
1031.493 .0218588
1032.079 .0218521
1032.665 .0218458
1033.250 .0218415
1033.836 .0218392
1034.421 .0218386
1035.006 .0218391
1035.591 .0218417
1036.176 .0218452
1036.761 .0218493
1037.345 .0218537
1037.929 .0218574
1038.514 .0218600
1039.097 .0218619
1039.681 .0218632
1040.265 .0218630
1040.848 .0218617
1041.432 .0218602
1042.015 .0218579
1042.598 .0218553
1043.181 .0218536
1043.764 .0218532
1044.346 .0218547
1044.929 .0218591
1045.511 .0218654
1046.094 .0218728
1046.676 .0218807
1047.258 .0218879
1047.840 .0218944
1048.422 .0218999
1049.003 .0219048
1049.585 .0219093
1050.166 .0219154
1050.748 .0219249
1051.329 .0219370
1051.910 .0219528
1052.491 .0219714
1053.072 .0219908
1053.653 .0220084
1054.234 .0220224
1054.815 .0220314
1055.396 .0220350
1055.976 .0220345
1056.557 .0220310
1057.138 .0220267
1057.718 .0220230
1058.298 .0220203
1058.879 .0220198
1059.459 .0220212
1060.039 .0220226
1060.620 .0220217
1061.200 .0220188
1061.780 .0220139
1062.360 .0220066
1062.940 .0219981
1063.520 .0219895
1064.101 .0219828
1064.681 .0219775
1065.261 .0219736
1065.841 .0219703
1066.421 .0219689
1067.001 .0219683
1067.581 .0219668
1068.161 .0219644
1068.741 .0219634
1069.321 .0219607
1069.901 .0219583
1070.482 .0219566
1071.062 .0219554
1071.642 .0219530
1072.222 .0219494
1072.803 .0219445
1073.383 .0219379
1073.963 .0219300
1074.544 .0219202
1075.124 .0219093
1075.705 .0219004
1076.286 .0218919
1076.866 .0218839
1077.447 .0218776
1078.028 .0218737
1078.609 .0218695
1079.190 .0218653
1079.771 .0218613
1080.352 .0218584
1080.934 .0218588
1081.515 .0218630
1082.097 .0218741
1082.679 .0218924
1083.260 .0219175
1083.842 .0219476
1084.424 .0219816
1085.007 .0220189
1085.589 .0220535
1086.172 .0220861
1086.754 .0221166
1087.337 .0221453
1087.920 .0221729
1088.503 .0221980
1089.087 .0222230
1089.670 .0222490
1090.254 .0222736
1090.838 .0222936
1091.422 .0223091
1092.006 .0223199
1092.590 .0223222
1093.175 .0223177
1093.760 .0223078
1094.345 .0222939
1094.930 .0222758
1095.516 .0222568
1096.102 .0222385
1096.688 .0222222
1097.274 .0222089
1097.860 .0221963
1098.447 .0221860
1099.034 .0221794
1099.622 .0221729
1100.209 .0221670
1100.797 .0221629
1101.385 .0221612
1101.973 .0221587
1102.562 .0221564
1103.151 .0221540
1103.740 .0221497
1104.330 .0221457
1104.920 .0221419
1105.510 .0221362
1106.101 .0221299
1106.691 .0221240
1107.283 .0221193
1107.874 .0221148
1108.466 .0221113
1109.058 .0221073
1109.651 .0221070
1110.244 .0221098
1110.837 .0221118
1111.431 .0221134
1112.025 .0221182
1112.620 .0221262
1113.215 .0221387
1113.810 .0221570
1114.406 .0221806
1115.002 .0222075
1115.599 .0222366
1116.196 .0222622
1116.793 .0222827
1117.391 .0222992
1117.989 .0223113
1118.588 .0223228
1119.187 .0223365
1119.787 .0223509
1120.387 .0223668
1120.988 .0223869
1121.589 .0224049
1122.190 .0224164
1122.793 .0224202
1123.395 .0224135
1123.998 .0223978
1124.602 .0223800
1125.206 .0223649
1125.811 .0223581
1126.416 .0223624
1127.022 .0223773
1127.628 .0223960
1128.235 .0224172
1128.843 .0224365
1129.451 .0224492
1130.059 .0224541
1130.669 .0224577
1131.278 .0224573
1131.889 .0224587
1132.500 .0224695
1133.112 .0224952
1133.724 .0225342
1134.337 .0225887
1134.950 .0226481
1135.564 .0227079
1136.179 .0227654
1136.795 .0228244
1137.411 .0228764
1138.028 .0229291
1138.645 .0229837
1139.263 .0230440
1139.882 .0231087
1140.502 .0231842
1141.122 .0232584
1141.743 .0233372
1142.365 .0234368
1142.987 .0235042
1143.611 .0236974
1144.235 .0235363
1144.859 .0236244
1145.485 .0243248
