Measurement Sequence started on: 10-20-44-796
Integration time: 35
Scans to Average: 2 
>>>>>Begin Spectral Data<<<<<
432.953 .0417820
433.882 .0476192
434.810 .0440289
435.737 .0424019
436.662 .0396952
437.586 .0404152
438.509 .0398304
439.431 .0392369
440.351 .0388761
441.269 .0386199
442.187 .0384432
443.103 .0382834
444.018 .0381088
444.932 .0379610
445.844 .0378282
446.756 .0377251
447.666 .0376656
448.575 .0376187
449.482 .0375676
450.388 .0375084
451.294 .0374309
452.198 .0373301
453.100 .0372092
454.002 .0370789
454.902 .0369539
455.801 .0368453
456.699 .0367608
457.596 .0367014
458.492 .0366585
459.387 .0366270
460.280 .0365982
461.172 .0365650
462.064 .0365255
462.954 .0364720
463.843 .0364071
464.730 .0363345
465.617 .0362557
466.503 .0361742
467.387 .0360891
468.271 .0359984
469.153 .0359063
470.035 .0358070
470.915 .0357013
471.794 .0355907
472.673 .0354803
473.550 .0353720
474.426 .0352689
475.301 .0351760
476.175 .0350986
477.048 .0350316
477.920 .0349774
478.791 .0349358
479.661 .0349085
480.530 .0348916
481.398 .0348826
482.266 .0348839
483.132 .0348950
483.997 .0349103
484.861 .0349301
485.724 .0349576
486.587 .0349908
487.448 .0350240
488.308 .0350554
489.168 .0350850
490.026 .0351107
490.884 .0351285
491.741 .0351406
492.597 .0351481
493.452 .0351516
494.306 .0351503
495.159 .0351451
496.011 .0351388
496.862 .0351296
497.713 .0351127
498.562 .0350880
499.411 .0350564
500.259 .0350107
501.106 .0349500
501.952 .0348803
502.798 .0348019
503.642 .0347166
504.486 .0346253
505.329 .0345299
506.171 .0344277
507.012 .0343216
507.852 .0342094
508.692 .0340886
509.531 .0339629
510.369 .0338341
511.206 .0336982
512.043 .0335639
512.878 .0334321
513.713 .0333008
514.547 .0331752
515.381 .0330611
516.213 .0329509
517.045 .0328468
517.876 .0327487
518.706 .0326550
519.536 .0325623
520.365 .0324748
521.193 .0323791
522.020 .0322721
522.847 .0321535
523.673 .0320216
524.498 .0318697
525.323 .0317073
526.146 .0315401
526.969 .0313718
527.792 .0312054
528.614 .0310428
529.435 .0308818
530.255 .0307254
531.075 .0305654
531.894 .0303990
532.712 .0302175
533.530 .0300298
534.347 .0298394
535.163 .0296519
535.979 .0294822
536.794 .0293354
537.608 .0292125
538.422 .0291166
539.235 .0290389
540.048 .0289774
540.860 .0289285
541.671 .0288895
542.481 .0288566
543.292 .0288250
544.101 .0287986
544.910 .0287777
545.718 .0287607
546.526 .0287534
547.333 .0287541
548.139 .0287629
548.945 .0287773
549.750 .0287961
550.555 .0288299
551.359 .0288734
552.162 .0289282
552.965 .0289938
553.768 .0290635
554.569 .0291336
555.371 .0291983
556.171 .0292524
556.972 .0293031
557.771 .0293499
558.570 .0293949
559.369 .0294414
560.167 .0294982
560.964 .0295656
561.761 .0296409
562.558 .0297266
563.354 .0298196
564.149 .0299079
564.944 .0299934
565.738 .0300703
566.532 .0301414
567.325 .0302106
568.118 .0302808
568.910 .0303533
569.702 .0304331
570.494 .0305188
571.285 .0306059
572.075 .0306955
572.865 .0307839
573.654 .0308654
574.443 .0309367
575.232 .0309967
576.020 .0310478
576.807 .0310902
577.594 .0311284
578.381 .0311632
579.167 .0311971
579.952 .0312346
580.738 .0312734
581.522 .0313145
582.307 .0313576
583.091 .0314019
583.874 .0314455
584.657 .0314853
585.440 .0315218
586.222 .0315531
587.004 .0315785
587.785 .0316008
588.566 .0316203
589.346 .0316375
590.126 .0316541
590.906 .0316695
591.685 .0316829
592.464 .0316934
593.242 .0316994
594.020 .0317007
594.797 .0316987
595.575 .0316938
596.351 .0316875
597.128 .0316817
597.904 .0316790
598.679 .0316782
599.454 .0316788
600.229 .0316805
601.004 .0316810
601.778 .0316792
602.551 .0316736
603.325 .0316644
604.097 .0316517
604.870 .0316379
605.642 .0316239
606.414 .0316109
607.185 .0316005
607.956 .0315915
608.727 .0315842
609.497 .0315774
610.267 .0315699
611.037 .0315610
611.806 .0315510
612.575 .0315403
613.344 .0315282
614.112 .0315169
614.880 .0315061
615.647 .0314963
616.414 .0314879
617.181 .0314805
617.948 .0314733
618.714 .0314663
619.480 .0314586
620.245 .0314495
621.011 .0314396
621.775 .0314288
622.540 .0314169
623.304 .0314052
624.068 .0313936
624.832 .0313812
625.595 .0313685
626.358 .0313560
627.120 .0313418
627.883 .0313254
628.645 .0313073
629.406 .0312860
630.168 .0312625
630.929 .0312374
631.689 .0312112
632.450 .0311845
633.210 .0311577
633.970 .0311303
634.729 .0311021
635.489 .0310722
636.248 .0310399
637.006 .0310045
637.765 .0309679
638.523 .0309300
639.280 .0308926
640.038 .0308571
640.795 .0308259
641.552 .0307994
642.309 .0307779
643.065 .0307608
643.821 .0307465
644.577 .0307333
645.332 .0307202
646.088 .0307053
646.843 .0306882
647.597 .0306685
648.352 .0306480
649.106 .0306268
649.860 .0306056
650.613 .0305845
651.367 .0305644
652.120 .0305446
652.872 .0305242
653.625 .0305024
654.377 .0304795
655.129 .0304553
655.881 .0304298
656.632 .0304032
657.384 .0303764
658.135 .0303505
658.885 .0303260
659.636 .0303032
660.386 .0302829
661.136 .0302638
661.885 .0302465
662.635 .0302305
663.384 .0302157
664.133 .0302012
664.881 .0301866
665.630 .0301724
666.378 .0301582
667.126 .0301436
667.874 .0301287
668.621 .0301135
669.368 .0300982
670.115 .0300819
670.862 .0300644
671.608 .0300464
672.354 .0300285
673.100 .0300108
673.846 .0299935
674.591 .0299761
675.337 .0299599
676.082 .0299441
676.826 .0299284
677.571 .0299131
678.315 .0298974
679.059 .0298816
679.803 .0298660
680.547 .0298505
681.290 .0298349
682.033 .0298198
682.776 .0298053
683.518 .0297908
684.261 .0297760
685.003 .0297608
685.745 .0297449
686.487 .0297292
687.228 .0297138
687.969 .0296981
688.710 .0296825
689.451 .0296671
690.192 .0296517
690.932 .0296360
691.672 .0296197
692.412 .0296025
693.152 .0295845
693.891 .0295652
694.630 .0295445
695.369 .0295231
696.108 .0295017
696.846 .0294804
697.585 .0294591
698.323 .0294383
699.061 .0294179
699.798 .0293978
700.536 .0293785
701.273 .0293597
702.010 .0293419
702.746 .0293243
703.483 .0293070
704.219 .0292898
704.955 .0292726
705.691 .0292550
706.427 .0292371
707.162 .0292189
707.897 .0292004
708.632 .0291813
709.367 .0291617
710.101 .0291422
710.835 .0291221
711.569 .0291012
712.303 .0290799
713.037 .0290580
713.770 .0290357
714.503 .0290135
715.236 .0289921
715.969 .0289716
716.702 .0289523
717.434 .0289341
718.166 .0289161
718.898 .0288991
719.629 .0288819
720.361 .0288648
721.092 .0288481
721.823 .0288324
722.554 .0288169
723.284 .0288027
724.014 .0287893
724.744 .0287760
725.474 .0287617
726.204 .0287466
726.933 .0287297
727.662 .0287107
728.391 .0286902
729.120 .0286690
729.849 .0286476
730.577 .0286281
731.305 .0286096
732.033 .0285935
732.760 .0285788
733.488 .0285654
734.215 .0285520
734.942 .0285385
735.669 .0285243
736.395 .0285092
737.122 .0284937
737.848 .0284787
738.573 .0284643
739.299 .0284512
740.024 .0284391
740.750 .0284285
741.474 .0284181
742.199 .0284075
742.924 .0283963
743.648 .0283846
744.372 .0283715
745.096 .0283578
745.819 .0283436
746.543 .0283291
747.266 .0283151
747.989 .0283018
748.711 .0282895
749.434 .0282786
750.156 .0282690
750.878 .0282605
751.599 .0282531
752.321 .0282470
753.042 .0282412
753.763 .0282359
754.484 .0282316
755.205 .0282273
755.925 .0282230
756.645 .0282191
757.365 .0282152
758.085 .0282104
758.804 .0282046
759.523 .0281962
760.242 .0281850
760.961 .0281704
761.679 .0281526
762.397 .0281314
763.115 .0281076
763.833 .0280817
764.551 .0280537
765.268 .0280250
765.985 .0279956
766.702 .0279653
767.418 .0279347
768.134 .0279038
768.850 .0278729
769.566 .0278425
770.282 .0278134
770.997 .0277865
771.712 .0277626
772.427 .0277412
773.142 .0277225
773.856 .0277052
774.570 .0276887
775.284 .0276723
775.998 .0276549
776.711 .0276372
777.424 .0276189
778.137 .0276008
778.849 .0275835
779.562 .0275671
780.274 .0275524
780.986 .0275385
781.697 .0275254
782.409 .0275125
783.120 .0274988
783.831 .0274842
784.541 .0274695
785.252 .0274547
785.962 .0274404
786.671 .0274269
787.381 .0274141
788.090 .0274023
788.799 .0273908
789.508 .0273786
790.217 .0273653
790.925 .0273506
791.633 .0273341
792.341 .0273156
793.048 .0272960
793.755 .0272756
794.462 .0272552
795.169 .0272358
795.875 .0272170
796.581 .0271992
797.287 .0271824
797.993 .0271660
798.698 .0271501
799.403 .0271350
800.108 .0271204
800.812 .0271065
801.517 .0270942
802.221 .0270841
802.924 .0270753
803.628 .0270684
804.331 .0270635
805.034 .0270595
805.736 .0270555
806.439 .0270506
807.141 .0270443
807.843 .0270371
808.544 .0270284
809.245 .0270184
809.946 .0270075
810.647 .0269969
811.347 .0269863
812.047 .0269756
812.747 .0269655
813.447 .0269554
814.146 .0269449
814.845 .0269342
815.543 .0269229
816.242 .0269115
816.940 .0269002
817.638 .0268892
818.335 .0268784
819.032 .0268682
819.729 .0268587
820.426 .0268495
821.122 .0268403
821.818 .0268312
822.514 .0268218
823.209 .0268118
823.905 .0268016
824.599 .0267908
825.294 .0267797
825.988 .0267684
826.682 .0267567
827.376 .0267445
828.069 .0267321
828.762 .0267196
829.455 .0267068
830.147 .0266942
830.840 .0266820
831.531 .0266701
832.223 .0266594
832.914 .0266495
833.605 .0266404
834.296 .0266319
834.986 .0266241
835.676 .0266165
836.366 .0266091
837.055 .0266016
837.744 .0265937
838.433 .0265855
839.121 .0265776
839.809 .0265701
840.497 .0265631
841.185 .0265571
841.872 .0265522
842.559 .0265484
843.245 .0265456
843.932 .0265433
844.617 .0265416
845.303 .0265409
845.988 .0265407
846.673 .0265408
847.358 .0265418
848.042 .0265442
848.726 .0265474
849.410 .0265519
850.093 .0265574
850.776 .0265636
851.459 .0265694
852.141 .0265743
852.823 .0265780
853.505 .0265799
854.186 .0265797
854.867 .0265776
855.548 .0265739
856.228 .0265691
856.908 .0265632
857.588 .0265568
858.267 .0265504
858.946 .0265444
859.625 .0265383
860.303 .0265319
860.981 .0265257
861.659 .0265193
862.336 .0265122
863.013 .0265049
863.690 .0264975
864.366 .0264898
865.042 .0264820
865.718 .0264749
866.393 .0264678
867.068 .0264605
867.743 .0264528
868.417 .0264444
869.091 .0264349
869.765 .0264238
870.438 .0264111
871.111 .0263968
871.783 .0263824
872.456 .0263674
873.127 .0263522
873.799 .0263379
874.470 .0263241
875.141 .0263108
875.811 .0262978
876.481 .0262853
877.151 .0262730
877.820 .0262612
878.489 .0262506
879.158 .0262408
879.826 .0262327
880.494 .0262264
881.162 .0262217
881.829 .0262183
882.496 .0262153
883.163 .0262118
883.829 .0262079
884.495 .0262030
885.160 .0261978
885.825 .0261924
886.490 .0261879
887.154 .0261844
887.818 .0261822
888.482 .0261805
889.145 .0261794
889.808 .0261778
890.471 .0261756
891.133 .0261718
891.795 .0261666
892.456 .0261595
893.117 .0261516
893.778 .0261434
894.439 .0261355
895.099 .0261277
895.758 .0261210
896.417 .0261147
897.076 .0261091
897.735 .0261035
898.393 .0260978
899.051 .0260927
899.708 .0260877
900.365 .0260826
901.022 .0260777
901.678 .0260733
902.334 .0260697
902.990 .0260667
903.645 .0260645
904.300 .0260629
904.954 .0260615
905.608 .0260602
906.262 .0260586
906.915 .0260571
907.568 .0260549
908.221 .0260520
908.873 .0260485
909.525 .0260446
910.176 .0260398
910.828 .0260345
911.478 .0260290
912.129 .0260231
912.778 .0260169
913.428 .0260099
914.077 .0260023
914.726 .0259944
915.375 .0259859
916.023 .0259775
916.670 .0259687
917.318 .0259599
917.964 .0259504
918.611 .0259400
919.257 .0259284
919.903 .0259151
920.548 .0259006
921.193 .0258850
921.838 .0258688
922.482 .0258526
923.126 .0258364
923.770 .0258211
924.413 .0258066
925.056 .0257924
925.698 .0257785
926.340 .0257645
926.982 .0257497
927.623 .0257343
928.264 .0257182
928.904 .0257019
929.544 .0256856
930.184 .0256699
930.823 .0256550
931.462 .0256409
932.101 .0256276
932.739 .0256143
933.377 .0256008
934.014 .0255863
934.651 .0255708
935.288 .0255543
935.924 .0255372
936.560 .0255198
937.196 .0255023
937.831 .0254850
938.466 .0254681
939.100 .0254516
939.734 .0254345
940.368 .0254175
941.001 .0254006
941.634 .0253832
942.266 .0253654
942.899 .0253471
943.530 .0253287
944.162 .0253093
944.793 .0252894
945.423 .0252679
946.053 .0252451
946.683 .0252209
947.313 .0251945
947.942 .0251665
948.571 .0251372
949.199 .0251067
949.827 .0250753
950.455 .0250432
951.082 .0250114
951.709 .0249795
952.335 .0249482
952.961 .0249175
953.587 .0248878
954.212 .0248589
954.837 .0248318
955.462 .0248063
956.086 .0247832
956.710 .0247626
957.334 .0247448
957.957 .0247301
958.579 .0247178
959.202 .0247075
959.824 .0246982
960.445 .0246897
961.067 .0246816
961.688 .0246727
962.308 .0246628
962.928 .0246521
963.548 .0246404
964.168 .0246274
964.787 .0246138
965.406 .0245997
966.024 .0245855
966.642 .0245711
967.260 .0245560
967.877 .0245399
968.494 .0245232
969.110 .0245056
969.727 .0244869
970.342 .0244682
970.958 .0244498
971.573 .0244322
972.188 .0244167
972.802 .0244037
973.416 .0243932
974.030 .0243851
974.643 .0243791
975.256 .0243740
975.869 .0243696
976.481 .0243654
977.093 .0243610
977.705 .0243574
978.316 .0243549
978.927 .0243535
979.538 .0243533
980.148 .0243547
980.758 .0243568
981.367 .0243590
981.977 .0243610
982.586 .0243619
983.194 .0243613
983.802 .0243594
984.410 .0243555
985.018 .0243501
985.625 .0243439
986.232 .0243370
986.838 .0243296
987.445 .0243219
988.050 .0243144
988.656 .0243065
989.261 .0242985
989.866 .0242898
990.471 .0242808
991.075 .0242715
991.679 .0242615
992.282 .0242512
992.886 .0242413
993.489 .0242319
994.091 .0242234
994.694 .0242157
995.296 .0242095
995.897 .0242047
996.499 .0242009
997.100 .0241973
997.701 .0241952
998.301 .0241933
998.901 .0241917
999.501 .0241902
1000.101 .0241891
1000.700 .0241880
1001.299 .0241864
1001.898 .0241845
1002.496 .0241829
1003.094 .0241814
1003.692 .0241795
1004.289 .0241773
1004.887 .0241756
1005.484 .0241730
1006.080 .0241694
1006.677 .0241649
1007.273 .0241597
1007.868 .0241533
1008.464 .0241462
1009.059 .0241385
1009.654 .0241310
1010.249 .0241240
1010.843 .0241173
1011.437 .0241123
1012.031 .0241089
1012.625 .0241067
1013.218 .0241055
1013.811 .0241057
1014.404 .0241073
1014.997 .0241100
1015.589 .0241140
1016.181 .0241195
1016.773 .0241257
1017.365 .0241327
1017.956 .0241403
1018.547 .0241481
1019.138 .0241566
1019.728 .0241653
1020.319 .0241744
1020.909 .0241839
1021.499 .0241931
1022.088 .0242018
1022.678 .0242096
1023.267 .0242166
1023.856 .0242216
1024.445 .0242246
1025.033 .0242265
1025.621 .0242268
1026.209 .0242264
1026.797 .0242264
1027.385 .0242268
1027.972 .0242277
1028.560 .0242296
1029.147 .0242314
1029.734 .0242336
1030.320 .0242358
1030.907 .0242370
1031.493 .0242384
1032.079 .0242408
1032.665 .0242428
1033.250 .0242451
1033.836 .0242487
1034.421 .0242534
1035.006 .0242591
1035.591 .0242661
1036.176 .0242733
1036.761 .0242810
1037.345 .0242890
1037.929 .0242964
1038.514 .0243032
1039.097 .0243110
1039.681 .0243189
1040.265 .0243286
1040.848 .0243406
1041.432 .0243545
1042.015 .0243705
1042.598 .0243886
1043.181 .0244077
1043.764 .0244270
1044.346 .0244448
1044.929 .0244603
1045.511 .0244737
1046.094 .0244847
1046.676 .0244930
1047.258 .0244994
1047.840 .0245041
1048.422 .0245071
1049.003 .0245082
1049.585 .0245069
1050.166 .0245029
1050.748 .0244966
1051.329 .0244887
1051.910 .0244791
1052.491 .0244699
1053.072 .0244615
1053.653 .0244543
1054.234 .0244507
1054.815 .0244493
1055.396 .0244504
1055.976 .0244538
1056.557 .0244594
1057.138 .0244666
1057.718 .0244763
1058.298 .0244877
1058.879 .0245011
1059.459 .0245166
1060.039 .0245324
1060.620 .0245480
1061.200 .0245624
1061.780 .0245738
1062.360 .0245811
1062.940 .0245852
1063.520 .0245866
1064.101 .0245844
1064.681 .0245816
1065.261 .0245776
1065.841 .0245734
1066.421 .0245685
1067.001 .0245622
1067.581 .0245548
1068.161 .0245475
1068.741 .0245390
1069.321 .0245302
1069.901 .0245229
1070.482 .0245167
1071.062 .0245125
1071.642 .0245112
1072.222 .0245130
1072.803 .0245180
1073.383 .0245252
1073.963 .0245352
1074.544 .0245470
1075.124 .0245613
1075.705 .0245757
1076.286 .0245907
1076.866 .0246053
1077.447 .0246178
1078.028 .0246281
1078.609 .0246371
1079.190 .0246458
1079.771 .0246563
1080.352 .0246682
1080.934 .0246819
1081.515 .0246970
1082.097 .0247138
1082.679 .0247301
1083.260 .0247454
1083.842 .0247578
1084.424 .0247680
1085.007 .0247762
1085.589 .0247835
1086.172 .0247910
1086.754 .0248008
1087.337 .0248117
1087.920 .0248245
1088.503 .0248372
1089.087 .0248492
1089.670 .0248571
1090.254 .0248625
1090.838 .0248642
1091.422 .0248638
1092.006 .0248596
1092.590 .0248519
1093.175 .0248422
1093.760 .0248329
1094.345 .0248221
1094.930 .0248105
1095.516 .0247998
1096.102 .0247918
1096.688 .0247855
1097.274 .0247826
1097.860 .0247825
1098.447 .0247862
1099.034 .0247907
1099.622 .0247948
1100.209 .0247970
1100.797 .0247976
1101.385 .0247971
1101.973 .0247986
1102.562 .0248037
1103.151 .0248124
1103.740 .0248242
1104.330 .0248390
1104.920 .0248570
1105.510 .0248759
1106.101 .0248921
1106.691 .0249067
1107.283 .0249201
1107.874 .0249328
1108.466 .0249444
1109.058 .0249591
1109.651 .0249779
1110.244 .0249999
1110.837 .0250243
1111.431 .0250466
1112.025 .0250658
1112.620 .0250820
1113.215 .0250929
1113.810 .0250997
1114.406 .0251033
1115.002 .0251043
1115.599 .0251020
1116.196 .0250996
1116.793 .0250960
1117.391 .0250910
1117.989 .0250842
1118.588 .0250752
1119.187 .0250605
1119.787 .0250426
1120.387 .0250207
1120.988 .0249978
1121.589 .0249764
1122.190 .0249568
1122.793 .0249403
1123.395 .0249294
1123.998 .0249225
1124.602 .0249222
1125.206 .0249240
1125.811 .0249274
1126.416 .0249264
1127.022 .0249209
1127.628 .0249073
1128.235 .0248868
1128.843 .0248638
1129.451 .0248416
1130.059 .0248219
1130.669 .0248100
1131.278 .0248045
1131.889 .0248078
1132.500 .0248159
1133.112 .0248269
1133.724 .0248406
1134.337 .0248599
1134.950 .0248802
1135.564 .0249065
1136.179 .0249425
1136.795 .0249964
1137.411 .0250641
1138.028 .0251455
1138.645 .0252374
1139.263 .0253380
1139.882 .0254405
1140.502 .0255494
1141.122 .0256540
1141.743 .0257520
1142.365 .0258463
1142.987 .0258811
1143.611 .0262358
1144.235 .0261829
1144.859 .0260061
1145.485 .0262055
