Measurement Sequence started on: 10-20-44-796
Integration time: 35
Scans to Average: 2 
>>>>>Begin Spectral Data<<<<<
432.953 .0263998
433.882 .0343840
434.810 .0330921
435.737 .0325504
436.662 .0336361
437.586 .0339442
438.509 .0342667
439.431 .0342483
440.351 .0341909
441.269 .0340915
442.187 .0339359
443.103 .0337343
444.018 .0335694
444.932 .0334295
445.844 .0333073
446.756 .0331836
447.666 .0330649
448.575 .0329528
449.482 .0328685
450.388 .0328173
451.294 .0327972
452.198 .0328035
453.100 .0328305
454.002 .0328649
454.902 .0328966
455.801 .0329201
456.699 .0329219
457.596 .0329124
458.492 .0328837
459.387 .0328430
460.280 .0327959
461.172 .0327350
462.064 .0326688
462.954 .0325988
463.843 .0325186
464.730 .0324313
465.617 .0323414
466.503 .0322498
467.387 .0321610
468.271 .0320824
469.153 .0320142
470.035 .0319545
470.915 .0319033
471.794 .0318591
472.673 .0318154
473.550 .0317783
474.426 .0317465
475.301 .0317176
476.175 .0316978
477.048 .0316841
477.920 .0316729
478.791 .0316631
479.661 .0316557
480.530 .0316425
481.398 .0316221
482.266 .0315955
483.132 .0315660
483.997 .0315350
484.861 .0315098
485.724 .0314959
486.587 .0314899
487.448 .0314964
488.308 .0315102
489.168 .0315209
490.026 .0315293
490.884 .0315285
491.741 .0315152
492.597 .0314929
493.452 .0314713
494.306 .0314488
495.159 .0314350
496.011 .0314322
496.862 .0314375
497.713 .0314415
498.562 .0314408
499.411 .0314262
500.259 .0313900
501.106 .0313314
501.952 .0312467
502.798 .0311433
503.642 .0310322
504.486 .0309121
505.329 .0307942
506.171 .0306775
507.012 .0305615
507.852 .0304371
508.692 .0303009
509.531 .0301511
510.369 .0299896
511.206 .0298140
512.043 .0296277
512.878 .0294312
513.713 .0292304
514.547 .0290308
515.381 .0288399
516.213 .0286554
517.045 .0284755
517.876 .0282981
518.706 .0281239
519.536 .0279452
520.365 .0277673
521.193 .0275853
522.020 .0273972
522.847 .0272038
523.673 .0269969
524.498 .0267775
525.323 .0265536
526.146 .0263279
526.969 .0261068
527.792 .0258909
528.614 .0256846
529.435 .0254865
530.255 .0253079
531.075 .0251484
531.894 .0250141
532.712 .0249026
533.530 .0248091
534.347 .0247355
535.163 .0246831
535.979 .0246590
536.794 .0246563
537.608 .0246763
538.422 .0247124
539.235 .0247666
540.048 .0248326
540.860 .0249001
541.671 .0249734
542.481 .0250516
543.292 .0251266
544.101 .0251959
544.910 .0252587
545.718 .0253249
546.526 .0253949
547.333 .0254738
548.139 .0255490
548.945 .0256308
549.750 .0257104
550.555 .0257913
551.359 .0258657
552.162 .0259363
552.965 .0260010
553.768 .0260656
554.569 .0261328
555.371 .0262067
556.171 .0262812
556.972 .0263598
557.771 .0264416
558.570 .0265262
559.369 .0266044
560.167 .0266823
560.964 .0267597
561.761 .0268449
562.558 .0269354
563.354 .0270369
564.149 .0271372
564.944 .0272458
565.738 .0273504
566.532 .0274417
567.325 .0275194
568.118 .0275861
568.910 .0276450
569.702 .0277014
570.494 .0277621
571.285 .0278265
572.075 .0278923
572.865 .0279640
573.654 .0280265
574.443 .0280816
575.232 .0281233
576.020 .0281513
576.807 .0281697
577.594 .0281854
578.381 .0282039
579.167 .0282323
579.952 .0282752
580.738 .0283317
581.522 .0283957
582.307 .0284648
583.091 .0285316
583.874 .0285934
584.657 .0286452
585.440 .0286891
586.222 .0287232
587.004 .0287510
587.785 .0287750
588.566 .0287990
589.346 .0288223
590.126 .0288452
590.906 .0288669
591.685 .0288858
592.464 .0289003
593.242 .0289104
594.020 .0289141
594.797 .0289149
595.575 .0289131
596.351 .0289109
597.128 .0289101
597.904 .0289102
598.679 .0289117
599.454 .0289138
600.229 .0289172
601.004 .0289199
601.778 .0289214
602.551 .0289215
603.325 .0289188
604.097 .0289133
604.870 .0289052
605.642 .0288946
606.414 .0288824
607.185 .0288699
607.956 .0288577
608.727 .0288461
609.497 .0288348
610.267 .0288231
611.037 .0288129
611.806 .0288024
612.575 .0287917
613.344 .0287803
614.112 .0287681
614.880 .0287560
615.647 .0287439
616.414 .0287336
617.181 .0287251
617.948 .0287185
618.714 .0287134
619.480 .0287089
620.245 .0287040
621.011 .0286973
621.775 .0286886
622.540 .0286782
623.304 .0286653
624.068 .0286503
624.832 .0286340
625.595 .0286170
626.358 .0285994
627.120 .0285818
627.883 .0285628
628.645 .0285435
629.406 .0285217
630.168 .0284981
630.929 .0284735
631.689 .0284493
632.450 .0284254
633.210 .0284026
633.970 .0283816
634.729 .0283612
635.489 .0283407
636.248 .0283199
637.006 .0282983
637.765 .0282764
638.523 .0282536
639.280 .0282306
640.038 .0282085
640.795 .0281887
641.552 .0281705
642.309 .0281554
643.065 .0281428
643.821 .0281308
644.577 .0281183
645.332 .0281058
646.088 .0280929
646.843 .0280801
647.597 .0280675
648.352 .0280549
649.106 .0280433
649.860 .0280324
650.613 .0280209
651.367 .0280096
652.120 .0279983
652.872 .0279856
653.625 .0279709
654.377 .0279552
655.129 .0279378
655.881 .0279193
656.632 .0279005
657.384 .0278813
658.135 .0278614
658.885 .0278416
659.636 .0278215
660.386 .0278012
661.136 .0277816
661.885 .0277627
662.635 .0277454
663.384 .0277304
664.133 .0277180
664.881 .0277077
665.630 .0276997
666.378 .0276943
667.126 .0276890
667.874 .0276841
668.621 .0276791
669.368 .0276729
670.115 .0276656
670.862 .0276573
671.608 .0276483
672.354 .0276389
673.100 .0276299
673.846 .0276214
674.591 .0276127
675.337 .0276043
676.082 .0275955
676.826 .0275858
677.571 .0275754
678.315 .0275637
679.059 .0275497
679.803 .0275350
680.547 .0275194
681.290 .0275025
682.033 .0274855
682.776 .0274689
683.518 .0274527
684.261 .0274373
685.003 .0274227
685.745 .0274089
686.487 .0273957
687.228 .0273838
687.969 .0273718
688.710 .0273599
689.451 .0273479
690.192 .0273352
690.932 .0273220
691.672 .0273084
692.412 .0272939
693.152 .0272789
693.891 .0272636
694.630 .0272480
695.369 .0272324
696.108 .0272170
696.846 .0272007
697.585 .0271845
698.323 .0271681
699.061 .0271519
699.798 .0271357
700.536 .0271192
701.273 .0271034
702.010 .0270881
702.746 .0270731
703.483 .0270582
704.219 .0270435
704.955 .0270295
705.691 .0270159
706.427 .0270027
707.162 .0269894
707.897 .0269760
708.632 .0269629
709.367 .0269492
710.101 .0269342
710.835 .0269176
711.569 .0268991
712.303 .0268789
713.037 .0268580
713.770 .0268361
714.503 .0268142
715.236 .0267934
715.969 .0267739
716.702 .0267560
717.434 .0267398
718.166 .0267254
718.898 .0267120
719.629 .0266999
720.361 .0266890
721.092 .0266785
721.823 .0266686
722.554 .0266591
723.284 .0266498
724.014 .0266402
724.744 .0266295
725.474 .0266170
726.204 .0266031
726.933 .0265873
727.662 .0265695
728.391 .0265500
729.120 .0265296
729.849 .0265088
730.577 .0264876
731.305 .0264660
732.033 .0264445
732.760 .0264228
733.488 .0264015
734.215 .0263795
734.942 .0263578
735.669 .0263361
736.395 .0263142
737.122 .0262926
737.848 .0262717
738.573 .0262517
739.299 .0262324
740.024 .0262139
740.750 .0261957
741.474 .0261775
742.199 .0261591
742.924 .0261399
743.648 .0261202
744.372 .0261002
745.096 .0260801
745.819 .0260596
746.543 .0260401
747.266 .0260213
747.989 .0260039
748.711 .0259888
749.434 .0259753
750.156 .0259637
750.878 .0259538
751.599 .0259454
752.321 .0259384
753.042 .0259327
753.763 .0259278
754.484 .0259231
755.205 .0259187
755.925 .0259146
756.645 .0259104
757.365 .0259063
758.085 .0259018
758.804 .0258968
759.523 .0258912
760.242 .0258842
760.961 .0258756
761.679 .0258654
762.397 .0258529
763.115 .0258378
763.833 .0258201
764.551 .0258002
765.268 .0257785
765.985 .0257558
766.702 .0257331
767.418 .0257110
768.134 .0256905
768.850 .0256717
769.566 .0256543
770.282 .0256388
770.997 .0256241
771.712 .0256093
772.427 .0255945
773.142 .0255795
773.856 .0255645
774.570 .0255500
775.284 .0255362
775.998 .0255240
776.711 .0255131
777.424 .0255039
778.137 .0254954
778.849 .0254867
779.562 .0254775
780.274 .0254664
780.986 .0254537
781.697 .0254390
782.409 .0254232
783.120 .0254077
783.831 .0253933
784.541 .0253808
785.252 .0253703
785.962 .0253618
786.671 .0253553
787.381 .0253498
788.090 .0253448
788.799 .0253397
789.508 .0253341
790.217 .0253279
790.925 .0253214
791.633 .0253141
792.341 .0253066
793.048 .0252985
793.755 .0252893
794.462 .0252783
795.169 .0252653
795.875 .0252509
796.581 .0252348
797.287 .0252176
797.993 .0251996
798.698 .0251811
799.403 .0251627
800.108 .0251443
800.812 .0251263
801.517 .0251092
802.221 .0250932
802.924 .0250785
803.628 .0250658
804.331 .0250557
805.034 .0250476
805.736 .0250414
806.439 .0250363
807.141 .0250322
807.843 .0250277
808.544 .0250228
809.245 .0250167
809.946 .0250100
810.647 .0250030
811.347 .0249957
812.047 .0249888
812.747 .0249825
813.447 .0249762
814.146 .0249697
814.845 .0249626
815.543 .0249547
816.242 .0249456
816.940 .0249359
817.638 .0249253
818.335 .0249151
819.032 .0249051
819.729 .0248959
820.426 .0248876
821.122 .0248807
821.818 .0248739
822.514 .0248663
823.209 .0248579
823.905 .0248478
824.599 .0248357
825.294 .0248219
825.988 .0248061
826.682 .0247894
827.376 .0247722
828.069 .0247548
828.762 .0247369
829.455 .0247195
830.147 .0247022
830.840 .0246850
831.531 .0246677
832.223 .0246506
832.914 .0246330
833.605 .0246152
834.296 .0245977
834.986 .0245806
835.676 .0245644
836.366 .0245490
837.055 .0245344
837.744 .0245206
838.433 .0245072
839.121 .0244941
839.809 .0244807
840.497 .0244677
841.185 .0244552
841.872 .0244429
842.559 .0244314
843.245 .0244213
843.932 .0244127
844.617 .0244056
845.303 .0243994
845.988 .0243938
846.673 .0243876
847.358 .0243809
848.042 .0243732
848.726 .0243643
849.410 .0243549
850.093 .0243452
850.776 .0243353
851.459 .0243261
852.141 .0243169
852.823 .0243075
853.505 .0242977
854.186 .0242870
854.867 .0242746
855.548 .0242604
856.228 .0242451
856.908 .0242295
857.588 .0242145
858.267 .0242011
858.946 .0241890
859.625 .0241788
860.303 .0241702
860.981 .0241621
861.659 .0241541
862.336 .0241449
863.013 .0241345
863.690 .0241231
864.366 .0241108
865.042 .0240977
865.718 .0240851
866.393 .0240735
867.068 .0240629
867.743 .0240531
868.417 .0240436
869.091 .0240339
869.765 .0240239
870.438 .0240128
871.111 .0240003
871.783 .0239874
872.456 .0239742
873.127 .0239606
873.799 .0239477
874.470 .0239351
875.141 .0239227
875.811 .0239105
876.481 .0238982
877.151 .0238854
877.820 .0238722
878.489 .0238584
879.158 .0238444
879.826 .0238306
880.494 .0238169
881.162 .0238031
881.829 .0237899
882.496 .0237777
883.163 .0237661
883.829 .0237556
884.495 .0237463
885.160 .0237383
885.825 .0237318
886.490 .0237271
887.154 .0237240
887.818 .0237223
888.482 .0237212
889.145 .0237201
889.808 .0237182
890.471 .0237153
891.133 .0237113
891.795 .0237061
892.456 .0237004
893.117 .0236944
893.778 .0236881
894.439 .0236820
895.099 .0236757
895.758 .0236695
896.417 .0236629
897.076 .0236549
897.735 .0236454
898.393 .0236345
899.051 .0236230
899.708 .0236113
900.365 .0236000
901.022 .0235898
901.678 .0235811
902.334 .0235737
902.990 .0235673
903.645 .0235611
904.300 .0235558
904.954 .0235501
905.608 .0235433
906.262 .0235355
906.915 .0235271
907.568 .0235183
908.221 .0235099
908.873 .0235015
909.525 .0234936
910.176 .0234860
910.828 .0234788
911.478 .0234714
912.129 .0234637
912.778 .0234559
913.428 .0234481
914.077 .0234402
914.726 .0234333
915.375 .0234270
916.023 .0234218
916.670 .0234180
917.318 .0234151
917.964 .0234123
918.611 .0234098
919.257 .0234072
919.903 .0234043
920.548 .0234009
921.193 .0233977
921.838 .0233944
922.482 .0233920
923.126 .0233910
923.770 .0233906
924.413 .0233905
925.056 .0233912
925.698 .0233911
926.340 .0233897
926.982 .0233869
927.623 .0233825
928.264 .0233766
928.904 .0233705
929.544 .0233634
930.184 .0233560
930.823 .0233489
931.462 .0233417
932.101 .0233338
932.739 .0233253
933.377 .0233157
934.014 .0233040
934.651 .0232909
935.288 .0232768
935.924 .0232617
936.560 .0232471
937.196 .0232337
937.831 .0232216
938.466 .0232111
939.100 .0232025
939.734 .0231947
940.368 .0231873
941.001 .0231799
941.634 .0231714
942.266 .0231622
942.899 .0231514
943.530 .0231393
944.162 .0231266
944.793 .0231135
945.423 .0231002
946.053 .0230860
946.683 .0230719
947.313 .0230573
947.942 .0230417
948.571 .0230253
949.199 .0230076
949.827 .0229887
950.455 .0229689
951.082 .0229487
951.709 .0229289
952.335 .0229104
952.961 .0228934
953.587 .0228781
954.212 .0228650
954.837 .0228533
955.462 .0228427
956.086 .0228327
956.710 .0228239
957.334 .0228153
957.957 .0228064
958.579 .0227980
959.202 .0227896
959.824 .0227820
960.445 .0227746
961.067 .0227672
961.688 .0227605
962.308 .0227543
962.928 .0227483
963.548 .0227425
964.168 .0227374
964.787 .0227322
965.406 .0227266
966.024 .0227207
966.642 .0227142
967.260 .0227063
967.877 .0226977
968.494 .0226888
969.110 .0226796
969.727 .0226706
970.342 .0226619
970.958 .0226540
971.573 .0226475
972.188 .0226417
972.802 .0226368
973.416 .0226325
974.030 .0226283
974.643 .0226235
975.256 .0226175
975.869 .0226110
976.481 .0226035
977.093 .0225958
977.705 .0225892
978.316 .0225833
978.927 .0225785
979.538 .0225740
980.148 .0225703
980.758 .0225668
981.367 .0225619
981.977 .0225562
982.586 .0225492
983.194 .0225414
983.802 .0225330
984.410 .0225238
985.018 .0225157
985.625 .0225092
986.232 .0225035
986.838 .0224988
987.445 .0224951
988.050 .0224922
988.656 .0224888
989.261 .0224847
989.866 .0224800
990.471 .0224738
991.075 .0224663
991.679 .0224579
992.282 .0224482
992.886 .0224385
993.489 .0224286
994.091 .0224190
994.694 .0224105
995.296 .0224025
995.897 .0223955
996.499 .0223892
997.100 .0223839
997.701 .0223796
998.301 .0223752
998.901 .0223717
999.501 .0223688
1000.101 .0223665
1000.700 .0223651
1001.299 .0223640
1001.898 .0223637
1002.496 .0223634
1003.094 .0223631
1003.692 .0223616
1004.289 .0223582
1004.887 .0223534
1005.484 .0223465
1006.080 .0223381
1006.677 .0223294
1007.273 .0223207
1007.868 .0223121
1008.464 .0223047
1009.059 .0222983
1009.654 .0222928
1010.249 .0222880
1010.843 .0222843
1011.437 .0222812
1012.031 .0222786
1012.625 .0222774
1013.218 .0222764
1013.811 .0222771
1014.404 .0222798
1014.997 .0222837
1015.589 .0222893
1016.181 .0222959
1016.773 .0223020
1017.365 .0223074
1017.956 .0223112
1018.547 .0223133
1019.138 .0223124
1019.728 .0223096
1020.319 .0223048
1020.909 .0222992
1021.499 .0222937
1022.088 .0222892
1022.678 .0222852
1023.267 .0222828
1023.856 .0222800
1024.445 .0222776
1025.033 .0222745
1025.621 .0222696
1026.209 .0222636
1026.797 .0222568
1027.385 .0222493
1027.972 .0222424
1028.560 .0222366
1029.147 .0222339
1029.734 .0222334
1030.320 .0222350
1030.907 .0222365
1031.493 .0222378
1032.079 .0222389
1032.665 .0222384
1033.250 .0222360
1033.836 .0222338
1034.421 .0222314
1035.006 .0222301
1035.591 .0222305
1036.176 .0222320
1036.761 .0222340
1037.345 .0222361
1037.929 .0222366
1038.514 .0222345
1039.097 .0222287
1039.681 .0222204
1040.265 .0222098
1040.848 .0221990
1041.432 .0221880
1042.015 .0221771
1042.598 .0221681
1043.181 .0221604
1043.764 .0221525
1044.346 .0221452
1044.929 .0221377
1045.511 .0221305
1046.094 .0221238
1046.676 .0221186
1047.258 .0221159
1047.840 .0221156
1048.422 .0221175
1049.003 .0221210
1049.585 .0221258
1050.166 .0221305
1050.748 .0221338
1051.329 .0221354
1051.910 .0221367
1052.491 .0221376
1053.072 .0221383
1053.653 .0221395
1054.234 .0221414
1054.815 .0221437
1055.396 .0221447
1055.976 .0221436
1056.557 .0221406
1057.138 .0221341
1057.718 .0221254
1058.298 .0221136
1058.879 .0220999
1059.459 .0220852
1060.039 .0220699
1060.620 .0220534
1061.200 .0220366
1061.780 .0220191
1062.360 .0219999
1062.940 .0219808
1063.520 .0219617
1064.101 .0219439
1064.681 .0219276
1065.261 .0219127
1065.841 .0219002
1066.421 .0218888
1067.001 .0218782
1067.581 .0218666
1068.161 .0218551
1068.741 .0218452
1069.321 .0218353
1069.901 .0218273
1070.482 .0218212
1071.062 .0218177
1071.642 .0218153
1072.222 .0218129
1072.803 .0218107
1073.383 .0218074
1073.963 .0218008
1074.544 .0217910
1075.124 .0217780
1075.705 .0217611
1076.286 .0217421
1076.866 .0217212
1077.447 .0217004
1078.028 .0216807
1078.609 .0216616
1079.190 .0216435
1079.771 .0216284
1080.352 .0216152
1080.934 .0216033
1081.515 .0215936
1082.097 .0215879
1082.679 .0215846
1083.260 .0215863
1083.842 .0215925
1084.424 .0216041
1085.007 .0216208
1085.589 .0216411
1086.172 .0216615
1086.754 .0216838
1087.337 .0217067
1087.920 .0217293
1088.503 .0217515
1089.087 .0217762
1089.670 .0217990
1090.254 .0218224
1090.838 .0218459
1091.422 .0218665
1092.006 .0218839
1092.590 .0218967
1093.175 .0219028
1093.760 .0219036
1094.345 .0218983
1094.930 .0218905
1095.516 .0218808
1096.102 .0218735
1096.688 .0218668
1097.274 .0218626
1097.860 .0218607
1098.447 .0218594
1099.034 .0218569
1099.622 .0218534
1100.209 .0218483
1100.797 .0218432
1101.385 .0218385
1101.973 .0218368
1102.562 .0218410
1103.151 .0218504
1103.740 .0218618
1104.330 .0218777
1104.920 .0218950
1105.510 .0219119
1106.101 .0219273
1106.691 .0219413
1107.283 .0219523
1107.874 .0219610
1108.466 .0219692
1109.058 .0219760
1109.651 .0219837
1110.244 .0219906
1110.837 .0219955
1111.431 .0219992
1112.025 .0219996
1112.620 .0219958
1113.215 .0219874
1113.810 .0219795
1114.406 .0219713
1115.002 .0219601
1115.599 .0219505
1116.196 .0219425
1116.793 .0219363
1117.391 .0219305
1117.989 .0219250
1118.588 .0219178
1119.187 .0219112
1119.787 .0219064
1120.387 .0219026
1120.988 .0218993
1121.589 .0218991
1122.190 .0218965
1122.793 .0218876
1123.395 .0218735
1123.998 .0218523
1124.602 .0218244
1125.206 .0217991
1125.811 .0217781
1126.416 .0217651
1127.022 .0217619
1127.628 .0217705
1128.235 .0217878
1128.843 .0218129
1129.451 .0218362
1130.059 .0218554
1130.669 .0218708
1131.278 .0218858
1131.889 .0219028
1132.500 .0219270
1133.112 .0219666
1133.724 .0220192
1134.337 .0220832
1134.950 .0221529
1135.564 .0222192
1136.179 .0222812
1136.795 .0223322
1137.411 .0223710
1138.028 .0224005
1138.645 .0224246
1139.263 .0224532
1139.882 .0224889
1140.502 .0225296
1141.122 .0225825
1141.743 .0226453
1142.365 .0227169
1142.987 .0228422
1143.611 .0226885
1144.235 .0229485
1144.859 .0230857
1145.485 .0231756
