Measurement Sequence started on: 10-20-44-796
Integration time: 35
Scans to Average: 2 
>>>>>Begin Spectral Data<<<<<
432.953 .0222990
433.882 .0325323
434.810 .0349287
435.737 .0361440
436.662 .0365980
437.586 .0360353
438.509 .0367591
439.431 .0369963
440.351 .0370846
441.269 .0371107
442.187 .0371032
443.103 .0370738
444.018 .0370537
444.932 .0370305
445.844 .0369953
446.756 .0369392
447.666 .0368807
448.575 .0368083
449.482 .0367380
450.388 .0366810
451.294 .0366262
452.198 .0365868
453.100 .0365510
454.002 .0365295
454.902 .0365091
455.801 .0364883
456.699 .0364644
457.596 .0364358
458.492 .0364024
459.387 .0363634
460.280 .0363157
461.172 .0362665
462.064 .0362147
462.954 .0361577
463.843 .0361000
464.730 .0360422
465.617 .0359835
466.503 .0359228
467.387 .0358612
468.271 .0357987
469.153 .0357343
470.035 .0356706
470.915 .0356077
471.794 .0355482
472.673 .0354926
473.550 .0354498
474.426 .0354164
475.301 .0353973
476.175 .0353896
477.048 .0353903
477.920 .0353952
478.791 .0354003
479.661 .0354057
480.530 .0354107
481.398 .0354140
482.266 .0354184
483.132 .0354229
483.997 .0354287
484.861 .0354367
485.724 .0354485
486.587 .0354619
487.448 .0354748
488.308 .0354786
489.168 .0354729
490.026 .0354535
490.884 .0354210
491.741 .0353737
492.597 .0353154
493.452 .0352503
494.306 .0351778
495.159 .0351006
496.011 .0350230
496.862 .0349458
497.713 .0348686
498.562 .0347875
499.411 .0347038
500.259 .0346144
501.106 .0345176
501.952 .0344175
502.798 .0343182
503.642 .0342227
504.486 .0341320
505.329 .0340473
506.171 .0339701
507.012 .0339005
507.852 .0338336
508.692 .0337639
509.531 .0336882
510.369 .0336062
511.206 .0335134
512.043 .0334097
512.878 .0332998
513.713 .0331803
514.547 .0330546
515.381 .0329260
516.213 .0327934
517.045 .0326559
517.876 .0325130
518.706 .0323631
519.536 .0322100
520.365 .0320512
521.193 .0318866
522.020 .0317174
522.847 .0315505
523.673 .0313891
524.498 .0312337
525.323 .0310849
526.146 .0309470
526.969 .0308195
527.792 .0307021
528.614 .0305824
529.435 .0304633
530.255 .0303388
531.075 .0302082
531.894 .0300708
532.712 .0299282
533.530 .0297779
534.347 .0296313
535.163 .0294911
535.979 .0293633
536.794 .0292517
537.608 .0291590
538.422 .0290835
539.235 .0290294
540.048 .0289827
540.860 .0289436
541.671 .0289104
542.481 .0288891
543.292 .0288707
544.101 .0288553
544.910 .0288451
545.718 .0288433
546.526 .0288549
547.333 .0288793
548.139 .0289104
548.945 .0289539
549.750 .0290053
550.555 .0290591
551.359 .0291161
552.162 .0291732
552.965 .0292290
553.768 .0292846
554.569 .0293372
555.371 .0293856
556.171 .0294309
556.972 .0294787
557.771 .0295268
558.570 .0295743
559.369 .0296230
560.167 .0296696
560.964 .0297123
561.761 .0297526
562.558 .0297898
563.354 .0298276
564.149 .0298652
564.944 .0299026
565.738 .0299422
566.532 .0299836
567.325 .0300269
568.118 .0300713
568.910 .0301177
569.702 .0301665
570.494 .0302158
571.285 .0302658
572.075 .0303178
572.865 .0303723
573.654 .0304291
574.443 .0304849
575.232 .0305420
576.020 .0305988
576.807 .0306551
577.594 .0307106
578.381 .0307648
579.167 .0308166
579.952 .0308659
580.738 .0309145
581.522 .0309616
582.307 .0310066
583.091 .0310523
583.874 .0310982
584.657 .0311450
585.440 .0311936
586.222 .0312418
587.004 .0312898
587.785 .0313371
588.566 .0313821
589.346 .0314223
590.126 .0314590
590.906 .0314912
591.685 .0315200
592.464 .0315449
593.242 .0315666
594.020 .0315825
594.797 .0315953
595.575 .0316034
596.351 .0316061
597.128 .0316043
597.904 .0315976
598.679 .0315867
599.454 .0315731
600.229 .0315571
601.004 .0315408
601.778 .0315243
602.551 .0315091
603.325 .0314942
604.097 .0314802
604.870 .0314659
605.642 .0314504
606.414 .0314338
607.185 .0314158
607.956 .0313965
608.727 .0313765
609.497 .0313564
610.267 .0313363
611.037 .0313168
611.806 .0312976
612.575 .0312774
613.344 .0312564
614.112 .0312339
614.880 .0312090
615.647 .0311820
616.414 .0311532
617.181 .0311233
617.948 .0310928
618.714 .0310633
619.480 .0310351
620.245 .0310088
621.011 .0309841
621.775 .0309608
622.540 .0309380
623.304 .0309161
624.068 .0308945
624.832 .0308728
625.595 .0308519
626.358 .0308314
627.120 .0308112
627.883 .0307914
628.645 .0307721
629.406 .0307533
630.168 .0307341
630.929 .0307145
631.689 .0306940
632.450 .0306715
633.210 .0306481
633.970 .0306229
634.729 .0305968
635.489 .0305695
636.248 .0305404
637.006 .0305102
637.765 .0304789
638.523 .0304464
639.280 .0304132
640.038 .0303795
640.795 .0303469
641.552 .0303155
642.309 .0302855
643.065 .0302576
643.821 .0302321
644.577 .0302090
645.332 .0301878
646.088 .0301675
646.843 .0301485
647.597 .0301304
648.352 .0301139
649.106 .0301002
649.860 .0300886
650.613 .0300798
651.367 .0300729
652.120 .0300681
652.872 .0300632
653.625 .0300578
654.377 .0300511
655.129 .0300423
655.881 .0300315
656.632 .0300189
657.384 .0300043
658.135 .0299895
658.885 .0299746
659.636 .0299598
660.386 .0299443
661.136 .0299286
661.885 .0299116
662.635 .0298940
663.384 .0298759
664.133 .0298578
664.881 .0298391
665.630 .0298217
666.378 .0298045
667.126 .0297880
667.874 .0297719
668.621 .0297565
669.368 .0297408
670.115 .0297253
670.862 .0297093
671.608 .0296938
672.354 .0296787
673.100 .0296646
673.846 .0296511
674.591 .0296384
675.337 .0296262
676.082 .0296142
676.826 .0296020
677.571 .0295903
678.315 .0295785
679.059 .0295672
679.803 .0295556
680.547 .0295448
681.290 .0295346
682.033 .0295244
682.776 .0295146
683.518 .0295044
684.261 .0294933
685.003 .0294815
685.745 .0294691
686.487 .0294557
687.228 .0294415
687.969 .0294265
688.710 .0294106
689.451 .0293941
690.192 .0293774
690.932 .0293605
691.672 .0293438
692.412 .0293278
693.152 .0293120
693.891 .0292960
694.630 .0292802
695.369 .0292639
696.108 .0292474
696.846 .0292303
697.585 .0292123
698.323 .0291936
699.061 .0291746
699.798 .0291553
700.536 .0291352
701.273 .0291142
702.010 .0290925
702.746 .0290689
703.483 .0290440
704.219 .0290175
704.955 .0289897
705.691 .0289619
706.427 .0289339
707.162 .0289064
707.897 .0288804
708.632 .0288556
709.367 .0288320
710.101 .0288096
710.835 .0287883
711.569 .0287671
712.303 .0287458
713.037 .0287249
713.770 .0287041
714.503 .0286840
715.236 .0286647
715.969 .0286461
716.702 .0286285
717.434 .0286116
718.166 .0285935
718.898 .0285744
719.629 .0285539
720.361 .0285315
721.092 .0285076
721.823 .0284824
722.554 .0284563
723.284 .0284299
724.014 .0284035
724.744 .0283770
725.474 .0283504
726.204 .0283239
726.933 .0282966
727.662 .0282687
728.391 .0282405
729.120 .0282119
729.849 .0281836
730.577 .0281565
731.305 .0281306
732.033 .0281062
732.760 .0280834
733.488 .0280622
734.215 .0280426
734.942 .0280244
735.669 .0280068
736.395 .0279903
737.122 .0279744
737.848 .0279588
738.573 .0279432
739.299 .0279282
740.024 .0279135
740.750 .0278985
741.474 .0278833
742.199 .0278677
742.924 .0278516
743.648 .0278353
744.372 .0278179
745.096 .0278006
745.819 .0277824
746.543 .0277636
747.266 .0277441
747.989 .0277245
748.711 .0277054
749.434 .0276873
750.156 .0276709
750.878 .0276563
751.599 .0276439
752.321 .0276341
753.042 .0276265
753.763 .0276215
754.484 .0276181
755.205 .0276159
755.925 .0276142
756.645 .0276128
757.365 .0276104
758.085 .0276080
758.804 .0276045
759.523 .0275998
760.242 .0275937
760.961 .0275859
761.679 .0275767
762.397 .0275657
763.115 .0275532
763.833 .0275391
764.551 .0275231
765.268 .0275057
765.985 .0274867
766.702 .0274672
767.418 .0274476
768.134 .0274285
768.850 .0274102
769.566 .0273930
770.282 .0273769
770.997 .0273620
771.712 .0273483
772.427 .0273360
773.142 .0273246
773.856 .0273135
774.570 .0273032
775.284 .0272932
775.998 .0272835
776.711 .0272740
777.424 .0272647
778.137 .0272552
778.849 .0272453
779.562 .0272350
780.274 .0272240
780.986 .0272131
781.697 .0272023
782.409 .0271920
783.120 .0271832
783.831 .0271760
784.541 .0271703
785.252 .0271663
785.962 .0271636
786.671 .0271619
787.381 .0271606
788.090 .0271595
788.799 .0271580
789.508 .0271560
790.217 .0271536
790.925 .0271507
791.633 .0271474
792.341 .0271437
793.048 .0271393
793.755 .0271340
794.462 .0271270
795.169 .0271186
795.875 .0271085
796.581 .0270969
797.287 .0270844
797.993 .0270709
798.698 .0270573
799.403 .0270438
800.108 .0270304
800.812 .0270173
801.517 .0270042
802.221 .0269916
802.924 .0269789
803.628 .0269660
804.331 .0269536
805.034 .0269416
805.736 .0269304
806.439 .0269199
807.141 .0269099
807.843 .0269006
808.544 .0268916
809.245 .0268825
809.946 .0268732
810.647 .0268633
811.347 .0268537
812.047 .0268435
812.747 .0268333
813.447 .0268230
814.146 .0268128
814.845 .0268030
815.543 .0267934
816.242 .0267841
816.940 .0267752
817.638 .0267662
818.335 .0267570
819.032 .0267473
819.729 .0267371
820.426 .0267259
821.122 .0267134
821.818 .0266995
822.514 .0266846
823.209 .0266680
823.905 .0266506
824.599 .0266327
825.294 .0266146
825.988 .0265964
826.682 .0265775
827.376 .0265582
828.069 .0265384
828.762 .0265176
829.455 .0264957
830.147 .0264727
830.840 .0264495
831.531 .0264259
832.223 .0264026
832.914 .0263802
833.605 .0263590
834.296 .0263389
834.986 .0263201
835.676 .0263018
836.366 .0262841
837.055 .0262665
837.744 .0262491
838.433 .0262318
839.121 .0262149
839.809 .0261980
840.497 .0261817
841.185 .0261660
841.872 .0261510
842.559 .0261361
843.245 .0261217
843.932 .0261072
844.617 .0260927
845.303 .0260781
845.988 .0260635
846.673 .0260490
847.358 .0260351
848.042 .0260213
848.726 .0260078
849.410 .0259945
850.093 .0259812
850.776 .0259674
851.459 .0259533
852.141 .0259385
852.823 .0259230
853.505 .0259076
854.186 .0258920
854.867 .0258761
855.548 .0258606
856.228 .0258449
856.908 .0258291
857.588 .0258130
858.267 .0257966
858.946 .0257793
859.625 .0257618
860.303 .0257434
860.981 .0257241
861.659 .0257043
862.336 .0256840
863.013 .0256631
863.690 .0256421
864.366 .0256209
865.042 .0255998
865.718 .0255788
866.393 .0255583
867.068 .0255380
867.743 .0255185
868.417 .0254997
869.091 .0254815
869.765 .0254641
870.438 .0254476
871.111 .0254320
871.783 .0254175
872.456 .0254041
873.127 .0253916
873.799 .0253796
874.470 .0253682
875.141 .0253570
875.811 .0253458
876.481 .0253345
877.151 .0253230
877.820 .0253113
878.489 .0252989
879.158 .0252858
879.826 .0252718
880.494 .0252570
881.162 .0252412
881.829 .0252252
882.496 .0252088
883.163 .0251925
883.829 .0251768
884.495 .0251616
885.160 .0251475
885.825 .0251348
886.490 .0251232
887.154 .0251130
887.818 .0251036
888.482 .0250954
889.145 .0250874
889.808 .0250807
890.471 .0250752
891.133 .0250707
891.795 .0250673
892.456 .0250649
893.117 .0250632
893.778 .0250617
894.439 .0250598
895.099 .0250575
895.758 .0250543
896.417 .0250502
897.076 .0250451
897.735 .0250392
898.393 .0250329
899.051 .0250265
899.708 .0250199
900.365 .0250130
901.022 .0250058
901.678 .0249978
902.334 .0249894
902.990 .0249804
903.645 .0249708
904.300 .0249613
904.954 .0249525
905.608 .0249440
906.262 .0249363
906.915 .0249297
907.568 .0249238
908.221 .0249181
908.873 .0249133
909.525 .0249083
910.176 .0249037
910.828 .0248994
911.478 .0248958
912.129 .0248925
912.778 .0248903
913.428 .0248887
914.077 .0248870
914.726 .0248856
915.375 .0248836
916.023 .0248809
916.670 .0248784
917.318 .0248757
917.964 .0248730
918.611 .0248710
919.257 .0248698
919.903 .0248686
920.548 .0248676
921.193 .0248667
921.838 .0248658
922.482 .0248647
923.126 .0248638
923.770 .0248628
924.413 .0248622
925.056 .0248627
925.698 .0248638
926.340 .0248659
926.982 .0248683
927.623 .0248708
928.264 .0248734
928.904 .0248750
929.544 .0248759
930.184 .0248760
930.823 .0248754
931.462 .0248742
932.101 .0248723
932.739 .0248698
933.377 .0248665
934.014 .0248624
934.651 .0248573
935.288 .0248506
935.924 .0248427
936.560 .0248337
937.196 .0248240
937.831 .0248142
938.466 .0248041
939.100 .0247941
939.734 .0247846
940.368 .0247752
941.001 .0247659
941.634 .0247566
942.266 .0247470
942.899 .0247368
943.530 .0247260
944.162 .0247149
944.793 .0247037
945.423 .0246928
946.053 .0246821
946.683 .0246716
947.313 .0246614
947.942 .0246508
948.571 .0246399
949.199 .0246280
949.827 .0246150
950.455 .0246007
951.082 .0245859
951.709 .0245706
952.335 .0245555
952.961 .0245415
953.587 .0245284
954.212 .0245163
954.837 .0245049
955.462 .0244937
956.086 .0244829
956.710 .0244727
957.334 .0244624
957.957 .0244524
958.579 .0244431
959.202 .0244343
959.824 .0244262
960.445 .0244194
961.067 .0244133
961.688 .0244080
962.308 .0244031
962.928 .0243987
963.548 .0243940
964.168 .0243896
964.787 .0243851
965.406 .0243806
966.024 .0243765
966.642 .0243722
967.260 .0243679
967.877 .0243641
968.494 .0243598
969.110 .0243549
969.727 .0243488
970.342 .0243421
970.958 .0243339
971.573 .0243251
972.188 .0243159
972.802 .0243063
973.416 .0242968
974.030 .0242873
974.643 .0242776
975.256 .0242686
975.869 .0242599
976.481 .0242517
977.093 .0242438
977.705 .0242370
978.316 .0242311
978.927 .0242262
979.538 .0242223
980.148 .0242193
980.758 .0242164
981.367 .0242137
981.977 .0242106
982.586 .0242074
983.194 .0242037
983.802 .0242000
984.410 .0241959
985.018 .0241915
985.625 .0241868
986.232 .0241819
986.838 .0241761
987.445 .0241696
988.050 .0241623
988.656 .0241539
989.261 .0241446
989.866 .0241346
990.471 .0241244
991.075 .0241142
991.679 .0241043
992.282 .0240951
992.886 .0240865
993.489 .0240797
994.091 .0240740
994.694 .0240698
995.296 .0240670
995.897 .0240648
996.499 .0240626
997.100 .0240598
997.701 .0240567
998.301 .0240523
998.901 .0240470
999.501 .0240415
1000.101 .0240359
1000.700 .0240307
1001.299 .0240253
1001.898 .0240199
1002.496 .0240143
1003.094 .0240074
1003.692 .0239987
1004.289 .0239883
1004.887 .0239772
1005.484 .0239651
1006.080 .0239527
1006.677 .0239409
1007.273 .0239300
1007.868 .0239198
1008.464 .0239105
1009.059 .0239014
1009.654 .0238926
1010.249 .0238837
1010.843 .0238743
1011.437 .0238656
1012.031 .0238577
1012.625 .0238504
1013.218 .0238440
1013.811 .0238388
1014.404 .0238340
1014.997 .0238291
1015.589 .0238239
1016.181 .0238181
1016.773 .0238110
1017.365 .0238035
1017.956 .0237953
1018.547 .0237870
1019.138 .0237790
1019.728 .0237705
1020.319 .0237624
1020.909 .0237545
1021.499 .0237462
1022.088 .0237379
1022.678 .0237299
1023.267 .0237232
1023.856 .0237164
1024.445 .0237103
1025.033 .0237040
1025.621 .0236985
1026.209 .0236932
1026.797 .0236878
1027.385 .0236816
1027.972 .0236757
1028.560 .0236701
1029.147 .0236644
1029.734 .0236588
1030.320 .0236535
1030.907 .0236481
1031.493 .0236435
1032.079 .0236378
1032.665 .0236322
1033.250 .0236253
1033.836 .0236184
1034.421 .0236103
1035.006 .0236012
1035.591 .0235908
1036.176 .0235798
1036.761 .0235685
1037.345 .0235575
1037.929 .0235461
1038.514 .0235351
1039.097 .0235247
1039.681 .0235160
1040.265 .0235080
1040.848 .0235012
1041.432 .0234951
1042.015 .0234902
1042.598 .0234844
1043.181 .0234786
1043.764 .0234724
1044.346 .0234665
1044.929 .0234605
1045.511 .0234546
1046.094 .0234487
1046.676 .0234438
1047.258 .0234397
1047.840 .0234364
1048.422 .0234331
1049.003 .0234301
1049.585 .0234253
1050.166 .0234198
1050.748 .0234133
1051.329 .0234053
1051.910 .0233964
1052.491 .0233864
1053.072 .0233756
1053.653 .0233637
1054.234 .0233510
1054.815 .0233385
1055.396 .0233260
1055.976 .0233136
1056.557 .0233008
1057.138 .0232881
1057.718 .0232761
1058.298 .0232645
1058.879 .0232536
1059.459 .0232430
1060.039 .0232325
1060.620 .0232210
1061.200 .0232086
1061.780 .0231939
1062.360 .0231782
1062.940 .0231614
1063.520 .0231442
1064.101 .0231275
1064.681 .0231128
1065.261 .0231001
1065.841 .0230884
1066.421 .0230784
1067.001 .0230692
1067.581 .0230587
1068.161 .0230484
1068.741 .0230383
1069.321 .0230282
1069.901 .0230191
1070.482 .0230129
1071.062 .0230088
1071.642 .0230086
1072.222 .0230120
1072.803 .0230172
1073.383 .0230243
1073.963 .0230324
1074.544 .0230387
1075.124 .0230429
1075.705 .0230458
1076.286 .0230465
1076.866 .0230434
1077.447 .0230381
1078.028 .0230306
1078.609 .0230196
1079.190 .0230084
1079.771 .0229958
1080.352 .0229830
1080.934 .0229700
1081.515 .0229571
1082.097 .0229460
1082.679 .0229356
1083.260 .0229257
1083.842 .0229182
1084.424 .0229115
1085.007 .0229073
1085.589 .0229030
1086.172 .0228996
1086.754 .0228975
1087.337 .0228974
1087.920 .0228960
1088.503 .0228935
1089.087 .0228893
1089.670 .0228834
1090.254 .0228724
1090.838 .0228600
1091.422 .0228468
1092.006 .0228315
1092.590 .0228172
1093.175 .0228050
1093.760 .0227933
1094.345 .0227836
1094.930 .0227741
1095.516 .0227664
1096.102 .0227599
1096.688 .0227552
1097.274 .0227515
1097.860 .0227496
1098.447 .0227517
1099.034 .0227545
1099.622 .0227568
1100.209 .0227608
1100.797 .0227646
1101.385 .0227650
1101.973 .0227639
1102.562 .0227617
1103.151 .0227592
1103.740 .0227560
1104.330 .0227552
1104.920 .0227554
1105.510 .0227576
1106.101 .0227595
1106.691 .0227589
1107.283 .0227568
1107.874 .0227535
1108.466 .0227473
1109.058 .0227415
1109.651 .0227385
1110.244 .0227408
1110.837 .0227473
1111.431 .0227613
1112.025 .0227796
1112.620 .0228018
1113.215 .0228249
1113.810 .0228480
1114.406 .0228694
1115.002 .0228897
1115.599 .0229078
1116.196 .0229253
1116.793 .0229439
1117.391 .0229620
1117.989 .0229788
1118.588 .0229971
1119.187 .0230146
1119.787 .0230288
1120.387 .0230380
1120.988 .0230450
1121.589 .0230478
1122.190 .0230474
1122.793 .0230441
1123.395 .0230376
1123.998 .0230317
1124.602 .0230276
1125.206 .0230224
1125.811 .0230201
1126.416 .0230222
1127.022 .0230258
1127.628 .0230313
1128.235 .0230398
1128.843 .0230498
1129.451 .0230627
1130.059 .0230780
1130.669 .0230957
1131.278 .0231105
1131.889 .0231244
1132.500 .0231376
1133.112 .0231515
1133.724 .0231685
1134.337 .0231882
1134.950 .0232109
1135.564 .0232425
1136.179 .0232797
1136.795 .0233272
1137.411 .0233850
1138.028 .0234538
1138.645 .0235318
1139.263 .0236182
1139.882 .0237149
1140.502 .0238247
1141.122 .0239480
1141.743 .0240861
1142.365 .0242475
1142.987 .0243366
1143.611 .0245680
1144.235 .0247652
1144.859 .0249516
1145.485 .0254567
