Measurement Sequence started on: 10-20-44-796
Integration time: 35
Scans to Average: 2 
>>>>>Begin Spectral Data<<<<<
432.953 .0525814
433.882 .0477730
434.810 .0387967
435.737 .0389897
436.662 .0381111
437.586 .0389843
438.509 .0380590
439.431 .0375239
440.351 .0373427
441.269 .0371866
442.187 .0370809
443.103 .0370176
444.018 .0369796
444.932 .0369712
445.844 .0369863
446.756 .0370193
447.666 .0370668
448.575 .0371144
449.482 .0371584
450.388 .0371954
451.294 .0372250
452.198 .0372397
453.100 .0372330
454.002 .0372205
454.902 .0371945
455.801 .0371576
456.699 .0371199
457.596 .0370795
458.492 .0370383
459.387 .0369964
460.280 .0369473
461.172 .0368967
462.064 .0368441
462.954 .0367821
463.843 .0367186
464.730 .0366554
465.617 .0365972
466.503 .0365445
467.387 .0364991
468.271 .0364579
469.153 .0364199
470.035 .0363872
470.915 .0363580
471.794 .0363273
472.673 .0362986
473.550 .0362682
474.426 .0362406
475.301 .0362126
476.175 .0361849
477.048 .0361534
477.920 .0361224
478.791 .0360842
479.661 .0360413
480.530 .0359929
481.398 .0359427
482.266 .0358907
483.132 .0358405
483.997 .0357906
484.861 .0357451
485.724 .0357030
486.587 .0356671
487.448 .0356314
488.308 .0355952
489.168 .0355555
490.026 .0355127
490.884 .0354638
491.741 .0354124
492.597 .0353584
493.452 .0353092
494.306 .0352635
495.159 .0352239
496.011 .0351880
496.862 .0351567
497.713 .0351247
498.562 .0350899
499.411 .0350464
500.259 .0349945
501.106 .0349344
501.952 .0348718
502.798 .0348062
503.642 .0347448
504.486 .0346865
505.329 .0346337
506.171 .0345825
507.012 .0345316
507.852 .0344713
508.692 .0344037
509.531 .0343217
510.369 .0342294
511.206 .0341242
512.043 .0340139
512.878 .0338947
513.713 .0337760
514.547 .0336567
515.381 .0335360
516.213 .0334091
517.045 .0332788
517.876 .0331322
518.706 .0329783
519.536 .0328120
520.365 .0326431
521.193 .0324710
522.020 .0323070
522.847 .0321434
523.673 .0319834
524.498 .0318205
525.323 .0316578
526.146 .0314893
526.969 .0313207
527.792 .0311406
528.614 .0309555
529.435 .0307744
530.255 .0305995
531.075 .0304333
531.894 .0302865
532.712 .0301509
533.530 .0300317
534.347 .0299148
535.163 .0298011
535.979 .0296908
536.794 .0295880
537.608 .0294936
538.422 .0294046
539.235 .0293322
540.048 .0292774
540.860 .0292392
541.671 .0292217
542.481 .0292152
543.292 .0292170
544.101 .0292202
544.910 .0292233
545.718 .0292243
546.526 .0292282
547.333 .0292384
548.139 .0292590
548.945 .0292887
549.750 .0293269
550.555 .0293715
551.359 .0294209
552.162 .0294746
552.965 .0295288
553.768 .0295791
554.569 .0296289
555.371 .0296762
556.171 .0297271
556.972 .0297789
557.771 .0298360
558.570 .0298943
559.369 .0299568
560.167 .0300198
560.964 .0300818
561.761 .0301458
562.558 .0302144
563.354 .0302864
564.149 .0303652
564.944 .0304500
565.738 .0305406
566.532 .0306326
567.325 .0307252
568.118 .0308142
568.910 .0308996
569.702 .0309771
570.494 .0310483
571.285 .0311158
572.075 .0311837
572.865 .0312483
573.654 .0313109
574.443 .0313719
575.232 .0314282
576.020 .0314791
576.807 .0315226
577.594 .0315617
578.381 .0315995
579.167 .0316357
579.952 .0316739
580.738 .0317158
581.522 .0317627
582.307 .0318127
583.091 .0318654
583.874 .0319190
584.657 .0319689
585.440 .0320127
586.222 .0320505
587.004 .0320840
587.785 .0321121
588.566 .0321373
589.346 .0321607
590.126 .0321836
590.906 .0322043
591.685 .0322210
592.464 .0322337
593.242 .0322409
594.020 .0322420
594.797 .0322367
595.575 .0322269
596.351 .0322149
597.128 .0322015
597.904 .0321885
598.679 .0321767
599.454 .0321654
600.229 .0321544
601.004 .0321426
601.778 .0321303
602.551 .0321162
603.325 .0321014
604.097 .0320857
604.870 .0320703
605.642 .0320556
606.414 .0320420
607.185 .0320298
607.956 .0320192
608.727 .0320085
609.497 .0319970
610.267 .0319846
611.037 .0319711
611.806 .0319557
612.575 .0319381
613.344 .0319183
614.112 .0318973
614.880 .0318749
615.647 .0318515
616.414 .0318277
617.181 .0318046
617.948 .0317822
618.714 .0317609
619.480 .0317412
620.245 .0317228
621.011 .0317058
621.775 .0316896
622.540 .0316732
623.304 .0316566
624.068 .0316396
624.832 .0316225
625.595 .0316064
626.358 .0315914
627.120 .0315776
627.883 .0315650
628.645 .0315545
629.406 .0315442
630.168 .0315336
630.929 .0315224
631.689 .0315100
632.450 .0314954
633.210 .0314788
633.970 .0314602
634.729 .0314410
635.489 .0314212
636.248 .0314015
637.006 .0313818
637.765 .0313627
638.523 .0313439
639.280 .0313245
640.038 .0313048
640.795 .0312845
641.552 .0312627
642.309 .0312411
643.065 .0312197
643.821 .0311991
644.577 .0311790
645.332 .0311596
646.088 .0311412
646.843 .0311230
647.597 .0311045
648.352 .0310859
649.106 .0310678
649.860 .0310500
650.613 .0310316
651.367 .0310141
652.120 .0309979
652.872 .0309827
653.625 .0309680
654.377 .0309538
655.129 .0309387
655.881 .0309228
656.632 .0309059
657.384 .0308879
658.135 .0308693
658.885 .0308503
659.636 .0308311
660.386 .0308117
661.136 .0307932
661.885 .0307752
662.635 .0307575
663.384 .0307414
664.133 .0307251
664.881 .0307084
665.630 .0306918
666.378 .0306747
667.126 .0306560
667.874 .0306360
668.621 .0306143
669.368 .0305902
670.115 .0305644
670.862 .0305380
671.608 .0305109
672.354 .0304843
673.100 .0304589
673.846 .0304342
674.591 .0304102
675.337 .0303870
676.082 .0303637
676.826 .0303398
677.571 .0303153
678.315 .0302895
679.059 .0302630
679.803 .0302373
680.547 .0302127
681.290 .0301894
682.033 .0301677
682.776 .0301478
683.518 .0301284
684.261 .0301093
685.003 .0300901
685.745 .0300696
686.487 .0300486
687.228 .0300271
687.969 .0300050
688.710 .0299828
689.451 .0299615
690.192 .0299414
690.932 .0299214
691.672 .0299021
692.412 .0298827
693.152 .0298630
693.891 .0298431
694.630 .0298227
695.369 .0298020
696.108 .0297817
696.846 .0297617
697.585 .0297418
698.323 .0297229
699.061 .0297048
699.798 .0296869
700.536 .0296689
701.273 .0296509
702.010 .0296328
702.746 .0296142
703.483 .0295962
704.219 .0295788
704.955 .0295621
705.691 .0295467
706.427 .0295326
707.162 .0295199
707.897 .0295080
708.632 .0294967
709.367 .0294856
710.101 .0294747
710.835 .0294639
711.569 .0294527
712.303 .0294417
713.037 .0294308
713.770 .0294198
714.503 .0294086
715.236 .0293976
715.969 .0293866
716.702 .0293754
717.434 .0293642
718.166 .0293526
718.898 .0293403
719.629 .0293275
720.361 .0293141
721.092 .0293003
721.823 .0292856
722.554 .0292698
723.284 .0292528
724.014 .0292348
724.744 .0292158
725.474 .0291964
726.204 .0291767
726.933 .0291567
727.662 .0291368
728.391 .0291170
729.120 .0290971
729.849 .0290772
730.577 .0290577
731.305 .0290380
732.033 .0290187
732.760 .0289997
733.488 .0289811
734.215 .0289633
734.942 .0289472
735.669 .0289316
736.395 .0289167
737.122 .0289020
737.848 .0288872
738.573 .0288724
739.299 .0288581
740.024 .0288433
740.750 .0288286
741.474 .0288141
742.199 .0287996
742.924 .0287845
743.648 .0287693
744.372 .0287536
745.096 .0287380
745.819 .0287221
746.543 .0287059
747.266 .0286894
747.989 .0286736
748.711 .0286579
749.434 .0286428
750.156 .0286280
750.878 .0286137
751.599 .0286000
752.321 .0285869
753.042 .0285746
753.763 .0285630
754.484 .0285520
755.205 .0285414
755.925 .0285311
756.645 .0285206
757.365 .0285093
758.085 .0284978
758.804 .0284855
759.523 .0284725
760.242 .0284585
760.961 .0284437
761.679 .0284278
762.397 .0284105
763.115 .0283918
763.833 .0283708
764.551 .0283476
765.268 .0283218
765.985 .0282943
766.702 .0282649
767.418 .0282341
768.134 .0282027
768.850 .0281714
769.566 .0281409
770.282 .0281106
770.997 .0280812
771.712 .0280523
772.427 .0280239
773.142 .0279953
773.856 .0279659
774.570 .0279367
775.284 .0279075
775.998 .0278786
776.711 .0278508
777.424 .0278245
778.137 .0277998
778.849 .0277770
779.562 .0277565
780.274 .0277375
780.986 .0277194
781.697 .0277018
782.409 .0276842
783.120 .0276664
783.831 .0276484
784.541 .0276301
785.252 .0276125
785.962 .0275964
786.671 .0275809
787.381 .0275662
788.090 .0275524
788.799 .0275390
789.508 .0275250
790.217 .0275102
790.925 .0274941
791.633 .0274766
792.341 .0274579
793.048 .0274383
793.755 .0274178
794.462 .0273971
795.169 .0273766
795.875 .0273567
796.581 .0273377
797.287 .0273200
797.993 .0273029
798.698 .0272871
799.403 .0272719
800.108 .0272572
800.812 .0272428
801.517 .0272289
802.221 .0272155
802.924 .0272027
803.628 .0271909
804.331 .0271805
805.034 .0271713
805.736 .0271632
806.439 .0271557
807.141 .0271484
807.843 .0271409
808.544 .0271331
809.245 .0271245
809.946 .0271155
810.647 .0271058
811.347 .0270957
812.047 .0270856
812.747 .0270752
813.447 .0270644
814.146 .0270530
814.845 .0270416
815.543 .0270298
816.242 .0270176
816.940 .0270057
817.638 .0269940
818.335 .0269828
819.032 .0269717
819.729 .0269608
820.426 .0269497
821.122 .0269384
821.818 .0269263
822.514 .0269138
823.209 .0269017
823.905 .0268901
824.599 .0268793
825.294 .0268700
825.988 .0268614
826.682 .0268531
827.376 .0268446
828.069 .0268351
828.762 .0268241
829.455 .0268116
830.147 .0267978
830.840 .0267840
831.531 .0267709
832.223 .0267592
832.914 .0267495
833.605 .0267426
834.296 .0267375
834.986 .0267334
835.676 .0267298
836.366 .0267259
837.055 .0267210
837.744 .0267151
838.433 .0267079
839.121 .0267004
839.809 .0266932
840.497 .0266868
841.185 .0266816
841.872 .0266778
842.559 .0266750
843.245 .0266723
843.932 .0266694
844.617 .0266655
845.303 .0266599
845.988 .0266534
846.673 .0266456
847.358 .0266372
848.042 .0266290
848.726 .0266218
849.410 .0266160
850.093 .0266120
850.776 .0266089
851.459 .0266062
852.141 .0266029
852.823 .0265985
853.505 .0265926
854.186 .0265849
854.867 .0265757
855.548 .0265653
856.228 .0265546
856.908 .0265439
857.588 .0265333
858.267 .0265240
858.946 .0265153
859.625 .0265068
860.303 .0264984
860.981 .0264894
861.659 .0264801
862.336 .0264700
863.013 .0264594
863.690 .0264487
864.366 .0264378
865.042 .0264271
865.718 .0264169
866.393 .0264079
867.068 .0264000
867.743 .0263930
868.417 .0263869
869.091 .0263811
869.765 .0263748
870.438 .0263676
871.111 .0263594
871.783 .0263499
872.456 .0263392
873.127 .0263272
873.799 .0263147
874.470 .0263016
875.141 .0262883
875.811 .0262749
876.481 .0262614
877.151 .0262479
877.820 .0262336
878.489 .0262185
879.158 .0262026
879.826 .0261859
880.494 .0261684
881.162 .0261506
881.829 .0261330
882.496 .0261153
883.163 .0260978
883.829 .0260813
884.495 .0260654
885.160 .0260504
885.825 .0260362
886.490 .0260231
887.154 .0260110
887.818 .0259997
888.482 .0259890
889.145 .0259789
889.808 .0259690
890.471 .0259593
891.133 .0259493
891.795 .0259393
892.456 .0259288
893.117 .0259179
893.778 .0259064
894.439 .0258950
895.099 .0258828
895.758 .0258703
896.417 .0258576
897.076 .0258447
897.735 .0258308
898.393 .0258165
899.051 .0258014
899.708 .0257852
900.365 .0257680
901.022 .0257499
901.678 .0257306
902.334 .0257114
902.990 .0256918
903.645 .0256724
904.300 .0256538
904.954 .0256361
905.608 .0256182
906.262 .0256006
906.915 .0255834
907.568 .0255654
908.221 .0255475
908.873 .0255303
909.525 .0255129
910.176 .0254963
910.828 .0254809
911.478 .0254667
912.129 .0254533
912.778 .0254405
913.428 .0254270
914.077 .0254131
914.726 .0253983
915.375 .0253819
916.023 .0253646
916.670 .0253472
917.318 .0253297
917.964 .0253118
918.611 .0252944
919.257 .0252777
919.903 .0252613
920.548 .0252451
921.193 .0252289
921.838 .0252128
922.482 .0251964
923.126 .0251801
923.770 .0251641
924.413 .0251485
925.056 .0251329
925.698 .0251177
926.340 .0251028
926.982 .0250884
927.623 .0250741
928.264 .0250595
928.904 .0250449
929.544 .0250301
930.184 .0250140
930.823 .0249968
931.462 .0249785
932.101 .0249592
932.739 .0249384
933.377 .0249165
934.014 .0248934
934.651 .0248697
935.288 .0248456
935.924 .0248215
936.560 .0247976
937.196 .0247742
937.831 .0247511
938.466 .0247280
939.100 .0247052
939.734 .0246824
940.368 .0246596
941.001 .0246372
941.634 .0246151
942.266 .0245941
942.899 .0245739
943.530 .0245546
944.162 .0245360
944.793 .0245183
945.423 .0245009
946.053 .0244831
946.683 .0244651
947.313 .0244468
947.942 .0244275
948.571 .0244074
949.199 .0243867
949.827 .0243659
950.455 .0243452
951.082 .0243251
951.709 .0243057
952.335 .0242877
952.961 .0242711
953.587 .0242553
954.212 .0242405
954.837 .0242266
955.462 .0242127
956.086 .0241990
956.710 .0241859
957.334 .0241729
957.957 .0241603
958.579 .0241482
959.202 .0241368
959.824 .0241260
960.445 .0241158
961.067 .0241056
961.688 .0240955
962.308 .0240857
962.928 .0240758
963.548 .0240654
964.168 .0240553
964.787 .0240452
965.406 .0240351
966.024 .0240250
966.642 .0240151
967.260 .0240056
967.877 .0239965
968.494 .0239878
969.110 .0239792
969.727 .0239708
970.342 .0239631
970.958 .0239557
971.573 .0239493
972.188 .0239438
972.802 .0239392
973.416 .0239354
974.030 .0239319
974.643 .0239286
975.256 .0239253
975.869 .0239218
976.481 .0239184
977.093 .0239152
977.705 .0239126
978.316 .0239111
978.927 .0239111
979.538 .0239128
980.148 .0239156
980.758 .0239192
981.367 .0239228
981.977 .0239261
982.586 .0239286
983.194 .0239299
983.802 .0239308
984.410 .0239314
985.018 .0239323
985.625 .0239341
986.232 .0239370
986.838 .0239414
987.445 .0239464
988.050 .0239512
988.656 .0239549
989.261 .0239576
989.866 .0239587
990.471 .0239587
991.075 .0239582
991.679 .0239573
992.282 .0239569
992.886 .0239580
993.489 .0239601
994.091 .0239634
994.694 .0239679
995.296 .0239725
995.897 .0239764
996.499 .0239799
997.100 .0239822
997.701 .0239839
998.301 .0239861
998.901 .0239893
999.501 .0239936
1000.101 .0240002
1000.700 .0240089
1001.299 .0240192
1001.898 .0240311
1002.496 .0240437
1003.094 .0240558
1003.692 .0240676
1004.289 .0240781
1004.887 .0240877
1005.484 .0240969
1006.080 .0241059
1006.677 .0241145
1007.273 .0241234
1007.868 .0241325
1008.464 .0241415
1009.059 .0241505
1009.654 .0241593
1010.249 .0241671
1010.843 .0241747
1011.437 .0241814
1012.031 .0241870
1012.625 .0241922
1013.218 .0241969
1013.811 .0242010
1014.404 .0242050
1014.997 .0242087
1015.589 .0242117
1016.181 .0242148
1016.773 .0242187
1017.365 .0242221
1017.956 .0242251
1018.547 .0242283
1019.138 .0242319
1019.728 .0242355
1020.319 .0242401
1020.909 .0242448
1021.499 .0242502
1022.088 .0242571
1022.678 .0242644
1023.267 .0242725
1023.856 .0242812
1024.445 .0242900
1025.033 .0242980
1025.621 .0243045
1026.209 .0243099
1026.797 .0243133
1027.385 .0243158
1027.972 .0243180
1028.560 .0243194
1029.147 .0243197
1029.734 .0243194
1030.320 .0243187
1030.907 .0243174
1031.493 .0243158
1032.079 .0243137
1032.665 .0243118
1033.250 .0243099
1033.836 .0243087
1034.421 .0243079
1035.006 .0243088
1035.591 .0243112
1036.176 .0243138
1036.761 .0243167
1037.345 .0243202
1037.929 .0243234
1038.514 .0243263
1039.097 .0243287
1039.681 .0243314
1040.265 .0243338
1040.848 .0243363
1041.432 .0243390
1042.015 .0243420
1042.598 .0243447
1043.181 .0243471
1043.764 .0243484
1044.346 .0243485
1044.929 .0243471
1045.511 .0243452
1046.094 .0243427
1046.676 .0243403
1047.258 .0243382
1047.840 .0243376
1048.422 .0243394
1049.003 .0243433
1049.585 .0243483
1050.166 .0243552
1050.748 .0243632
1051.329 .0243717
1051.910 .0243789
1052.491 .0243850
1053.072 .0243896
1053.653 .0243919
1054.234 .0243924
1054.815 .0243919
1055.396 .0243906
1055.976 .0243898
1056.557 .0243883
1057.138 .0243863
1057.718 .0243818
1058.298 .0243753
1058.879 .0243655
1059.459 .0243522
1060.039 .0243354
1060.620 .0243148
1061.200 .0242921
1061.780 .0242696
1062.360 .0242474
1062.940 .0242278
1063.520 .0242103
1064.101 .0241962
1064.681 .0241830
1065.261 .0241712
1065.841 .0241593
1066.421 .0241489
1067.001 .0241381
1067.581 .0241284
1068.161 .0241192
1068.741 .0241124
1069.321 .0241080
1069.901 .0241061
1070.482 .0241058
1071.062 .0241062
1071.642 .0241065
1072.222 .0241068
1072.803 .0241056
1073.383 .0241051
1073.963 .0241037
1074.544 .0241034
1075.124 .0241031
1075.705 .0241035
1076.286 .0241040
1076.866 .0241047
1077.447 .0241059
1078.028 .0241057
1078.609 .0241045
1079.190 .0241025
1079.771 .0240992
1080.352 .0240948
1080.934 .0240885
1081.515 .0240803
1082.097 .0240697
1082.679 .0240571
1083.260 .0240429
1083.842 .0240274
1084.424 .0240117
1085.007 .0239953
1085.589 .0239799
1086.172 .0239653
1086.754 .0239521
1087.337 .0239399
1087.920 .0239303
1088.503 .0239218
1089.087 .0239144
1089.670 .0239064
1090.254 .0239011
1090.838 .0238979
1091.422 .0238964
1092.006 .0238967
1092.590 .0238990
1093.175 .0239021
1093.760 .0239050
1094.345 .0239050
1094.930 .0239032
1095.516 .0238968
1096.102 .0238887
1096.688 .0238769
1097.274 .0238633
1097.860 .0238493
1098.447 .0238353
1099.034 .0238214
1099.622 .0238067
1100.209 .0237890
1100.797 .0237682
1101.385 .0237443
1101.973 .0237196
1102.562 .0236938
1103.151 .0236700
1103.740 .0236511
1104.330 .0236389
1104.920 .0236322
1105.510 .0236311
1106.101 .0236327
1106.691 .0236352
1107.283 .0236360
1107.874 .0236330
1108.466 .0236259
1109.058 .0236162
1109.651 .0236093
1110.244 .0236056
1110.837 .0236056
1111.431 .0236126
1112.025 .0236237
1112.620 .0236371
1113.215 .0236498
1113.810 .0236616
1114.406 .0236709
1115.002 .0236786
1115.599 .0236839
1116.196 .0236862
1116.793 .0236888
1117.391 .0236930
1117.989 .0236956
1118.588 .0236996
1119.187 .0237032
1119.787 .0237055
1120.387 .0237043
1120.988 .0237024
1121.589 .0236978
1122.190 .0236894
1122.793 .0236779
1123.395 .0236650
1123.998 .0236481
1124.602 .0236313
1125.206 .0236158
1125.811 .0236033
1126.416 .0235951
1127.022 .0235905
1127.628 .0235877
1128.235 .0235894
1128.843 .0235950
1129.451 .0236029
1130.059 .0236085
1130.669 .0236183
1131.278 .0236284
1131.889 .0236383
1132.500 .0236519
1133.112 .0236715
1133.724 .0236955
1134.337 .0237266
1134.950 .0237604
1135.564 .0237971
1136.179 .0238393
1136.795 .0238860
1137.411 .0239366
1138.028 .0239928
1138.645 .0240547
1139.263 .0241296
1139.882 .0242130
1140.502 .0243105
1141.122 .0244148
1141.743 .0245249
1142.365 .0246271
1142.987 .0247742
1143.611 .0249256
1144.235 .0249729
1144.859 .0250352
1145.485 .0248489
