Measurement Sequence started on: 10-20-44-796
Integration time: 35
Scans to Average: 2 
>>>>>Begin Spectral Data<<<<<
432.953 .0457508
433.882 .0425194
434.810 .0430324
435.737 .0414810
436.662 .0396884
437.586 .0410712
438.509 .0407879
439.431 .0406787
440.351 .0406078
441.269 .0406027
442.187 .0406267
443.103 .0406204
444.018 .0406217
444.932 .0406198
445.844 .0406075
446.756 .0405908
447.666 .0405706
448.575 .0405217
449.482 .0404528
450.388 .0403560
451.294 .0402312
452.198 .0400892
453.100 .0399260
454.002 .0397681
454.902 .0396215
455.801 .0394961
456.699 .0393894
457.596 .0392960
458.492 .0392111
459.387 .0391390
460.280 .0390752
461.172 .0390190
462.064 .0389743
462.954 .0389384
463.843 .0389101
464.730 .0388992
465.617 .0389058
466.503 .0389226
467.387 .0389501
468.271 .0389805
469.153 .0390062
470.035 .0390178
470.915 .0390173
471.794 .0390017
472.673 .0389779
473.550 .0389528
474.426 .0389253
475.301 .0388991
476.175 .0388757
477.048 .0388526
477.920 .0388308
478.791 .0388043
479.661 .0387694
480.530 .0387242
481.398 .0386709
482.266 .0386130
483.132 .0385535
483.997 .0384963
484.861 .0384489
485.724 .0384144
486.587 .0383918
487.448 .0383740
488.308 .0383573
489.168 .0383405
490.026 .0383153
490.884 .0382805
491.741 .0382326
492.597 .0381727
493.452 .0381095
494.306 .0380411
495.159 .0379708
496.011 .0379027
496.862 .0378367
497.713 .0377721
498.562 .0377025
499.411 .0376271
500.259 .0375392
501.106 .0374386
501.952 .0373272
502.798 .0372030
503.642 .0370688
504.486 .0369314
505.329 .0367917
506.171 .0366533
507.012 .0365123
507.852 .0363658
508.692 .0362179
509.531 .0360663
510.369 .0359074
511.206 .0357434
512.043 .0355816
512.878 .0354275
513.713 .0352826
514.547 .0351513
515.381 .0350344
516.213 .0349330
517.045 .0348407
517.876 .0347481
518.706 .0346491
519.536 .0345472
520.365 .0344409
521.193 .0343320
522.020 .0342238
522.847 .0341162
523.673 .0340120
524.498 .0339067
525.323 .0337907
526.146 .0336583
526.969 .0335083
527.792 .0333371
528.614 .0331411
529.435 .0329325
530.255 .0327234
531.075 .0325207
531.894 .0323384
532.712 .0321813
533.530 .0320470
534.347 .0319373
535.163 .0318496
535.979 .0317835
536.794 .0317387
537.608 .0317134
538.422 .0317081
539.235 .0317225
540.048 .0317473
540.860 .0317747
541.671 .0317951
542.481 .0318114
543.292 .0318113
544.101 .0317942
544.910 .0317661
545.718 .0317335
546.526 .0317021
547.333 .0316808
548.139 .0316694
548.945 .0316762
549.750 .0316908
550.555 .0317128
551.359 .0317332
552.162 .0317542
552.965 .0317737
553.768 .0317933
554.569 .0318137
555.371 .0318406
556.171 .0318688
556.972 .0319062
557.771 .0319454
558.570 .0319842
559.369 .0320192
560.167 .0320446
560.964 .0320593
561.761 .0320642
562.558 .0320602
563.354 .0320566
564.149 .0320533
564.944 .0320575
565.738 .0320669
566.532 .0320813
567.325 .0321000
568.118 .0321231
568.910 .0321506
569.702 .0321826
570.494 .0322195
571.285 .0322646
572.075 .0323172
572.865 .0323749
573.654 .0324406
574.443 .0325121
575.232 .0325867
576.020 .0326618
576.807 .0327357
577.594 .0328102
578.381 .0328842
579.167 .0329567
579.952 .0330288
580.738 .0331001
581.522 .0331694
582.307 .0332326
583.091 .0332915
583.874 .0333442
584.657 .0333902
585.440 .0334303
586.222 .0334655
587.004 .0334954
587.785 .0335225
588.566 .0335469
589.346 .0335691
590.126 .0335876
590.906 .0336024
591.685 .0336117
592.464 .0336155
593.242 .0336145
594.020 .0336093
594.797 .0336023
595.575 .0335962
596.351 .0335918
597.128 .0335888
597.904 .0335876
598.679 .0335880
599.454 .0335880
600.229 .0335866
601.004 .0335821
601.778 .0335725
602.551 .0335582
603.325 .0335399
604.097 .0335172
604.870 .0334917
605.642 .0334658
606.414 .0334393
607.185 .0334123
607.956 .0333854
608.727 .0333577
609.497 .0333288
610.267 .0332991
611.037 .0332679
611.806 .0332349
612.575 .0332017
613.344 .0331681
614.112 .0331345
614.880 .0331024
615.647 .0330712
616.414 .0330403
617.181 .0330103
617.948 .0329811
618.714 .0329517
619.480 .0329227
620.245 .0328938
621.011 .0328642
621.775 .0328342
622.540 .0328027
623.304 .0327701
624.068 .0327356
624.832 .0326991
625.595 .0326604
626.358 .0326204
627.120 .0325797
627.883 .0325381
628.645 .0324969
629.406 .0324566
630.168 .0324178
630.929 .0323806
631.689 .0323441
632.450 .0323085
633.210 .0322738
633.970 .0322394
634.729 .0322051
635.489 .0321710
636.248 .0321366
637.006 .0321027
637.765 .0320692
638.523 .0320363
639.280 .0320042
640.038 .0319735
640.795 .0319449
641.552 .0319177
642.309 .0318919
643.065 .0318662
643.821 .0318411
644.577 .0318163
645.332 .0317903
646.088 .0317629
646.843 .0317351
647.597 .0317070
648.352 .0316800
649.106 .0316545
649.860 .0316307
650.613 .0316090
651.367 .0315897
652.120 .0315715
652.872 .0315540
653.625 .0315373
654.377 .0315212
655.129 .0315059
655.881 .0314925
656.632 .0314801
657.384 .0314701
658.135 .0314628
658.885 .0314579
659.636 .0314541
660.386 .0314512
661.136 .0314480
661.885 .0314438
662.635 .0314388
663.384 .0314326
664.133 .0314252
664.881 .0314180
665.630 .0314103
666.378 .0314032
667.126 .0313960
667.874 .0313888
668.621 .0313803
669.368 .0313710
670.115 .0313602
670.862 .0313476
671.608 .0313337
672.354 .0313197
673.100 .0313055
673.846 .0312920
674.591 .0312791
675.337 .0312669
676.082 .0312553
676.826 .0312439
677.571 .0312314
678.315 .0312185
679.059 .0312041
679.803 .0311886
680.547 .0311724
681.290 .0311559
682.033 .0311391
682.776 .0311211
683.518 .0311031
684.261 .0310845
685.003 .0310656
685.745 .0310461
686.487 .0310257
687.228 .0310056
687.969 .0309857
688.710 .0309654
689.451 .0309451
690.192 .0309252
690.932 .0309053
691.672 .0308852
692.412 .0308648
693.152 .0308436
693.891 .0308217
694.630 .0307991
695.369 .0307761
696.108 .0307521
696.846 .0307276
697.585 .0307021
698.323 .0306760
699.061 .0306492
699.798 .0306210
700.536 .0305917
701.273 .0305616
702.010 .0305310
702.746 .0304997
703.483 .0304674
704.219 .0304354
704.955 .0304036
705.691 .0303720
706.427 .0303405
707.162 .0303091
707.897 .0302783
708.632 .0302478
709.367 .0302179
710.101 .0301879
710.835 .0301581
711.569 .0301289
712.303 .0300991
713.037 .0300689
713.770 .0300388
714.503 .0300083
715.236 .0299775
715.969 .0299469
716.702 .0299164
717.434 .0298861
718.166 .0298563
718.898 .0298269
719.629 .0297979
720.361 .0297693
721.092 .0297411
721.823 .0297126
722.554 .0296846
723.284 .0296569
724.014 .0296284
724.744 .0296006
725.474 .0295733
726.204 .0295464
726.933 .0295200
727.662 .0294940
728.391 .0294688
729.120 .0294437
729.849 .0294187
730.577 .0293937
731.305 .0293686
732.033 .0293438
732.760 .0293182
733.488 .0292928
734.215 .0292674
734.942 .0292421
735.669 .0292167
736.395 .0291920
737.122 .0291681
737.848 .0291448
738.573 .0291226
739.299 .0291013
740.024 .0290815
740.750 .0290629
741.474 .0290456
742.199 .0290296
742.924 .0290148
743.648 .0290010
744.372 .0289876
745.096 .0289754
745.819 .0289637
746.543 .0289523
747.266 .0289423
747.989 .0289333
748.711 .0289258
749.434 .0289193
750.156 .0289150
750.878 .0289121
751.599 .0289109
752.321 .0289109
753.042 .0289117
753.763 .0289138
754.484 .0289166
755.205 .0289197
755.925 .0289233
756.645 .0289274
757.365 .0289316
758.085 .0289351
758.804 .0289377
759.523 .0289385
760.242 .0289376
760.961 .0289345
761.679 .0289299
762.397 .0289233
763.115 .0289156
763.833 .0289066
764.551 .0288969
765.268 .0288864
765.985 .0288745
766.702 .0288615
767.418 .0288473
768.134 .0288326
768.850 .0288180
769.566 .0288039
770.282 .0287918
770.997 .0287822
771.712 .0287754
772.427 .0287709
773.142 .0287680
773.856 .0287661
774.570 .0287636
775.284 .0287606
775.998 .0287563
776.711 .0287513
777.424 .0287462
778.137 .0287416
778.849 .0287377
779.562 .0287346
780.274 .0287321
780.986 .0287293
781.697 .0287258
782.409 .0287213
783.120 .0287153
783.831 .0287085
784.541 .0287018
785.252 .0286963
785.962 .0286922
786.671 .0286902
787.381 .0286896
788.090 .0286899
788.799 .0286902
789.508 .0286888
790.217 .0286853
790.925 .0286797
791.633 .0286726
792.341 .0286642
793.048 .0286554
793.755 .0286466
794.462 .0286378
795.169 .0286291
795.875 .0286193
796.581 .0286082
797.287 .0285953
797.993 .0285804
798.698 .0285641
799.403 .0285468
800.108 .0285293
800.812 .0285125
801.517 .0284974
802.221 .0284837
802.924 .0284713
803.628 .0284601
804.331 .0284498
805.034 .0284398
805.736 .0284300
806.439 .0284202
807.141 .0284107
807.843 .0284019
808.544 .0283927
809.245 .0283833
809.946 .0283737
810.647 .0283634
811.347 .0283522
812.047 .0283401
812.747 .0283272
813.447 .0283133
814.146 .0282989
814.845 .0282842
815.543 .0282692
816.242 .0282543
816.940 .0282391
817.638 .0282237
818.335 .0282080
819.032 .0281916
819.729 .0281745
820.426 .0281571
821.122 .0281388
821.818 .0281197
822.514 .0280998
823.209 .0280794
823.905 .0280587
824.599 .0280378
825.294 .0280165
825.988 .0279948
826.682 .0279730
827.376 .0279501
828.069 .0279263
828.762 .0279016
829.455 .0278755
830.147 .0278489
830.840 .0278221
831.531 .0277959
832.223 .0277709
832.914 .0277473
833.605 .0277255
834.296 .0277048
834.986 .0276854
835.676 .0276663
836.366 .0276472
837.055 .0276283
837.744 .0276091
838.433 .0275894
839.121 .0275702
839.809 .0275506
840.497 .0275314
841.185 .0275126
841.872 .0274940
842.559 .0274751
843.245 .0274557
843.932 .0274358
844.617 .0274155
845.303 .0273947
845.988 .0273742
846.673 .0273535
847.358 .0273337
848.042 .0273146
848.726 .0272954
849.410 .0272767
850.093 .0272584
850.776 .0272400
851.459 .0272221
852.141 .0272040
852.823 .0271858
853.505 .0271680
854.186 .0271508
854.867 .0271338
855.548 .0271171
856.228 .0271007
856.908 .0270847
857.588 .0270687
858.267 .0270530
858.946 .0270369
859.625 .0270214
860.303 .0270066
860.981 .0269918
861.659 .0269770
862.336 .0269625
863.013 .0269478
863.690 .0269334
864.366 .0269184
865.042 .0269032
865.718 .0268881
866.393 .0268729
867.068 .0268571
867.743 .0268409
868.417 .0268241
869.091 .0268065
869.765 .0267883
870.438 .0267695
871.111 .0267494
871.783 .0267286
872.456 .0267077
873.127 .0266867
873.799 .0266656
874.470 .0266452
875.141 .0266259
875.811 .0266078
876.481 .0265909
877.151 .0265754
877.820 .0265614
878.489 .0265497
879.158 .0265398
879.826 .0265314
880.494 .0265248
881.162 .0265194
881.829 .0265145
882.496 .0265100
883.163 .0265055
883.829 .0265010
884.495 .0264960
885.160 .0264915
885.825 .0264869
886.490 .0264825
887.154 .0264787
887.818 .0264752
888.482 .0264718
889.145 .0264681
889.808 .0264638
890.471 .0264591
891.133 .0264538
891.795 .0264482
892.456 .0264426
893.117 .0264379
893.778 .0264341
894.439 .0264316
895.099 .0264300
895.758 .0264294
896.417 .0264289
897.076 .0264290
897.735 .0264288
898.393 .0264287
899.051 .0264285
899.708 .0264281
900.365 .0264277
901.022 .0264275
901.678 .0264272
902.334 .0264270
902.990 .0264262
903.645 .0264242
904.300 .0264212
904.954 .0264168
905.608 .0264114
906.262 .0264055
906.915 .0263996
907.568 .0263937
908.221 .0263874
908.873 .0263815
909.525 .0263752
910.176 .0263687
910.828 .0263618
911.478 .0263546
912.129 .0263474
912.778 .0263403
913.428 .0263334
914.077 .0263273
914.726 .0263221
915.375 .0263178
916.023 .0263150
916.670 .0263137
917.318 .0263138
917.964 .0263155
918.611 .0263187
919.257 .0263233
919.903 .0263288
920.548 .0263346
921.193 .0263401
921.838 .0263455
922.482 .0263498
923.126 .0263529
923.770 .0263554
924.413 .0263573
925.056 .0263589
925.698 .0263607
926.340 .0263626
926.982 .0263641
927.623 .0263653
928.264 .0263656
928.904 .0263645
929.544 .0263619
930.184 .0263579
930.823 .0263522
931.462 .0263455
932.101 .0263380
932.739 .0263300
933.377 .0263219
934.014 .0263137
934.651 .0263050
935.288 .0262960
935.924 .0262863
936.560 .0262763
937.196 .0262658
937.831 .0262551
938.466 .0262442
939.100 .0262333
939.734 .0262224
940.368 .0262122
941.001 .0262026
941.634 .0261936
942.266 .0261857
942.899 .0261783
943.530 .0261713
944.162 .0261648
944.793 .0261588
945.423 .0261527
946.053 .0261460
946.683 .0261388
947.313 .0261311
947.942 .0261229
948.571 .0261140
949.199 .0261042
949.827 .0260938
950.455 .0260824
951.082 .0260704
951.709 .0260573
952.335 .0260437
952.961 .0260297
953.587 .0260152
954.212 .0260002
954.837 .0259850
955.462 .0259698
956.086 .0259554
956.710 .0259420
957.334 .0259299
957.957 .0259189
958.579 .0259091
959.202 .0259003
959.824 .0258920
960.445 .0258840
961.067 .0258762
961.688 .0258684
962.308 .0258608
962.928 .0258532
963.548 .0258460
964.168 .0258393
964.787 .0258330
965.406 .0258276
966.024 .0258221
966.642 .0258164
967.260 .0258102
967.877 .0258033
968.494 .0257955
969.110 .0257872
969.727 .0257779
970.342 .0257682
970.958 .0257583
971.573 .0257490
972.188 .0257397
972.802 .0257312
973.416 .0257235
974.030 .0257157
974.643 .0257078
975.256 .0257003
975.869 .0256916
976.481 .0256829
977.093 .0256743
977.705 .0256656
978.316 .0256573
978.927 .0256498
979.538 .0256427
980.148 .0256358
980.758 .0256293
981.367 .0256229
981.977 .0256159
982.586 .0256086
983.194 .0256010
983.802 .0255931
984.410 .0255851
985.018 .0255767
985.625 .0255675
986.232 .0255583
986.838 .0255489
987.445 .0255381
988.050 .0255269
988.656 .0255154
989.261 .0255031
989.866 .0254890
990.471 .0254744
991.075 .0254593
991.679 .0254435
992.282 .0254283
992.886 .0254133
993.489 .0253987
994.091 .0253850
994.694 .0253719
995.296 .0253593
995.897 .0253474
996.499 .0253357
997.100 .0253236
997.701 .0253127
998.301 .0253028
998.901 .0252943
999.501 .0252881
1000.101 .0252851
1000.700 .0252840
1001.299 .0252835
1001.898 .0252831
1002.496 .0252817
1003.094 .0252787
1003.692 .0252732
1004.289 .0252646
1004.887 .0252547
1005.484 .0252444
1006.080 .0252336
1006.677 .0252231
1007.273 .0252134
1007.868 .0252041
1008.464 .0251942
1009.059 .0251832
1009.654 .0251706
1010.249 .0251564
1010.843 .0251416
1011.437 .0251257
1012.031 .0251099
1012.625 .0250950
1013.218 .0250815
1013.811 .0250694
1014.404 .0250594
1014.997 .0250511
1015.589 .0250439
1016.181 .0250389
1016.773 .0250353
1017.365 .0250328
1017.956 .0250309
1018.547 .0250293
1019.138 .0250276
1019.728 .0250256
1020.319 .0250234
1020.909 .0250203
1021.499 .0250176
1022.088 .0250147
1022.678 .0250103
1023.267 .0250048
1023.856 .0249972
1024.445 .0249875
1025.033 .0249747
1025.621 .0249596
1026.209 .0249416
1026.797 .0249221
1027.385 .0249014
1027.972 .0248810
1028.560 .0248618
1029.147 .0248437
1029.734 .0248274
1030.320 .0248121
1030.907 .0247976
1031.493 .0247836
1032.079 .0247702
1032.665 .0247580
1033.250 .0247468
1033.836 .0247383
1034.421 .0247315
1035.006 .0247273
1035.591 .0247249
1036.176 .0247233
1036.761 .0247222
1037.345 .0247203
1037.929 .0247159
1038.514 .0247081
1039.097 .0246974
1039.681 .0246840
1040.265 .0246686
1040.848 .0246527
1041.432 .0246366
1042.015 .0246208
1042.598 .0246051
1043.181 .0245899
1043.764 .0245749
1044.346 .0245602
1044.929 .0245463
1045.511 .0245336
1046.094 .0245217
1046.676 .0245109
1047.258 .0245017
1047.840 .0244949
1048.422 .0244903
1049.003 .0244870
1049.585 .0244836
1050.166 .0244810
1050.748 .0244783
1051.329 .0244753
1051.910 .0244719
1052.491 .0244679
1053.072 .0244632
1053.653 .0244568
1054.234 .0244482
1054.815 .0244362
1055.396 .0244207
1055.976 .0244026
1056.557 .0243808
1057.138 .0243576
1057.718 .0243328
1058.298 .0243077
1058.879 .0242847
1059.459 .0242635
1060.039 .0242434
1060.620 .0242239
1061.200 .0242046
1061.780 .0241847
1062.360 .0241634
1062.940 .0241427
1063.520 .0241221
1064.101 .0241036
1064.681 .0240878
1065.261 .0240743
1065.841 .0240628
1066.421 .0240544
1067.001 .0240456
1067.581 .0240358
1068.161 .0240240
1068.741 .0240105
1069.321 .0239958
1069.901 .0239821
1070.482 .0239693
1071.062 .0239586
1071.642 .0239505
1072.222 .0239460
1072.803 .0239429
1073.383 .0239433
1073.963 .0239460
1074.544 .0239507
1075.124 .0239568
1075.705 .0239643
1076.286 .0239724
1076.866 .0239837
1077.447 .0239964
1078.028 .0240103
1078.609 .0240237
1079.190 .0240369
1079.771 .0240475
1080.352 .0240565
1080.934 .0240634
1081.515 .0240680
1082.097 .0240710
1082.679 .0240725
1083.260 .0240709
1083.842 .0240688
1084.424 .0240664
1085.007 .0240647
1085.589 .0240636
1086.172 .0240638
1086.754 .0240626
1087.337 .0240633
1087.920 .0240653
1088.503 .0240674
1089.087 .0240702
1089.670 .0240737
1090.254 .0240749
1090.838 .0240746
1091.422 .0240730
1092.006 .0240696
1092.590 .0240654
1093.175 .0240613
1093.760 .0240552
1094.345 .0240478
1094.930 .0240396
1095.516 .0240303
1096.102 .0240203
1096.688 .0240121
1097.274 .0240026
1097.860 .0239923
1098.447 .0239834
1099.034 .0239749
1099.622 .0239660
1100.209 .0239580
1100.797 .0239509
1101.385 .0239433
1101.973 .0239364
1102.562 .0239301
1103.151 .0239241
1103.740 .0239186
1104.330 .0239143
1104.920 .0239096
1105.510 .0239037
1106.101 .0238974
1106.691 .0238881
1107.283 .0238774
1107.874 .0238667
1108.466 .0238540
1109.058 .0238412
1109.651 .0238293
1110.244 .0238206
1110.837 .0238117
1111.431 .0238053
1112.025 .0238015
1112.620 .0237994
1113.215 .0238016
1113.810 .0238067
1114.406 .0238152
1115.002 .0238281
1115.599 .0238448
1116.196 .0238638
1116.793 .0238833
1117.391 .0239043
1117.989 .0239250
1118.588 .0239478
1119.187 .0239709
1119.787 .0239937
1120.387 .0240172
1120.988 .0240429
1121.589 .0240703
1122.190 .0240994
1122.793 .0241288
1123.395 .0241564
1123.998 .0241860
1124.602 .0242169
1125.206 .0242477
1125.811 .0242825
1126.416 .0243196
1127.022 .0243618
1127.628 .0244065
1128.235 .0244546
1128.843 .0245052
1129.451 .0245590
1130.059 .0246164
1130.669 .0246737
1131.278 .0247331
1131.889 .0247946
1132.500 .0248544
1133.112 .0249134
1133.724 .0249710
1134.337 .0250268
1134.950 .0250794
1135.564 .0251334
1136.179 .0251889
1136.795 .0252461
1137.411 .0253073
1138.028 .0253711
1138.645 .0254343
1139.263 .0254993
1139.882 .0255649
1140.502 .0256339
1141.122 .0257161
1141.743 .0258056
1142.365 .0258814
1142.987 .0259246
1143.611 .0261558
1144.235 .0264613
1144.859 .0263795
1145.485 .0258188
