Measurement Sequence started on: 10-20-44-796
Integration time: 35
Scans to Average: 2 
>>>>>Begin Spectral Data<<<<<
432.953 .0525899
433.882 .0541762
434.810 .0481749
435.737 .0451945
436.662 .0410509
437.586 .0433543
438.509 .0422898
439.431 .0414610
440.351 .0410011
441.269 .0407153
442.187 .0405651
443.103 .0404032
444.018 .0402712
444.932 .0401458
445.844 .0400361
446.756 .0399608
447.666 .0399012
448.575 .0398204
449.482 .0397436
450.388 .0396383
451.294 .0395000
452.198 .0393267
453.100 .0391243
454.002 .0389098
454.902 .0387005
455.801 .0385123
456.699 .0383573
457.596 .0382438
458.492 .0381722
459.387 .0381274
460.280 .0381052
461.172 .0380941
462.064 .0380829
462.954 .0380685
463.843 .0380489
464.730 .0380225
465.617 .0379910
466.503 .0379630
467.387 .0379461
468.271 .0379330
469.153 .0379217
470.035 .0379081
470.915 .0378859
471.794 .0378508
472.673 .0378050
473.550 .0377482
474.426 .0376848
475.301 .0376162
476.175 .0375421
477.048 .0374666
477.920 .0373967
478.791 .0373362
479.661 .0372829
480.530 .0372428
481.398 .0372120
482.266 .0371868
483.132 .0371705
483.997 .0371581
484.861 .0371511
485.724 .0371467
486.587 .0371403
487.448 .0371289
488.308 .0371123
489.168 .0370897
490.026 .0370667
490.884 .0370443
491.741 .0370230
492.597 .0370023
493.452 .0369820
494.306 .0369585
495.159 .0369285
496.011 .0368923
496.862 .0368458
497.713 .0367845
498.562 .0367147
499.411 .0366293
500.259 .0365352
501.106 .0364359
501.952 .0363336
502.798 .0362283
503.642 .0361237
504.486 .0360127
505.329 .0358927
506.171 .0357659
507.012 .0356312
507.852 .0354873
508.692 .0353432
509.531 .0352019
510.369 .0350661
511.206 .0349397
512.043 .0348236
512.878 .0347114
513.713 .0346049
514.547 .0344977
515.381 .0343855
516.213 .0342698
517.045 .0341487
517.876 .0340280
518.706 .0339109
519.536 .0338048
520.365 .0336966
521.193 .0335801
522.020 .0334489
522.847 .0332900
523.673 .0331001
524.498 .0328688
525.323 .0326088
526.146 .0323263
526.969 .0320302
527.792 .0317310
528.614 .0314332
529.435 .0311535
530.255 .0308860
531.075 .0306316
531.894 .0303866
532.712 .0301428
533.530 .0299150
534.347 .0297046
535.163 .0295230
535.979 .0293648
536.794 .0292406
537.608 .0291499
538.422 .0290906
539.235 .0290484
540.048 .0290227
540.860 .0290119
541.671 .0290163
542.481 .0290317
543.292 .0290488
544.101 .0290786
544.910 .0291220
545.718 .0291673
546.526 .0292113
547.333 .0292520
548.139 .0292985
548.945 .0293425
549.750 .0293948
550.555 .0294584
551.359 .0295364
552.162 .0296385
552.965 .0297617
553.768 .0299011
554.569 .0300543
555.371 .0302107
556.171 .0303624
556.972 .0305102
557.771 .0306463
558.570 .0307727
559.369 .0308884
560.167 .0309936
560.964 .0310899
561.761 .0311772
562.558 .0312606
563.354 .0313373
564.149 .0314115
564.944 .0314805
565.738 .0315380
566.532 .0315931
567.325 .0316410
568.118 .0316834
568.910 .0317227
569.702 .0317607
570.494 .0317969
571.285 .0318367
572.075 .0318824
572.865 .0319356
573.654 .0319976
574.443 .0320655
575.232 .0321330
576.020 .0321989
576.807 .0322597
577.594 .0323113
578.381 .0323542
579.167 .0323923
579.952 .0324259
580.738 .0324593
581.522 .0324931
582.307 .0325284
583.091 .0325647
583.874 .0326026
584.657 .0326415
585.440 .0326806
586.222 .0327202
587.004 .0327612
587.785 .0328029
588.566 .0328426
589.346 .0328783
590.126 .0329102
590.906 .0329351
591.685 .0329547
592.464 .0329665
593.242 .0329710
594.020 .0329707
594.797 .0329679
595.575 .0329637
596.351 .0329594
597.128 .0329547
597.904 .0329487
598.679 .0329415
599.454 .0329326
600.229 .0329208
601.004 .0329070
601.778 .0328931
602.551 .0328787
603.325 .0328647
604.097 .0328519
604.870 .0328400
605.642 .0328295
606.414 .0328190
607.185 .0328054
607.956 .0327891
608.727 .0327699
609.497 .0327486
610.267 .0327251
611.037 .0326998
611.806 .0326726
612.575 .0326449
613.344 .0326161
614.112 .0325858
614.880 .0325535
615.647 .0325208
616.414 .0324861
617.181 .0324506
617.948 .0324148
618.714 .0323798
619.480 .0323469
620.245 .0323175
621.011 .0322899
621.775 .0322645
622.540 .0322408
623.304 .0322181
624.068 .0321962
624.832 .0321750
625.595 .0321526
626.358 .0321307
627.120 .0321096
627.883 .0320895
628.645 .0320697
629.406 .0320518
630.168 .0320346
630.929 .0320177
631.689 .0320006
632.450 .0319812
633.210 .0319603
633.970 .0319383
634.729 .0319137
635.489 .0318869
636.248 .0318593
637.006 .0318307
637.765 .0318015
638.523 .0317729
639.280 .0317447
640.038 .0317169
640.795 .0316900
641.552 .0316634
642.309 .0316371
643.065 .0316123
643.821 .0315876
644.577 .0315616
645.332 .0315362
646.088 .0315101
646.843 .0314830
647.597 .0314564
648.352 .0314319
649.106 .0314094
649.860 .0313893
650.613 .0313718
651.367 .0313562
652.120 .0313415
652.872 .0313268
653.625 .0313100
654.377 .0312923
655.129 .0312735
655.881 .0312533
656.632 .0312329
657.384 .0312145
658.135 .0311971
658.885 .0311814
659.636 .0311660
660.386 .0311507
661.136 .0311337
661.885 .0311151
662.635 .0310947
663.384 .0310736
664.133 .0310526
664.881 .0310325
665.630 .0310140
666.378 .0309983
667.126 .0309843
667.874 .0309720
668.621 .0309612
669.368 .0309511
670.115 .0309407
670.862 .0309303
671.608 .0309199
672.354 .0309106
673.100 .0309019
673.846 .0308940
674.591 .0308862
675.337 .0308783
676.082 .0308697
676.826 .0308597
677.571 .0308476
678.315 .0308340
679.059 .0308188
679.803 .0308021
680.547 .0307843
681.290 .0307648
682.033 .0307440
682.776 .0307215
683.518 .0306977
684.261 .0306724
685.003 .0306458
685.745 .0306190
686.487 .0305919
687.228 .0305651
687.969 .0305387
688.710 .0305113
689.451 .0304841
690.192 .0304565
690.932 .0304282
691.672 .0303996
692.412 .0303718
693.152 .0303447
693.891 .0303192
694.630 .0302959
695.369 .0302751
696.108 .0302564
696.846 .0302400
697.585 .0302251
698.323 .0302105
699.061 .0301961
699.798 .0301813
700.536 .0301658
701.273 .0301508
702.010 .0301353
702.746 .0301198
703.483 .0301043
704.219 .0300888
704.955 .0300726
705.691 .0300553
706.427 .0300369
707.162 .0300170
707.897 .0299954
708.632 .0299721
709.367 .0299471
710.101 .0299209
710.835 .0298936
711.569 .0298660
712.303 .0298378
713.037 .0298100
713.770 .0297834
714.503 .0297586
715.236 .0297356
715.969 .0297149
716.702 .0296962
717.434 .0296791
718.166 .0296626
718.898 .0296458
719.629 .0296277
720.361 .0296088
721.092 .0295886
721.823 .0295672
722.554 .0295456
723.284 .0295240
724.014 .0295024
724.744 .0294809
725.474 .0294587
726.204 .0294353
726.933 .0294099
727.662 .0293823
728.391 .0293526
729.120 .0293209
729.849 .0292880
730.577 .0292549
731.305 .0292222
732.033 .0291913
732.760 .0291618
733.488 .0291345
734.215 .0291094
734.942 .0290857
735.669 .0290638
736.395 .0290431
737.122 .0290244
737.848 .0290078
738.573 .0289928
739.299 .0289792
740.024 .0289660
740.750 .0289529
741.474 .0289390
742.199 .0289240
742.924 .0289079
743.648 .0288910
744.372 .0288734
745.096 .0288559
745.819 .0288381
746.543 .0288210
747.266 .0288048
747.989 .0287888
748.711 .0287725
749.434 .0287554
750.156 .0287379
750.878 .0287196
751.599 .0287019
752.321 .0286855
753.042 .0286709
753.763 .0286592
754.484 .0286503
755.205 .0286437
755.925 .0286391
756.645 .0286353
757.365 .0286314
758.085 .0286268
758.804 .0286211
759.523 .0286137
760.242 .0286058
760.961 .0285975
761.679 .0285893
762.397 .0285800
763.115 .0285701
763.833 .0285583
764.551 .0285442
765.268 .0285270
765.985 .0285070
766.702 .0284849
767.418 .0284617
768.134 .0284382
768.850 .0284160
769.566 .0283952
770.282 .0283764
770.997 .0283587
771.712 .0283421
772.427 .0283251
773.142 .0283077
773.856 .0282893
774.570 .0282709
775.284 .0282527
775.998 .0282360
776.711 .0282214
777.424 .0282094
778.137 .0281996
778.849 .0281915
779.562 .0281838
780.274 .0281762
780.986 .0281672
781.697 .0281571
782.409 .0281461
783.120 .0281350
783.831 .0281239
784.541 .0281144
785.252 .0281071
785.962 .0281020
786.671 .0280980
787.381 .0280946
788.090 .0280906
788.799 .0280853
789.508 .0280784
790.217 .0280692
790.925 .0280585
791.633 .0280473
792.341 .0280358
793.048 .0280247
793.755 .0280140
794.462 .0280039
795.169 .0279939
795.875 .0279839
796.581 .0279727
797.287 .0279596
797.993 .0279455
798.698 .0279304
799.403 .0279147
800.108 .0278994
800.812 .0278857
801.517 .0278732
802.221 .0278627
802.924 .0278531
803.628 .0278446
804.331 .0278369
805.034 .0278297
805.736 .0278219
806.439 .0278134
807.141 .0278044
807.843 .0277950
808.544 .0277850
809.245 .0277752
809.946 .0277653
810.647 .0277555
811.347 .0277455
812.047 .0277352
812.747 .0277242
813.447 .0277128
814.146 .0277012
814.845 .0276896
815.543 .0276777
816.242 .0276657
816.940 .0276536
817.638 .0276416
818.335 .0276301
819.032 .0276177
819.729 .0276057
820.426 .0275932
821.122 .0275804
821.818 .0275669
822.514 .0275533
823.209 .0275395
823.905 .0275258
824.599 .0275119
825.294 .0274977
825.988 .0274820
826.682 .0274653
827.376 .0274473
828.069 .0274282
828.762 .0274082
829.455 .0273881
830.147 .0273681
830.840 .0273496
831.531 .0273317
832.223 .0273146
832.914 .0272981
833.605 .0272816
834.296 .0272644
834.986 .0272460
835.676 .0272270
836.366 .0272080
837.055 .0271894
837.744 .0271720
838.433 .0271559
839.121 .0271411
839.809 .0271271
840.497 .0271135
841.185 .0271001
841.872 .0270866
842.559 .0270729
843.245 .0270593
843.932 .0270465
844.617 .0270349
845.303 .0270243
845.988 .0270151
846.673 .0270068
847.358 .0269986
848.042 .0269893
848.726 .0269791
849.410 .0269677
850.093 .0269548
850.776 .0269411
851.459 .0269268
852.141 .0269122
852.823 .0268977
853.505 .0268830
854.186 .0268680
854.867 .0268531
855.548 .0268376
856.228 .0268215
856.908 .0268044
857.588 .0267873
858.267 .0267700
858.946 .0267529
859.625 .0267366
860.303 .0267213
860.981 .0267071
861.659 .0266946
862.336 .0266829
863.013 .0266726
863.690 .0266627
864.366 .0266530
865.042 .0266423
865.718 .0266304
866.393 .0266168
867.068 .0266017
867.743 .0265853
868.417 .0265688
869.091 .0265517
869.765 .0265353
870.438 .0265195
871.111 .0265042
871.783 .0264894
872.456 .0264745
873.127 .0264595
873.799 .0264440
874.470 .0264275
875.141 .0264101
875.811 .0263922
876.481 .0263744
877.151 .0263575
877.820 .0263415
878.489 .0263270
879.158 .0263142
879.826 .0263030
880.494 .0262927
881.162 .0262832
881.829 .0262740
882.496 .0262642
883.163 .0262530
883.829 .0262405
884.495 .0262267
885.160 .0262128
885.825 .0261996
886.490 .0261874
887.154 .0261774
887.818 .0261696
888.482 .0261635
889.145 .0261586
889.808 .0261545
890.471 .0261502
891.133 .0261447
891.795 .0261386
892.456 .0261316
893.117 .0261245
893.778 .0261184
894.439 .0261134
895.099 .0261103
895.758 .0261084
896.417 .0261070
897.076 .0261054
897.735 .0261032
898.393 .0260990
899.051 .0260932
899.708 .0260858
900.365 .0260767
901.022 .0260670
901.678 .0260573
902.334 .0260478
902.990 .0260384
903.645 .0260291
904.300 .0260195
904.954 .0260085
905.608 .0259967
906.262 .0259838
906.915 .0259707
907.568 .0259576
908.221 .0259448
908.873 .0259324
909.525 .0259212
910.176 .0259109
910.828 .0259009
911.478 .0258912
912.129 .0258819
912.778 .0258720
913.428 .0258622
914.077 .0258524
914.726 .0258428
915.375 .0258324
916.023 .0258220
916.670 .0258111
917.318 .0257995
917.964 .0257872
918.611 .0257748
919.257 .0257625
919.903 .0257514
920.548 .0257406
921.193 .0257312
921.838 .0257233
922.482 .0257172
923.126 .0257117
923.770 .0257071
924.413 .0257032
925.056 .0256997
925.698 .0256971
926.340 .0256956
926.982 .0256954
927.623 .0256965
928.264 .0256984
928.904 .0256999
929.544 .0256998
930.184 .0256972
930.823 .0256910
931.462 .0256812
932.101 .0256672
932.739 .0256497
933.377 .0256293
934.014 .0256070
934.651 .0255838
935.288 .0255601
935.924 .0255373
936.560 .0255148
937.196 .0254932
937.831 .0254721
938.466 .0254518
939.100 .0254320
939.734 .0254124
940.368 .0253942
941.001 .0253774
941.634 .0253622
942.266 .0253494
942.899 .0253387
943.530 .0253302
944.162 .0253233
944.793 .0253169
945.423 .0253097
946.053 .0253010
946.683 .0252903
947.313 .0252774
947.942 .0252628
948.571 .0252468
949.199 .0252296
949.827 .0252121
950.455 .0251945
951.082 .0251765
951.709 .0251584
952.335 .0251403
952.961 .0251222
953.587 .0251039
954.212 .0250852
954.837 .0250669
955.462 .0250489
956.086 .0250322
956.710 .0250168
957.334 .0250027
957.957 .0249893
958.579 .0249766
959.202 .0249644
959.824 .0249519
960.445 .0249393
961.067 .0249270
961.688 .0249144
962.308 .0249025
962.928 .0248910
963.548 .0248796
964.168 .0248687
964.787 .0248580
965.406 .0248470
966.024 .0248356
966.642 .0248238
967.260 .0248115
967.877 .0247988
968.494 .0247869
969.110 .0247757
969.727 .0247655
970.342 .0247578
970.958 .0247523
971.573 .0247490
972.188 .0247476
972.802 .0247474
973.416 .0247478
974.030 .0247472
974.643 .0247455
975.256 .0247426
975.869 .0247384
976.481 .0247337
977.093 .0247289
977.705 .0247245
978.316 .0247207
978.927 .0247169
979.538 .0247119
980.148 .0247053
980.758 .0246967
981.367 .0246865
981.977 .0246753
982.586 .0246643
983.194 .0246543
983.802 .0246464
984.410 .0246411
985.018 .0246376
985.625 .0246355
986.232 .0246342
986.838 .0246323
987.445 .0246300
988.050 .0246266
988.656 .0246232
989.261 .0246203
989.866 .0246182
990.471 .0246168
991.075 .0246157
991.679 .0246143
992.282 .0246117
992.886 .0246074
993.489 .0246015
994.091 .0245935
994.694 .0245845
995.296 .0245750
995.897 .0245663
996.499 .0245586
997.100 .0245522
997.701 .0245468
998.301 .0245427
998.901 .0245389
999.501 .0245347
1000.101 .0245302
1000.700 .0245267
1001.299 .0245240
1001.898 .0245217
1002.496 .0245202
1003.094 .0245213
1003.692 .0245236
1004.289 .0245270
1004.887 .0245314
1005.484 .0245362
1006.080 .0245406
1006.677 .0245441
1007.273 .0245461
1007.868 .0245468
1008.464 .0245474
1009.059 .0245479
1009.654 .0245490
1010.249 .0245515
1010.843 .0245556
1011.437 .0245597
1012.031 .0245643
1012.625 .0245688
1013.218 .0245701
1013.811 .0245679
1014.404 .0245644
1014.997 .0245590
1015.589 .0245533
1016.181 .0245479
1016.773 .0245442
1017.365 .0245433
1017.956 .0245448
1018.547 .0245462
1019.138 .0245473
1019.728 .0245485
1020.319 .0245493
1020.909 .0245478
1021.499 .0245461
1022.088 .0245446
1022.678 .0245440
1023.267 .0245455
1023.856 .0245488
1024.445 .0245524
1025.033 .0245563
1025.621 .0245584
1026.209 .0245594
1026.797 .0245579
1027.385 .0245542
1027.972 .0245482
1028.560 .0245417
1029.147 .0245346
1029.734 .0245273
1030.320 .0245186
1030.907 .0245102
1031.493 .0245010
1032.079 .0244917
1032.665 .0244813
1033.250 .0244715
1033.836 .0244638
1034.421 .0244587
1035.006 .0244558
1035.591 .0244565
1036.176 .0244581
1036.761 .0244622
1037.345 .0244673
1037.929 .0244729
1038.514 .0244774
1039.097 .0244822
1039.681 .0244859
1040.265 .0244895
1040.848 .0244920
1041.432 .0244937
1042.015 .0244930
1042.598 .0244910
1043.181 .0244869
1043.764 .0244793
1044.346 .0244695
1044.929 .0244577
1045.511 .0244440
1046.094 .0244306
1046.676 .0244162
1047.258 .0244014
1047.840 .0243874
1048.422 .0243751
1049.003 .0243630
1049.585 .0243508
1050.166 .0243404
1050.748 .0243325
1051.329 .0243262
1051.910 .0243228
1052.491 .0243215
1053.072 .0243226
1053.653 .0243267
1054.234 .0243311
1054.815 .0243361
1055.396 .0243419
1055.976 .0243470
1056.557 .0243510
1057.138 .0243544
1057.718 .0243586
1058.298 .0243614
1058.879 .0243649
1059.459 .0243684
1060.039 .0243717
1060.620 .0243736
1061.200 .0243735
1061.780 .0243710
1062.360 .0243651
1062.940 .0243544
1063.520 .0243387
1064.101 .0243202
1064.681 .0243011
1065.261 .0242821
1065.841 .0242658
1066.421 .0242542
1067.001 .0242466
1067.581 .0242418
1068.161 .0242387
1068.741 .0242354
1069.321 .0242307
1069.901 .0242229
1070.482 .0242113
1071.062 .0241988
1071.642 .0241853
1072.222 .0241740
1072.803 .0241639
1073.383 .0241573
1073.963 .0241521
1074.544 .0241479
1075.124 .0241444
1075.705 .0241385
1076.286 .0241302
1076.866 .0241211
1077.447 .0241130
1078.028 .0241073
1078.609 .0241037
1079.190 .0241057
1079.771 .0241112
1080.352 .0241228
1080.934 .0241364
1081.515 .0241538
1082.097 .0241732
1082.679 .0241941
1083.260 .0242136
1083.842 .0242309
1084.424 .0242448
1085.007 .0242538
1085.589 .0242576
1086.172 .0242563
1086.754 .0242485
1087.337 .0242357
1087.920 .0242208
1088.503 .0242068
1089.087 .0241932
1089.670 .0241815
1090.254 .0241709
1090.838 .0241613
1091.422 .0241499
1092.006 .0241344
1092.590 .0241157
1093.175 .0240937
1093.760 .0240706
1094.345 .0240443
1094.930 .0240193
1095.516 .0239995
1096.102 .0239863
1096.688 .0239791
1097.274 .0239776
1097.860 .0239808
1098.447 .0239856
1099.034 .0239909
1099.622 .0239962
1100.209 .0239971
1100.797 .0239984
1101.385 .0239983
1101.973 .0239992
1102.562 .0240013
1103.151 .0240073
1103.740 .0240164
1104.330 .0240273
1104.920 .0240382
1105.510 .0240443
1106.101 .0240466
1106.691 .0240455
1107.283 .0240379
1107.874 .0240251
1108.466 .0240115
1109.058 .0240026
1109.651 .0239961
1110.244 .0239984
1110.837 .0240041
1111.431 .0240163
1112.025 .0240319
1112.620 .0240468
1113.215 .0240611
1113.810 .0240710
1114.406 .0240809
1115.002 .0240889
1115.599 .0240964
1116.196 .0241036
1116.793 .0241081
1117.391 .0241147
1117.989 .0241169
1118.588 .0241117
1119.187 .0240941
1119.787 .0240662
1120.387 .0240261
1120.988 .0239759
1121.589 .0239183
1122.190 .0238567
1122.793 .0238003
1123.395 .0237493
1123.998 .0237122
1124.602 .0236925
1125.206 .0236892
1125.811 .0237065
1126.416 .0237318
1127.022 .0237651
1127.628 .0237966
1128.235 .0238263
1128.843 .0238535
1129.451 .0238773
1130.059 .0239012
1130.669 .0239287
1131.278 .0239664
1131.889 .0240136
1132.500 .0240722
1133.112 .0241417
1133.724 .0242182
1134.337 .0242974
1134.950 .0243688
1135.564 .0244359
1136.179 .0244940
1136.795 .0245556
1137.411 .0246185
1138.028 .0246888
1138.645 .0247783
1139.263 .0248805
1139.882 .0249996
1140.502 .0251317
1141.122 .0252742
1141.743 .0254255
1142.365 .0255807
1142.987 .0256935
1143.611 .0258472
1144.235 .0259884
1144.859 .0261805
1145.485 .0264613
