Measurement Sequence started on: 10-20-44-796
Integration time: 35
Scans to Average: 2 
>>>>>Begin Spectral Data<<<<<
432.953 .0478223
433.882 .0341951
434.810 .0427077
435.737 .0406253
436.662 .0391592
437.586 .0397124
438.509 .0394135
439.431 .0394864
440.351 .0393274
441.269 .0392569
442.187 .0392153
443.103 .0391740
444.018 .0391209
444.932 .0390759
445.844 .0390215
446.756 .0389982
447.666 .0389830
448.575 .0389445
449.482 .0389125
450.388 .0388606
451.294 .0387883
452.198 .0387091
453.100 .0386215
454.002 .0385465
454.902 .0384737
455.801 .0384111
456.699 .0383524
457.596 .0382974
458.492 .0382444
459.387 .0381768
460.280 .0380975
461.172 .0379985
462.064 .0378731
462.954 .0377267
463.843 .0375715
464.730 .0374125
465.617 .0372605
466.503 .0371243
467.387 .0370083
468.271 .0369142
469.153 .0368444
470.035 .0367980
470.915 .0367699
471.794 .0367474
472.673 .0367253
473.550 .0366980
474.426 .0366753
475.301 .0366521
476.175 .0366340
477.048 .0366240
477.920 .0366255
478.791 .0366360
479.661 .0366481
480.530 .0366610
481.398 .0366694
482.266 .0366711
483.132 .0366669
483.997 .0366527
484.861 .0366318
485.724 .0366053
486.587 .0365816
487.448 .0365564
488.308 .0365302
489.168 .0364995
490.026 .0364623
490.884 .0364191
491.741 .0363688
492.597 .0363123
493.452 .0362501
494.306 .0361889
495.159 .0361239
496.011 .0360553
496.862 .0359831
497.713 .0359013
498.562 .0358124
499.411 .0357179
500.259 .0356190
501.106 .0355150
501.952 .0354151
502.798 .0353262
503.642 .0352447
504.486 .0351783
505.329 .0351248
506.171 .0350797
507.012 .0350445
507.852 .0350126
508.692 .0349810
509.531 .0349493
510.369 .0349162
511.206 .0348755
512.043 .0348301
512.878 .0347769
513.713 .0347085
514.547 .0346242
515.381 .0345289
516.213 .0344197
517.045 .0342888
517.876 .0341423
518.706 .0339843
519.536 .0338191
520.365 .0336551
521.193 .0334893
522.020 .0333268
522.847 .0331679
523.673 .0330087
524.498 .0328470
525.323 .0326852
526.146 .0325285
526.969 .0323693
527.792 .0322134
528.614 .0320617
529.435 .0319201
530.255 .0317770
531.075 .0316432
531.894 .0315167
532.712 .0313869
533.530 .0312402
534.347 .0310748
535.163 .0308862
535.979 .0306849
536.794 .0304717
537.608 .0302616
538.422 .0300633
539.235 .0298922
540.048 .0297409
540.860 .0296218
541.671 .0295305
542.481 .0294636
543.292 .0294110
544.101 .0293787
544.910 .0293567
545.718 .0293552
546.526 .0293711
547.333 .0294139
548.139 .0294872
548.945 .0295841
549.750 .0296851
550.555 .0297990
551.359 .0299113
552.162 .0300213
552.965 .0301264
553.768 .0302287
554.569 .0303251
555.371 .0304234
556.171 .0305160
556.972 .0306045
557.771 .0306860
558.570 .0307606
559.369 .0308239
560.167 .0308818
560.964 .0309292
561.761 .0309639
562.558 .0309949
563.354 .0310287
564.149 .0310592
564.944 .0310900
565.738 .0311174
566.532 .0311450
567.325 .0311749
568.118 .0312035
568.910 .0312354
569.702 .0312758
570.494 .0313305
571.285 .0313947
572.075 .0314695
572.865 .0315536
573.654 .0316422
574.443 .0317318
575.232 .0318194
576.020 .0319002
576.807 .0319780
577.594 .0320474
578.381 .0321130
579.167 .0321764
579.952 .0322383
580.738 .0322984
581.522 .0323607
582.307 .0324197
583.091 .0324783
583.874 .0325312
584.657 .0325815
585.440 .0326251
586.222 .0326659
587.004 .0327011
587.785 .0327324
588.566 .0327590
589.346 .0327823
590.126 .0327992
590.906 .0328132
591.685 .0328236
592.464 .0328300
593.242 .0328328
594.020 .0328321
594.797 .0328283
595.575 .0328228
596.351 .0328141
597.128 .0328027
597.904 .0327879
598.679 .0327718
599.454 .0327530
600.229 .0327320
601.004 .0327103
601.778 .0326878
602.551 .0326640
603.325 .0326403
604.097 .0326157
604.870 .0325900
605.642 .0325645
606.414 .0325381
607.185 .0325113
607.956 .0324845
608.727 .0324571
609.497 .0324301
610.267 .0324034
611.037 .0323780
611.806 .0323520
612.575 .0323262
613.344 .0323017
614.112 .0322772
614.880 .0322525
615.647 .0322276
616.414 .0322024
617.181 .0321778
617.948 .0321547
618.714 .0321327
619.480 .0321120
620.245 .0320931
621.011 .0320755
621.775 .0320584
622.540 .0320412
623.304 .0320242
624.068 .0320065
624.832 .0319890
625.595 .0319717
626.358 .0319537
627.120 .0319366
627.883 .0319214
628.645 .0319076
629.406 .0318944
630.168 .0318818
630.929 .0318693
631.689 .0318556
632.450 .0318416
633.210 .0318269
633.970 .0318120
634.729 .0317984
635.489 .0317851
636.248 .0317731
637.006 .0317616
637.765 .0317504
638.523 .0317389
639.280 .0317265
640.038 .0317131
640.795 .0316975
641.552 .0316817
642.309 .0316669
643.065 .0316531
643.821 .0316406
644.577 .0316297
645.332 .0316199
646.088 .0316095
646.843 .0315968
647.597 .0315817
648.352 .0315640
649.106 .0315428
649.860 .0315190
650.613 .0314934
651.367 .0314676
652.120 .0314420
652.872 .0314165
653.625 .0313922
654.377 .0313681
655.129 .0313449
655.881 .0313218
656.632 .0312990
657.384 .0312774
658.135 .0312568
658.885 .0312372
659.636 .0312194
660.386 .0312031
661.136 .0311872
661.885 .0311721
662.635 .0311575
663.384 .0311421
664.133 .0311247
664.881 .0311068
665.630 .0310874
666.378 .0310659
667.126 .0310439
667.874 .0310197
668.621 .0309942
669.368 .0309673
670.115 .0309384
670.862 .0309075
671.608 .0308758
672.354 .0308440
673.100 .0308111
673.846 .0307786
674.591 .0307465
675.337 .0307146
676.082 .0306841
676.826 .0306551
677.571 .0306271
678.315 .0306002
679.059 .0305754
679.803 .0305514
680.547 .0305287
681.290 .0305067
682.033 .0304854
682.776 .0304642
683.518 .0304428
684.261 .0304208
685.003 .0303979
685.745 .0303752
686.487 .0303527
687.228 .0303312
687.969 .0303101
688.710 .0302894
689.451 .0302687
690.192 .0302475
690.932 .0302260
691.672 .0302031
692.412 .0301786
693.152 .0301528
693.891 .0301267
694.630 .0301002
695.369 .0300736
696.108 .0300486
696.846 .0300251
697.585 .0300026
698.323 .0299814
699.061 .0299612
699.798 .0299418
700.536 .0299237
701.273 .0299065
702.010 .0298905
702.746 .0298758
703.483 .0298626
704.219 .0298511
704.955 .0298411
705.691 .0298321
706.427 .0298227
707.162 .0298133
707.897 .0298037
708.632 .0297927
709.367 .0297809
710.101 .0297684
710.835 .0297559
711.569 .0297429
712.303 .0297295
713.037 .0297168
713.770 .0297044
714.503 .0296919
715.236 .0296794
715.969 .0296661
716.702 .0296522
717.434 .0296377
718.166 .0296225
718.898 .0296077
719.629 .0295935
720.361 .0295806
721.092 .0295689
721.823 .0295585
722.554 .0295491
723.284 .0295391
724.014 .0295284
724.744 .0295159
725.474 .0295003
726.204 .0294828
726.933 .0294639
727.662 .0294444
728.391 .0294256
729.120 .0294079
729.849 .0293922
730.577 .0293783
731.305 .0293654
732.033 .0293530
732.760 .0293395
733.488 .0293246
734.215 .0293077
734.942 .0292890
735.669 .0292692
736.395 .0292492
737.122 .0292299
737.848 .0292120
738.573 .0291947
739.299 .0291782
740.024 .0291621
740.750 .0291460
741.474 .0291296
742.199 .0291121
742.924 .0290939
743.648 .0290752
744.372 .0290566
745.096 .0290390
745.819 .0290221
746.543 .0290058
747.266 .0289906
747.989 .0289758
748.711 .0289613
749.434 .0289471
750.156 .0289334
750.878 .0289206
751.599 .0289090
752.321 .0288980
753.042 .0288870
753.763 .0288763
754.484 .0288663
755.205 .0288556
755.925 .0288446
756.645 .0288319
757.365 .0288181
758.085 .0288039
758.804 .0287893
759.523 .0287741
760.242 .0287592
760.961 .0287447
761.679 .0287306
762.397 .0287159
763.115 .0287008
763.833 .0286838
764.551 .0286656
765.268 .0286444
765.985 .0286200
766.702 .0285926
767.418 .0285629
768.134 .0285312
768.850 .0284990
769.566 .0284662
770.282 .0284335
770.997 .0284013
771.712 .0283701
772.427 .0283393
773.142 .0283091
773.856 .0282786
774.570 .0282482
775.284 .0282181
775.998 .0281887
776.711 .0281600
777.424 .0281342
778.137 .0281112
778.849 .0280907
779.562 .0280731
780.274 .0280576
780.986 .0280435
781.697 .0280303
782.409 .0280170
783.120 .0280035
783.831 .0279896
784.541 .0279751
785.252 .0279599
785.962 .0279449
786.671 .0279293
787.381 .0279132
788.090 .0278961
788.799 .0278777
789.508 .0278580
790.217 .0278368
790.925 .0278142
791.633 .0277909
792.341 .0277670
793.048 .0277429
793.755 .0277185
794.462 .0276945
795.169 .0276702
795.875 .0276464
796.581 .0276237
797.287 .0276017
797.993 .0275809
798.698 .0275622
799.403 .0275448
800.108 .0275297
800.812 .0275165
801.517 .0275049
802.221 .0274941
802.924 .0274838
803.628 .0274732
804.331 .0274628
805.034 .0274527
805.736 .0274431
806.439 .0274342
807.141 .0274264
807.843 .0274187
808.544 .0274103
809.245 .0274013
809.946 .0273908
810.647 .0273788
811.347 .0273653
812.047 .0273509
812.747 .0273364
813.447 .0273220
814.146 .0273083
814.845 .0272965
815.543 .0272861
816.242 .0272773
816.940 .0272689
817.638 .0272611
818.335 .0272533
819.032 .0272456
819.729 .0272378
820.426 .0272309
821.122 .0272242
821.818 .0272174
822.514 .0272102
823.209 .0272029
823.905 .0271942
824.599 .0271843
825.294 .0271736
825.988 .0271623
826.682 .0271502
827.376 .0271381
828.069 .0271265
828.762 .0271162
829.455 .0271065
830.147 .0270965
830.840 .0270862
831.531 .0270757
832.223 .0270644
832.914 .0270530
833.605 .0270432
834.296 .0270354
834.986 .0270303
835.676 .0270282
836.366 .0270285
837.055 .0270305
837.744 .0270331
838.433 .0270350
839.121 .0270358
839.809 .0270346
840.497 .0270313
841.185 .0270263
841.872 .0270211
842.559 .0270160
843.245 .0270113
843.932 .0270076
844.617 .0270047
845.303 .0270021
845.988 .0269989
846.673 .0269950
847.358 .0269909
848.042 .0269864
848.726 .0269817
849.410 .0269774
850.093 .0269735
850.776 .0269704
851.459 .0269672
852.141 .0269641
852.823 .0269608
853.505 .0269572
854.186 .0269529
854.867 .0269487
855.548 .0269434
856.228 .0269373
856.908 .0269300
857.588 .0269219
858.267 .0269125
858.946 .0269019
859.625 .0268899
860.303 .0268768
860.981 .0268629
861.659 .0268486
862.336 .0268335
863.013 .0268187
863.690 .0268036
864.366 .0267882
865.042 .0267721
865.718 .0267558
866.393 .0267392
867.068 .0267233
867.743 .0267078
868.417 .0266931
869.091 .0266792
869.765 .0266664
870.438 .0266548
871.111 .0266440
871.783 .0266340
872.456 .0266247
873.127 .0266157
873.799 .0266068
874.470 .0265971
875.141 .0265870
875.811 .0265766
876.481 .0265657
877.151 .0265545
877.820 .0265432
878.489 .0265324
879.158 .0265220
879.826 .0265121
880.494 .0265022
881.162 .0264921
881.829 .0264810
882.496 .0264686
883.163 .0264544
883.829 .0264393
884.495 .0264236
885.160 .0264083
885.825 .0263945
886.490 .0263829
887.154 .0263732
887.818 .0263662
888.482 .0263608
889.145 .0263557
889.808 .0263503
890.471 .0263436
891.133 .0263346
891.795 .0263236
892.456 .0263106
893.117 .0262958
893.778 .0262809
894.439 .0262666
895.099 .0262525
895.758 .0262387
896.417 .0262256
897.076 .0262124
897.735 .0261986
898.393 .0261837
899.051 .0261673
899.708 .0261495
900.365 .0261309
901.022 .0261118
901.678 .0260925
902.334 .0260740
902.990 .0260566
903.645 .0260398
904.300 .0260237
904.954 .0260076
905.608 .0259911
906.262 .0259745
906.915 .0259578
907.568 .0259409
908.221 .0259240
908.873 .0259079
909.525 .0258930
910.176 .0258794
910.828 .0258665
911.478 .0258541
912.129 .0258409
912.778 .0258272
913.428 .0258123
914.077 .0257963
914.726 .0257796
915.375 .0257624
916.023 .0257450
916.670 .0257271
917.318 .0257090
917.964 .0256909
918.611 .0256717
919.257 .0256514
919.903 .0256297
920.548 .0256071
921.193 .0255833
921.838 .0255602
922.482 .0255377
923.126 .0255166
923.770 .0254969
924.413 .0254789
925.056 .0254623
925.698 .0254479
926.340 .0254350
926.982 .0254222
927.623 .0254091
928.264 .0253957
928.904 .0253807
929.544 .0253648
930.184 .0253479
930.823 .0253297
931.462 .0253103
932.101 .0252904
932.739 .0252691
933.377 .0252476
934.014 .0252261
934.651 .0252048
935.288 .0251835
935.924 .0251625
936.560 .0251412
937.196 .0251196
937.831 .0250981
938.466 .0250764
939.100 .0250539
939.734 .0250313
940.368 .0250084
941.001 .0249862
941.634 .0249648
942.266 .0249441
942.899 .0249243
943.530 .0249048
944.162 .0248851
944.793 .0248649
945.423 .0248438
946.053 .0248222
946.683 .0248001
947.313 .0247769
947.942 .0247536
948.571 .0247310
949.199 .0247095
949.827 .0246886
950.455 .0246686
951.082 .0246496
951.709 .0246314
952.335 .0246143
952.961 .0245978
953.587 .0245817
954.212 .0245663
954.837 .0245508
955.462 .0245352
956.086 .0245197
956.710 .0245039
957.334 .0244885
957.957 .0244730
958.579 .0244575
959.202 .0244420
959.824 .0244274
960.445 .0244144
961.067 .0244027
961.688 .0243927
962.308 .0243839
962.928 .0243757
963.548 .0243681
964.168 .0243601
964.787 .0243524
965.406 .0243448
966.024 .0243372
966.642 .0243290
967.260 .0243212
967.877 .0243130
968.494 .0243048
969.110 .0242964
969.727 .0242884
970.342 .0242801
970.958 .0242725
971.573 .0242660
972.188 .0242598
972.802 .0242552
973.416 .0242514
974.030 .0242478
974.643 .0242450
975.256 .0242416
975.869 .0242378
976.481 .0242338
977.093 .0242312
977.705 .0242290
978.316 .0242285
978.927 .0242305
979.538 .0242343
980.148 .0242393
980.758 .0242453
981.367 .0242503
981.977 .0242537
982.586 .0242556
983.194 .0242546
983.802 .0242515
984.410 .0242478
985.018 .0242440
985.625 .0242415
986.232 .0242399
986.838 .0242398
987.445 .0242392
988.050 .0242391
988.656 .0242382
989.261 .0242360
989.866 .0242331
990.471 .0242305
991.075 .0242282
991.679 .0242267
992.282 .0242264
992.886 .0242275
993.489 .0242302
994.091 .0242343
994.694 .0242384
995.296 .0242430
995.897 .0242482
996.499 .0242542
997.100 .0242609
997.701 .0242687
998.301 .0242767
998.901 .0242844
999.501 .0242918
1000.101 .0242979
1000.700 .0243025
1001.299 .0243056
1001.898 .0243071
1002.496 .0243081
1003.094 .0243090
1003.692 .0243107
1004.289 .0243136
1004.887 .0243189
1005.484 .0243253
1006.080 .0243320
1006.677 .0243393
1007.273 .0243464
1007.868 .0243543
1008.464 .0243632
1009.059 .0243727
1009.654 .0243834
1010.249 .0243960
1010.843 .0244101
1011.437 .0244248
1012.031 .0244404
1012.625 .0244561
1013.218 .0244715
1013.811 .0244861
1014.404 .0245001
1014.997 .0245131
1015.589 .0245256
1016.181 .0245377
1016.773 .0245486
1017.365 .0245587
1017.956 .0245676
1018.547 .0245754
1019.138 .0245825
1019.728 .0245880
1020.319 .0245923
1020.909 .0245949
1021.499 .0245970
1022.088 .0245980
1022.678 .0245975
1023.267 .0245969
1023.856 .0245955
1024.445 .0245934
1025.033 .0245903
1025.621 .0245870
1026.209 .0245845
1026.797 .0245821
1027.385 .0245802
1027.972 .0245795
1028.560 .0245804
1029.147 .0245827
1029.734 .0245871
1030.320 .0245930
1030.907 .0246004
1031.493 .0246095
1032.079 .0246202
1032.665 .0246319
1033.250 .0246438
1033.836 .0246554
1034.421 .0246663
1035.006 .0246759
1035.591 .0246837
1036.176 .0246885
1036.761 .0246921
1037.345 .0246939
1037.929 .0246933
1038.514 .0246912
1039.097 .0246890
1039.681 .0246863
1040.265 .0246831
1040.848 .0246800
1041.432 .0246769
1042.015 .0246749
1042.598 .0246736
1043.181 .0246734
1043.764 .0246747
1044.346 .0246780
1044.929 .0246834
1045.511 .0246895
1046.094 .0246972
1046.676 .0247059
1047.258 .0247138
1047.840 .0247210
1048.422 .0247264
1049.003 .0247299
1049.585 .0247314
1050.166 .0247316
1050.748 .0247300
1051.329 .0247263
1051.910 .0247217
1052.491 .0247156
1053.072 .0247073
1053.653 .0246982
1054.234 .0246868
1054.815 .0246726
1055.396 .0246583
1055.976 .0246428
1056.557 .0246258
1057.138 .0246103
1057.718 .0245959
1058.298 .0245829
1058.879 .0245711
1059.459 .0245610
1060.039 .0245525
1060.620 .0245449
1061.200 .0245387
1061.780 .0245310
1062.360 .0245238
1062.940 .0245177
1063.520 .0245097
1064.101 .0245029
1064.681 .0244965
1065.261 .0244901
1065.841 .0244823
1066.421 .0244747
1067.001 .0244665
1067.581 .0244565
1068.161 .0244441
1068.741 .0244281
1069.321 .0244086
1069.901 .0243865
1070.482 .0243613
1071.062 .0243351
1071.642 .0243109
1072.222 .0242898
1072.803 .0242705
1073.383 .0242564
1073.963 .0242463
1074.544 .0242409
1075.124 .0242393
1075.705 .0242409
1076.286 .0242447
1076.866 .0242512
1077.447 .0242613
1078.028 .0242738
1078.609 .0242905
1079.190 .0243114
1079.771 .0243339
1080.352 .0243575
1080.934 .0243798
1081.515 .0243989
1082.097 .0244139
1082.679 .0244245
1083.260 .0244307
1083.842 .0244311
1084.424 .0244286
1085.007 .0244224
1085.589 .0244129
1086.172 .0244003
1086.754 .0243849
1087.337 .0243673
1087.920 .0243478
1088.503 .0243283
1089.087 .0243101
1089.670 .0242953
1090.254 .0242859
1090.838 .0242806
1091.422 .0242804
1092.006 .0242821
1092.590 .0242845
1093.175 .0242849
1093.760 .0242818
1094.345 .0242752
1094.930 .0242666
1095.516 .0242583
1096.102 .0242533
1096.688 .0242521
1097.274 .0242564
1097.860 .0242678
1098.447 .0242831
1099.034 .0242979
1099.622 .0243067
1100.209 .0243093
1100.797 .0243030
1101.385 .0242881
1101.973 .0242675
1102.562 .0242456
1103.151 .0242266
1103.740 .0242132
1104.330 .0242036
1104.920 .0241968
1105.510 .0241914
1106.101 .0241851
1106.691 .0241731
1107.283 .0241577
1107.874 .0241364
1108.466 .0241146
1109.058 .0240946
1109.651 .0240809
1110.244 .0240724
1110.837 .0240716
1111.431 .0240761
1112.025 .0240826
1112.620 .0240873
1113.215 .0240882
1113.810 .0240834
1114.406 .0240773
1115.002 .0240696
1115.599 .0240633
1116.196 .0240595
1116.793 .0240617
1117.391 .0240670
1117.989 .0240747
1118.588 .0240802
1119.187 .0240822
1119.787 .0240783
1120.387 .0240677
1120.988 .0240543
1121.589 .0240433
1122.190 .0240357
1122.793 .0240389
1123.395 .0240526
1123.998 .0240791
1124.602 .0241141
1125.206 .0241568
1125.811 .0242038
1126.416 .0242491
1127.022 .0242914
1127.628 .0243257
1128.235 .0243552
1128.843 .0243832
1129.451 .0244109
1130.059 .0244413
1130.669 .0244780
1131.278 .0245218
1131.889 .0245639
1132.500 .0246047
1133.112 .0246403
1133.724 .0246692
1134.337 .0246911
1134.950 .0247045
1135.564 .0247165
1136.179 .0247282
1136.795 .0247464
1137.411 .0247706
1138.028 .0248020
1138.645 .0248393
1139.263 .0248817
1139.882 .0249205
1140.502 .0249637
1141.122 .0250035
1141.743 .0250534
1142.365 .0250968
1142.987 .0249877
1143.611 .0252852
1144.235 .0251753
1144.859 .0255011
1145.485 .0252145
