Measurement Sequence started on: 10-20-44-796
Integration time: 35
Scans to Average: 2 
>>>>>Begin Spectral Data<<<<<
432.953 .0413281
433.882 .0373090
434.810 .0343161
435.737 .0372708
436.662 .0354467
437.586 .0353905
438.509 .0349176
439.431 .0346119
440.351 .0344107
441.269 .0341715
442.187 .0340401
443.103 .0339720
444.018 .0339530
444.932 .0339798
445.844 .0340190
446.756 .0340459
447.666 .0340561
448.575 .0340373
449.482 .0339954
450.388 .0339334
451.294 .0338723
452.198 .0338233
453.100 .0337895
454.002 .0337931
454.902 .0338247
455.801 .0338650
456.699 .0339073
457.596 .0339366
458.492 .0339440
459.387 .0339261
460.280 .0338954
461.172 .0338535
462.064 .0338117
462.954 .0337792
463.843 .0337569
464.730 .0337491
465.617 .0337551
466.503 .0337671
467.387 .0337791
468.271 .0337828
469.153 .0337772
470.035 .0337579
470.915 .0337369
471.794 .0337080
472.673 .0336785
473.550 .0336502
474.426 .0336307
475.301 .0336138
476.175 .0336032
477.048 .0335986
477.920 .0335966
478.791 .0335965
479.661 .0336026
480.530 .0336125
481.398 .0336278
482.266 .0336461
483.132 .0336693
483.997 .0336919
484.861 .0337173
485.724 .0337416
486.587 .0337690
487.448 .0337969
488.308 .0338233
489.168 .0338438
490.026 .0338605
490.884 .0338717
491.741 .0338731
492.597 .0338660
493.452 .0338502
494.306 .0338211
495.159 .0337815
496.011 .0337328
496.862 .0336772
497.713 .0336160
498.562 .0335454
499.411 .0334678
500.259 .0333853
501.106 .0332962
501.952 .0332014
502.798 .0331066
503.642 .0330127
504.486 .0329191
505.329 .0328270
506.171 .0327381
507.012 .0326485
507.852 .0325626
508.692 .0324786
509.531 .0323923
510.369 .0323080
511.206 .0322263
512.043 .0321425
512.878 .0320643
513.713 .0319856
514.547 .0319030
515.381 .0318160
516.213 .0317179
517.045 .0316043
517.876 .0314771
518.706 .0313396
519.536 .0311927
520.365 .0310438
521.193 .0309029
522.020 .0307635
522.847 .0306265
523.673 .0304852
524.498 .0303263
525.323 .0301460
526.146 .0299461
526.969 .0297277
527.792 .0294976
528.614 .0292695
529.435 .0290546
530.255 .0288649
531.075 .0287008
531.894 .0285577
532.712 .0284270
533.530 .0283018
534.347 .0281736
535.163 .0280314
535.979 .0278885
536.794 .0277545
537.608 .0276353
538.422 .0275477
539.235 .0274888
540.048 .0274598
540.860 .0274554
541.671 .0274678
542.481 .0274868
543.292 .0275049
544.101 .0275260
544.910 .0275510
545.718 .0275820
546.526 .0276254
547.333 .0276773
548.139 .0277454
548.945 .0278254
549.750 .0279016
550.555 .0279711
551.359 .0280353
552.162 .0280871
552.965 .0281327
553.768 .0281753
554.569 .0282239
555.371 .0282734
556.171 .0283228
556.972 .0283743
557.771 .0284223
558.570 .0284666
559.369 .0285087
560.167 .0285458
560.964 .0285895
561.761 .0286343
562.558 .0286843
563.354 .0287441
564.149 .0288117
564.944 .0288839
565.738 .0289580
566.532 .0290327
567.325 .0291066
568.118 .0291729
568.910 .0292362
569.702 .0292983
570.494 .0293602
571.285 .0294207
572.075 .0294798
572.865 .0295383
573.654 .0295976
574.443 .0296534
575.232 .0297103
576.020 .0297676
576.807 .0298240
577.594 .0298816
578.381 .0299357
579.167 .0299893
579.952 .0300430
580.738 .0300950
581.522 .0301473
582.307 .0301982
583.091 .0302473
583.874 .0302950
584.657 .0303415
585.440 .0303884
586.222 .0304327
587.004 .0304758
587.785 .0305162
588.566 .0305532
589.346 .0305867
590.126 .0306160
590.906 .0306406
591.685 .0306619
592.464 .0306778
593.242 .0306888
594.020 .0306962
594.797 .0306996
595.575 .0307012
596.351 .0307013
597.128 .0306998
597.904 .0306975
598.679 .0306940
599.454 .0306888
600.229 .0306813
601.004 .0306721
601.778 .0306602
602.551 .0306455
603.325 .0306294
604.097 .0306116
604.870 .0305945
605.642 .0305799
606.414 .0305672
607.185 .0305571
607.956 .0305499
608.727 .0305448
609.497 .0305406
610.267 .0305367
611.037 .0305319
611.806 .0305254
612.575 .0305179
613.344 .0305090
614.112 .0304981
614.880 .0304869
615.647 .0304753
616.414 .0304623
617.181 .0304479
617.948 .0304319
618.714 .0304143
619.480 .0303952
620.245 .0303749
621.011 .0303532
621.775 .0303308
622.540 .0303085
623.304 .0302860
624.068 .0302636
624.832 .0302420
625.595 .0302202
626.358 .0301990
627.120 .0301788
627.883 .0301587
628.645 .0301391
629.406 .0301203
630.168 .0301021
630.929 .0300842
631.689 .0300655
632.450 .0300462
633.210 .0300255
633.970 .0300039
634.729 .0299809
635.489 .0299571
636.248 .0299333
637.006 .0299090
637.765 .0298842
638.523 .0298594
639.280 .0298343
640.038 .0298090
640.795 .0297838
641.552 .0297593
642.309 .0297363
643.065 .0297148
643.821 .0296949
644.577 .0296771
645.332 .0296608
646.088 .0296452
646.843 .0296293
647.597 .0296125
648.352 .0295947
649.106 .0295757
649.860 .0295563
650.613 .0295364
651.367 .0295173
652.120 .0294989
652.872 .0294812
653.625 .0294638
654.377 .0294460
655.129 .0294276
655.881 .0294082
656.632 .0293877
657.384 .0293658
658.135 .0293431
658.885 .0293206
659.636 .0292984
660.386 .0292767
661.136 .0292554
661.885 .0292347
662.635 .0292141
663.384 .0291938
664.133 .0291732
664.881 .0291526
665.630 .0291328
666.378 .0291138
667.126 .0290955
667.874 .0290780
668.621 .0290612
669.368 .0290444
670.115 .0290275
670.862 .0290101
671.608 .0289922
672.354 .0289743
673.100 .0289573
673.846 .0289408
674.591 .0289255
675.337 .0289116
676.082 .0288992
676.826 .0288873
677.571 .0288756
678.315 .0288630
679.059 .0288497
679.803 .0288358
680.547 .0288213
681.290 .0288064
682.033 .0287919
682.776 .0287774
683.518 .0287631
684.261 .0287484
685.003 .0287336
685.745 .0287174
686.487 .0287003
687.228 .0286820
687.969 .0286625
688.710 .0286419
689.451 .0286207
690.192 .0285988
690.932 .0285765
691.672 .0285535
692.412 .0285303
693.152 .0285068
693.891 .0284834
694.630 .0284607
695.369 .0284388
696.108 .0284176
696.846 .0283975
697.585 .0283779
698.323 .0283592
699.061 .0283409
699.798 .0283223
700.536 .0283038
701.273 .0282849
702.010 .0282655
702.746 .0282460
703.483 .0282262
704.219 .0282066
704.955 .0281865
705.691 .0281661
706.427 .0281451
707.162 .0281238
707.897 .0281022
708.632 .0280805
709.367 .0280589
710.101 .0280382
710.835 .0280180
711.569 .0279988
712.303 .0279806
713.037 .0279636
713.770 .0279478
714.503 .0279332
715.236 .0279198
715.969 .0279078
716.702 .0278975
717.434 .0278889
718.166 .0278810
718.898 .0278737
719.629 .0278660
720.361 .0278577
721.092 .0278482
721.823 .0278371
722.554 .0278244
723.284 .0278105
724.014 .0277952
724.744 .0277785
725.474 .0277605
726.204 .0277414
726.933 .0277211
727.662 .0277002
728.391 .0276787
729.120 .0276565
729.849 .0276347
730.577 .0276141
731.305 .0275938
732.033 .0275747
732.760 .0275566
733.488 .0275394
734.215 .0275230
734.942 .0275071
735.669 .0274915
736.395 .0274766
737.122 .0274626
737.848 .0274490
738.573 .0274361
739.299 .0274236
740.024 .0274111
740.750 .0273980
741.474 .0273844
742.199 .0273692
742.924 .0273527
743.648 .0273358
744.372 .0273186
745.096 .0273021
745.819 .0272868
746.543 .0272731
747.266 .0272614
747.989 .0272513
748.711 .0272428
749.434 .0272361
750.156 .0272311
750.878 .0272274
751.599 .0272252
752.321 .0272246
753.042 .0272257
753.763 .0272279
754.484 .0272310
755.205 .0272341
755.925 .0272369
756.645 .0272383
757.365 .0272380
758.085 .0272365
758.804 .0272332
759.523 .0272279
760.242 .0272205
760.961 .0272108
761.679 .0271987
762.397 .0271842
763.115 .0271673
763.833 .0271479
764.551 .0271270
765.268 .0271045
765.985 .0270810
766.702 .0270575
767.418 .0270343
768.134 .0270117
768.850 .0269902
769.566 .0269697
770.282 .0269496
770.997 .0269304
771.712 .0269120
772.427 .0268940
773.142 .0268768
773.856 .0268600
774.570 .0268436
775.284 .0268280
775.998 .0268126
776.711 .0267971
777.424 .0267819
778.137 .0267670
778.849 .0267520
779.562 .0267372
780.274 .0267231
780.986 .0267097
781.697 .0266973
782.409 .0266859
783.120 .0266753
783.831 .0266659
784.541 .0266574
785.252 .0266496
785.962 .0266426
786.671 .0266360
787.381 .0266299
788.090 .0266243
788.799 .0266189
789.508 .0266130
790.217 .0266068
790.925 .0266000
791.633 .0265923
792.341 .0265836
793.048 .0265737
793.755 .0265623
794.462 .0265495
795.169 .0265354
795.875 .0265197
796.581 .0265032
797.287 .0264862
797.993 .0264688
798.698 .0264524
799.403 .0264365
800.108 .0264214
800.812 .0264075
801.517 .0263946
802.221 .0263822
802.924 .0263704
803.628 .0263592
804.331 .0263489
805.034 .0263395
805.736 .0263310
806.439 .0263231
807.141 .0263164
807.843 .0263104
808.544 .0263042
809.245 .0262971
809.946 .0262889
810.647 .0262783
811.347 .0262664
812.047 .0262529
812.747 .0262382
813.447 .0262225
814.146 .0262067
814.845 .0261910
815.543 .0261754
816.242 .0261599
816.940 .0261446
817.638 .0261288
818.335 .0261132
819.032 .0260968
819.729 .0260801
820.426 .0260637
821.122 .0260479
821.818 .0260319
822.514 .0260165
823.209 .0260016
823.905 .0259871
824.599 .0259728
825.294 .0259592
825.988 .0259455
826.682 .0259316
827.376 .0259172
828.069 .0259018
828.762 .0258852
829.455 .0258677
830.147 .0258491
830.840 .0258300
831.531 .0258111
832.223 .0257928
832.914 .0257757
833.605 .0257602
834.296 .0257462
834.986 .0257332
835.676 .0257209
836.366 .0257088
837.055 .0256966
837.744 .0256843
838.433 .0256722
839.121 .0256603
839.809 .0256490
840.497 .0256382
841.185 .0256281
841.872 .0256185
842.559 .0256094
843.245 .0256002
843.932 .0255904
844.617 .0255796
845.303 .0255684
845.988 .0255567
846.673 .0255443
847.358 .0255321
848.042 .0255202
848.726 .0255088
849.410 .0254980
850.093 .0254876
850.776 .0254774
851.459 .0254672
852.141 .0254569
852.823 .0254462
853.505 .0254348
854.186 .0254229
854.867 .0254107
855.548 .0253985
856.228 .0253866
856.908 .0253752
857.588 .0253648
858.267 .0253555
858.946 .0253468
859.625 .0253390
860.303 .0253316
860.981 .0253248
861.659 .0253184
862.336 .0253117
863.013 .0253051
863.690 .0252985
864.366 .0252915
865.042 .0252847
865.718 .0252781
866.393 .0252713
867.068 .0252641
867.743 .0252569
868.417 .0252492
869.091 .0252409
869.765 .0252320
870.438 .0252223
871.111 .0252113
871.783 .0251993
872.456 .0251861
873.127 .0251720
873.799 .0251581
874.470 .0251443
875.141 .0251309
875.811 .0251193
876.481 .0251089
877.151 .0251002
877.820 .0250929
878.489 .0250872
879.158 .0250824
879.826 .0250781
880.494 .0250740
881.162 .0250699
881.829 .0250656
882.496 .0250616
883.163 .0250570
883.829 .0250524
884.495 .0250475
885.160 .0250426
885.825 .0250378
886.490 .0250333
887.154 .0250285
887.818 .0250239
888.482 .0250192
889.145 .0250143
889.808 .0250090
890.471 .0250035
891.133 .0249981
891.795 .0249928
892.456 .0249874
893.117 .0249825
893.778 .0249777
894.439 .0249737
895.099 .0249698
895.758 .0249665
896.417 .0249633
897.076 .0249599
897.735 .0249567
898.393 .0249538
899.051 .0249511
899.708 .0249484
900.365 .0249458
901.022 .0249434
901.678 .0249409
902.334 .0249380
902.990 .0249350
903.645 .0249323
904.300 .0249303
904.954 .0249290
905.608 .0249281
906.262 .0249277
906.915 .0249277
907.568 .0249272
908.221 .0249265
908.873 .0249251
909.525 .0249232
910.176 .0249205
910.828 .0249176
911.478 .0249147
912.129 .0249112
912.778 .0249075
913.428 .0249036
914.077 .0248986
914.726 .0248928
915.375 .0248856
916.023 .0248779
916.670 .0248702
917.318 .0248626
917.964 .0248549
918.611 .0248477
919.257 .0248406
919.903 .0248334
920.548 .0248254
921.193 .0248173
921.838 .0248085
922.482 .0247996
923.126 .0247909
923.770 .0247827
924.413 .0247749
925.056 .0247672
925.698 .0247596
926.340 .0247516
926.982 .0247424
927.623 .0247323
928.264 .0247213
928.904 .0247096
929.544 .0246978
930.184 .0246862
930.823 .0246750
931.462 .0246643
932.101 .0246537
932.739 .0246429
933.377 .0246312
934.014 .0246188
934.651 .0246061
935.288 .0245935
935.924 .0245820
936.560 .0245718
937.196 .0245638
937.831 .0245579
938.466 .0245535
939.100 .0245503
939.734 .0245476
940.368 .0245442
941.001 .0245399
941.634 .0245339
942.266 .0245269
942.899 .0245186
943.530 .0245094
944.162 .0244996
944.793 .0244894
945.423 .0244783
946.053 .0244658
946.683 .0244520
947.313 .0244369
947.942 .0244200
948.571 .0244016
949.199 .0243819
949.827 .0243613
950.455 .0243406
951.082 .0243206
951.709 .0243015
952.335 .0242842
952.961 .0242684
953.587 .0242538
954.212 .0242405
954.837 .0242280
955.462 .0242157
956.086 .0242040
956.710 .0241926
957.334 .0241815
957.957 .0241710
958.579 .0241615
959.202 .0241530
959.824 .0241457
960.445 .0241395
961.067 .0241337
961.688 .0241279
962.308 .0241218
962.928 .0241148
963.548 .0241071
964.168 .0240986
964.787 .0240892
965.406 .0240797
966.024 .0240706
966.642 .0240615
967.260 .0240527
967.877 .0240443
968.494 .0240355
969.110 .0240260
969.727 .0240159
970.342 .0240051
970.958 .0239936
971.573 .0239820
972.188 .0239709
972.802 .0239605
973.416 .0239514
974.030 .0239426
974.643 .0239341
975.256 .0239258
975.869 .0239169
976.481 .0239065
977.093 .0238951
977.705 .0238833
978.316 .0238713
978.927 .0238594
979.538 .0238478
980.148 .0238364
980.758 .0238255
981.367 .0238145
981.977 .0238034
982.586 .0237918
983.194 .0237802
983.802 .0237686
984.410 .0237575
985.018 .0237475
985.625 .0237388
986.232 .0237320
986.838 .0237271
987.445 .0237237
988.050 .0237212
988.656 .0237191
989.261 .0237174
989.866 .0237151
990.471 .0237120
991.075 .0237081
991.679 .0237039
992.282 .0236996
992.886 .0236955
993.489 .0236915
994.091 .0236879
994.694 .0236844
995.296 .0236815
995.897 .0236784
996.499 .0236756
997.100 .0236733
997.701 .0236713
998.301 .0236698
998.901 .0236691
999.501 .0236687
1000.101 .0236691
1000.700 .0236699
1001.299 .0236704
1001.898 .0236701
1002.496 .0236700
1003.094 .0236693
1003.692 .0236684
1004.289 .0236671
1004.887 .0236660
1005.484 .0236645
1006.080 .0236629
1006.677 .0236600
1007.273 .0236557
1007.868 .0236504
1008.464 .0236436
1009.059 .0236348
1009.654 .0236248
1010.249 .0236141
1010.843 .0236036
1011.437 .0235936
1012.031 .0235847
1012.625 .0235761
1013.218 .0235690
1013.811 .0235624
1014.404 .0235565
1014.997 .0235508
1015.589 .0235458
1016.181 .0235412
1016.773 .0235374
1017.365 .0235346
1017.956 .0235331
1018.547 .0235327
1019.138 .0235343
1019.728 .0235372
1020.319 .0235417
1020.909 .0235468
1021.499 .0235522
1022.088 .0235577
1022.678 .0235628
1023.267 .0235668
1023.856 .0235705
1024.445 .0235737
1025.033 .0235773
1025.621 .0235811
1026.209 .0235851
1026.797 .0235889
1027.385 .0235919
1027.972 .0235941
1028.560 .0235949
1029.147 .0235945
1029.734 .0235931
1030.320 .0235903
1030.907 .0235874
1031.493 .0235845
1032.079 .0235815
1032.665 .0235783
1033.250 .0235753
1033.836 .0235715
1034.421 .0235664
1035.006 .0235598
1035.591 .0235519
1036.176 .0235432
1036.761 .0235339
1037.345 .0235247
1037.929 .0235151
1038.514 .0235062
1039.097 .0234980
1039.681 .0234903
1040.265 .0234835
1040.848 .0234777
1041.432 .0234723
1042.015 .0234680
1042.598 .0234637
1043.181 .0234600
1043.764 .0234557
1044.346 .0234517
1044.929 .0234470
1045.511 .0234414
1046.094 .0234354
1046.676 .0234300
1047.258 .0234249
1047.840 .0234212
1048.422 .0234183
1049.003 .0234167
1049.585 .0234159
1050.166 .0234151
1050.748 .0234126
1051.329 .0234090
1051.910 .0234044
1052.491 .0233993
1053.072 .0233934
1053.653 .0233887
1054.234 .0233850
1054.815 .0233826
1055.396 .0233819
1055.976 .0233815
1056.557 .0233812
1057.138 .0233807
1057.718 .0233793
1058.298 .0233764
1058.879 .0233713
1059.459 .0233646
1060.039 .0233567
1060.620 .0233479
1061.200 .0233390
1061.780 .0233286
1062.360 .0233179
1062.940 .0233060
1063.520 .0232941
1064.101 .0232807
1064.681 .0232664
1065.261 .0232514
1065.841 .0232351
1066.421 .0232170
1067.001 .0231977
1067.581 .0231771
1068.161 .0231576
1068.741 .0231396
1069.321 .0231241
1069.901 .0231110
1070.482 .0231018
1071.062 .0230957
1071.642 .0230936
1072.222 .0230953
1072.803 .0231006
1073.383 .0231077
1073.963 .0231165
1074.544 .0231251
1075.124 .0231318
1075.705 .0231359
1076.286 .0231357
1076.866 .0231308
1077.447 .0231226
1078.028 .0231094
1078.609 .0230942
1079.190 .0230778
1079.771 .0230635
1080.352 .0230498
1080.934 .0230376
1081.515 .0230254
1082.097 .0230120
1082.679 .0229966
1083.260 .0229782
1083.842 .0229562
1084.424 .0229345
1085.007 .0229136
1085.589 .0228970
1086.172 .0228867
1086.754 .0228863
1087.337 .0228940
1087.920 .0229098
1088.503 .0229303
1089.087 .0229528
1089.670 .0229728
1090.254 .0229882
1090.838 .0229961
1091.422 .0229988
1092.006 .0229963
1092.590 .0229912
1093.175 .0229857
1093.760 .0229816
1094.345 .0229788
1094.930 .0229770
1095.516 .0229739
1096.102 .0229706
1096.688 .0229648
1097.274 .0229566
1097.860 .0229452
1098.447 .0229333
1099.034 .0229204
1099.622 .0229085
1100.209 .0228995
1100.797 .0228929
1101.385 .0228885
1101.973 .0228873
1102.562 .0228861
1103.151 .0228838
1103.740 .0228833
1104.330 .0228827
1104.920 .0228820
1105.510 .0228851
1106.101 .0228897
1106.691 .0228958
1107.283 .0229041
1107.874 .0229135
1108.466 .0229210
1109.058 .0229262
1109.651 .0229277
1110.244 .0229232
1110.837 .0229161
1111.431 .0229057
1112.025 .0228908
1112.620 .0228764
1113.215 .0228644
1113.810 .0228549
1114.406 .0228509
1115.002 .0228549
1115.599 .0228636
1116.196 .0228755
1116.793 .0228886
1117.391 .0229012
1117.989 .0229144
1118.588 .0229257
1119.187 .0229360
1119.787 .0229450
1120.387 .0229543
1120.988 .0229639
1121.589 .0229727
1122.190 .0229819
1122.793 .0229883
1123.395 .0229902
1123.998 .0229855
1124.602 .0229727
1125.206 .0229566
1125.811 .0229382
1126.416 .0229217
1127.022 .0229097
1127.628 .0229024
1128.235 .0228995
1128.843 .0229036
1129.451 .0229131
1130.059 .0229277
1130.669 .0229481
1131.278 .0229743
1131.889 .0230044
1132.500 .0230399
1133.112 .0230831
1133.724 .0231345
1134.337 .0231919
1134.950 .0232537
1135.564 .0233137
1136.179 .0233704
1136.795 .0234225
1137.411 .0234711
1138.028 .0235171
1138.645 .0235632
1139.263 .0236108
1139.882 .0236597
1140.502 .0237179
1141.122 .0237822
1141.743 .0238568
1142.365 .0239380
1142.987 .0239364
1143.611 .0241762
1144.235 .0241751
1144.859 .0243583
1145.485 .0244011
