Measurement Sequence started on: 10-20-44-796
Integration time: 35
Scans to Average: 2 
>>>>>Begin Spectral Data<<<<<
432.953 .0284707
433.882 .0333238
434.810 .0341341
435.737 .0326696
436.662 .0354682
437.586 .0340267
438.509 .0342639
439.431 .0343130
440.351 .0343600
441.269 .0344797
442.187 .0345823
443.103 .0347601
444.018 .0350114
444.932 .0352756
445.844 .0355587
446.756 .0357980
447.666 .0360360
448.575 .0362439
449.482 .0364204
450.388 .0365819
451.294 .0367335
452.198 .0368845
453.100 .0370393
454.002 .0371928
454.902 .0373300
455.801 .0374321
456.699 .0375193
457.596 .0375723
458.492 .0375957
459.387 .0375885
460.280 .0375597
461.172 .0375169
462.064 .0374782
462.954 .0374406
463.843 .0374066
464.730 .0373917
465.617 .0373845
466.503 .0373825
467.387 .0373807
468.271 .0373798
469.153 .0373704
470.035 .0373571
470.915 .0373452
471.794 .0373210
472.673 .0373005
473.550 .0372867
474.426 .0372796
475.301 .0372813
476.175 .0372866
477.048 .0372923
477.920 .0372970
478.791 .0372993
479.661 .0372849
480.530 .0372623
481.398 .0372309
482.266 .0371907
483.132 .0371465
483.997 .0371069
484.861 .0370681
485.724 .0370359
486.587 .0370122
487.448 .0369861
488.308 .0369537
489.168 .0369159
490.026 .0368630
490.884 .0368009
491.741 .0367310
492.597 .0366523
493.452 .0365700
494.306 .0364951
495.159 .0364204
496.011 .0363499
496.862 .0362856
497.713 .0362205
498.562 .0361453
499.411 .0360662
500.259 .0359746
501.106 .0358779
501.952 .0357821
502.798 .0356882
503.642 .0355971
504.486 .0355181
505.329 .0354501
506.171 .0353878
507.012 .0353350
507.852 .0352863
508.692 .0352283
509.531 .0351642
510.369 .0350907
511.206 .0350043
512.043 .0349130
512.878 .0348201
513.713 .0347207
514.547 .0346159
515.381 .0345053
516.213 .0343858
517.045 .0342572
517.876 .0341152
518.706 .0339540
519.536 .0337685
520.365 .0335705
521.193 .0333551
522.020 .0331261
522.847 .0329032
523.673 .0326856
524.498 .0324666
525.323 .0322513
526.146 .0320396
526.969 .0318404
527.792 .0316485
528.614 .0314671
529.435 .0312961
530.255 .0311326
531.075 .0309778
531.894 .0308296
532.712 .0307014
533.530 .0305862
534.347 .0304813
535.163 .0303886
535.979 .0303051
536.794 .0302401
537.608 .0301925
538.422 .0301617
539.235 .0301469
540.048 .0301483
540.860 .0301464
541.671 .0301455
542.481 .0301587
543.292 .0301663
544.101 .0301703
544.910 .0301787
545.718 .0301881
546.526 .0301948
547.333 .0302040
548.139 .0302205
548.945 .0302326
549.750 .0302574
550.555 .0302769
551.359 .0302926
552.162 .0303127
552.965 .0303384
553.768 .0303595
554.569 .0303824
555.371 .0304125
556.171 .0304410
556.972 .0304720
557.771 .0305093
558.570 .0305470
559.369 .0305945
560.167 .0306496
560.964 .0307140
561.761 .0307854
562.558 .0308711
563.354 .0309578
564.149 .0310446
564.944 .0311307
565.738 .0312128
566.532 .0312862
567.325 .0313540
568.118 .0314208
568.910 .0314869
569.702 .0315551
570.494 .0316256
571.285 .0316962
572.075 .0317681
572.865 .0318362
573.654 .0318976
574.443 .0319503
575.232 .0319987
576.020 .0320427
576.807 .0320882
577.594 .0321377
578.381 .0321902
579.167 .0322448
579.952 .0323013
580.738 .0323596
581.522 .0324121
582.307 .0324602
583.091 .0325036
583.874 .0325453
584.657 .0325840
585.440 .0326214
586.222 .0326581
587.004 .0326953
587.785 .0327330
588.566 .0327676
589.346 .0327973
590.126 .0328216
590.906 .0328390
591.685 .0328502
592.464 .0328543
593.242 .0328546
594.020 .0328506
594.797 .0328461
595.575 .0328406
596.351 .0328321
597.128 .0328214
597.904 .0328083
598.679 .0327922
599.454 .0327732
600.229 .0327526
601.004 .0327307
601.778 .0327066
602.551 .0326816
603.325 .0326558
604.097 .0326294
604.870 .0326023
605.642 .0325750
606.414 .0325474
607.185 .0325210
607.956 .0324958
608.727 .0324714
609.497 .0324502
610.267 .0324312
611.037 .0324139
611.806 .0323975
612.575 .0323820
613.344 .0323668
614.112 .0323521
614.880 .0323387
615.647 .0323260
616.414 .0323137
617.181 .0323029
617.948 .0322923
618.714 .0322820
619.480 .0322704
620.245 .0322572
621.011 .0322414
621.775 .0322237
622.540 .0322034
623.304 .0321813
624.068 .0321584
624.832 .0321350
625.595 .0321118
626.358 .0320887
627.120 .0320655
627.883 .0320425
628.645 .0320193
629.406 .0319968
630.168 .0319744
630.929 .0319527
631.689 .0319324
632.450 .0319141
633.210 .0318970
633.970 .0318797
634.729 .0318622
635.489 .0318432
636.248 .0318217
637.006 .0317971
637.765 .0317697
638.523 .0317393
639.280 .0317069
640.038 .0316728
640.795 .0316374
641.552 .0316024
642.309 .0315674
643.065 .0315327
643.821 .0314983
644.577 .0314641
645.332 .0314297
646.088 .0313955
646.843 .0313627
647.597 .0313306
648.352 .0313004
649.106 .0312735
649.860 .0312496
650.613 .0312280
651.367 .0312089
652.120 .0311913
652.872 .0311742
653.625 .0311581
654.377 .0311412
655.129 .0311234
655.881 .0311054
656.632 .0310874
657.384 .0310693
658.135 .0310520
658.885 .0310355
659.636 .0310192
660.386 .0310034
661.136 .0309875
661.885 .0309700
662.635 .0309517
663.384 .0309337
664.133 .0309147
664.881 .0308956
665.630 .0308769
666.378 .0308593
667.126 .0308434
667.874 .0308285
668.621 .0308143
669.368 .0307999
670.115 .0307847
670.862 .0307690
671.608 .0307520
672.354 .0307357
673.100 .0307196
673.846 .0307048
674.591 .0306912
675.337 .0306792
676.082 .0306677
676.826 .0306567
677.571 .0306457
678.315 .0306345
679.059 .0306220
679.803 .0306090
680.547 .0305961
681.290 .0305833
682.033 .0305705
682.776 .0305575
683.518 .0305436
684.261 .0305286
685.003 .0305117
685.745 .0304936
686.487 .0304739
687.228 .0304532
687.969 .0304319
688.710 .0304105
689.451 .0303899
690.192 .0303703
690.932 .0303522
691.672 .0303347
692.412 .0303179
693.152 .0303006
693.891 .0302829
694.630 .0302652
695.369 .0302477
696.108 .0302296
696.846 .0302115
697.585 .0301935
698.323 .0301753
699.061 .0301574
699.798 .0301403
700.536 .0301232
701.273 .0301064
702.010 .0300897
702.746 .0300724
703.483 .0300543
704.219 .0300362
704.955 .0300168
705.691 .0299968
706.427 .0299754
707.162 .0299528
707.897 .0299290
708.632 .0299052
709.367 .0298808
710.101 .0298557
710.835 .0298303
711.569 .0298044
712.303 .0297777
713.037 .0297515
713.770 .0297249
714.503 .0296984
715.236 .0296723
715.969 .0296466
716.702 .0296211
717.434 .0295964
718.166 .0295728
718.898 .0295498
719.629 .0295280
720.361 .0295071
721.092 .0294869
721.823 .0294678
722.554 .0294499
723.284 .0294331
724.014 .0294164
724.744 .0293993
725.474 .0293813
726.204 .0293622
726.933 .0293420
727.662 .0293196
728.391 .0292951
729.120 .0292694
729.849 .0292427
730.577 .0292157
731.305 .0291888
732.033 .0291629
732.760 .0291378
733.488 .0291128
734.215 .0290883
734.942 .0290636
735.669 .0290389
736.395 .0290150
737.122 .0289912
737.848 .0289677
738.573 .0289446
739.299 .0289221
740.024 .0289009
740.750 .0288815
741.474 .0288631
742.199 .0288458
742.924 .0288297
743.648 .0288150
744.372 .0288006
745.096 .0287875
745.819 .0287752
746.543 .0287629
747.266 .0287504
747.989 .0287375
748.711 .0287239
749.434 .0287112
750.156 .0286996
750.878 .0286899
751.599 .0286820
752.321 .0286763
753.042 .0286723
753.763 .0286692
754.484 .0286659
755.205 .0286611
755.925 .0286542
756.645 .0286452
757.365 .0286344
758.085 .0286230
758.804 .0286119
759.523 .0286022
760.242 .0285932
760.961 .0285848
761.679 .0285761
762.397 .0285654
763.115 .0285523
763.833 .0285364
764.551 .0285176
765.268 .0284962
765.985 .0284739
766.702 .0284512
767.418 .0284292
768.134 .0284083
768.850 .0283887
769.566 .0283703
770.282 .0283532
770.997 .0283361
771.712 .0283192
772.427 .0283036
773.142 .0282883
773.856 .0282732
774.570 .0282594
775.284 .0282459
775.998 .0282333
776.711 .0282208
777.424 .0282078
778.137 .0281943
778.849 .0281803
779.562 .0281655
780.274 .0281504
780.986 .0281355
781.697 .0281213
782.409 .0281075
783.120 .0280961
783.831 .0280860
784.541 .0280772
785.252 .0280701
785.962 .0280643
786.671 .0280590
787.381 .0280543
788.090 .0280496
788.799 .0280450
789.508 .0280404
790.217 .0280360
790.925 .0280319
791.633 .0280280
792.341 .0280240
793.048 .0280191
793.755 .0280123
794.462 .0280032
795.169 .0279907
795.875 .0279755
796.581 .0279582
797.287 .0279390
797.993 .0279197
798.698 .0279012
799.403 .0278845
800.108 .0278700
800.812 .0278575
801.517 .0278470
802.221 .0278375
802.924 .0278284
803.628 .0278194
804.331 .0278109
805.034 .0278031
805.736 .0277959
806.439 .0277900
807.141 .0277858
807.843 .0277830
808.544 .0277807
809.245 .0277786
809.946 .0277750
810.647 .0277699
811.347 .0277625
812.047 .0277525
812.747 .0277408
813.447 .0277273
814.146 .0277132
814.845 .0276992
815.543 .0276858
816.242 .0276735
816.940 .0276618
817.638 .0276520
818.335 .0276430
819.032 .0276344
819.729 .0276258
820.426 .0276168
821.122 .0276073
821.818 .0275969
822.514 .0275851
823.209 .0275728
823.905 .0275602
824.599 .0275479
825.294 .0275358
825.988 .0275238
826.682 .0275121
827.376 .0275001
828.069 .0274872
828.762 .0274730
829.455 .0274565
830.147 .0274384
830.840 .0274181
831.531 .0273970
832.223 .0273761
832.914 .0273558
833.605 .0273378
834.296 .0273223
834.986 .0273093
835.676 .0272987
836.366 .0272894
837.055 .0272808
837.744 .0272722
838.433 .0272627
839.121 .0272518
839.809 .0272398
840.497 .0272267
841.185 .0272132
841.872 .0271993
842.559 .0271863
843.245 .0271733
843.932 .0271604
844.617 .0271476
845.303 .0271340
845.988 .0271194
846.673 .0271036
847.358 .0270865
848.042 .0270686
848.726 .0270503
849.410 .0270318
850.093 .0270136
850.776 .0269972
851.459 .0269821
852.141 .0269681
852.823 .0269556
853.505 .0269445
854.186 .0269342
854.867 .0269253
855.548 .0269174
856.228 .0269101
856.908 .0269036
857.588 .0268975
858.267 .0268909
858.946 .0268838
859.625 .0268756
860.303 .0268661
860.981 .0268554
861.659 .0268440
862.336 .0268317
863.013 .0268198
863.690 .0268085
864.366 .0267979
865.042 .0267873
865.718 .0267768
866.393 .0267654
867.068 .0267530
867.743 .0267394
868.417 .0267243
869.091 .0267084
869.765 .0266922
870.438 .0266759
871.111 .0266599
871.783 .0266442
872.456 .0266283
873.127 .0266117
873.799 .0265941
874.470 .0265749
875.141 .0265545
875.811 .0265332
876.481 .0265115
877.151 .0264899
877.820 .0264689
878.489 .0264485
879.158 .0264288
879.826 .0264104
880.494 .0263928
881.162 .0263762
881.829 .0263605
882.496 .0263460
883.163 .0263330
883.829 .0263223
884.495 .0263139
885.160 .0263077
885.825 .0263035
886.490 .0263008
887.154 .0262984
887.818 .0262964
888.482 .0262939
889.145 .0262908
889.808 .0262872
890.471 .0262832
891.133 .0262784
891.795 .0262733
892.456 .0262680
893.117 .0262627
893.778 .0262568
894.439 .0262510
895.099 .0262438
895.758 .0262358
896.417 .0262273
897.076 .0262178
897.735 .0262071
898.393 .0261960
899.051 .0261839
899.708 .0261706
900.365 .0261563
901.022 .0261409
901.678 .0261247
902.334 .0261088
902.990 .0260930
903.645 .0260777
904.300 .0260633
904.954 .0260501
905.608 .0260370
906.262 .0260250
906.915 .0260137
907.568 .0260018
908.221 .0259894
908.873 .0259765
909.525 .0259627
910.176 .0259489
910.828 .0259353
911.478 .0259222
912.129 .0259097
912.778 .0258981
913.428 .0258867
914.077 .0258760
914.726 .0258657
915.375 .0258551
916.023 .0258444
916.670 .0258337
917.318 .0258222
917.964 .0258097
918.611 .0257974
919.257 .0257849
919.903 .0257721
920.548 .0257595
921.193 .0257471
921.838 .0257352
922.482 .0257244
923.126 .0257143
923.770 .0257052
924.413 .0256973
925.056 .0256899
925.698 .0256824
926.340 .0256753
926.982 .0256679
927.623 .0256598
928.264 .0256515
928.904 .0256429
929.544 .0256333
930.184 .0256235
930.823 .0256142
931.462 .0256055
932.101 .0255973
932.739 .0255887
933.377 .0255791
934.014 .0255686
934.651 .0255567
935.288 .0255429
935.924 .0255270
936.560 .0255096
937.196 .0254907
937.831 .0254702
938.466 .0254504
939.100 .0254316
939.734 .0254141
940.368 .0253985
941.001 .0253848
941.634 .0253727
942.266 .0253620
942.899 .0253527
943.530 .0253442
944.162 .0253360
944.793 .0253280
945.423 .0253187
946.053 .0253086
946.683 .0252978
947.313 .0252861
947.942 .0252729
948.571 .0252592
949.199 .0252441
949.827 .0252270
950.455 .0252085
951.082 .0251887
951.709 .0251675
952.335 .0251453
952.961 .0251223
953.587 .0250986
954.212 .0250752
954.837 .0250523
955.462 .0250295
956.086 .0250081
956.710 .0249882
957.334 .0249687
957.957 .0249503
958.579 .0249330
959.202 .0249167
959.824 .0249010
960.445 .0248868
961.067 .0248735
961.688 .0248615
962.308 .0248509
962.928 .0248410
963.548 .0248314
964.168 .0248224
964.787 .0248128
965.406 .0248026
966.024 .0247924
966.642 .0247819
967.260 .0247710
967.877 .0247611
968.494 .0247527
969.110 .0247458
969.727 .0247396
970.342 .0247345
970.958 .0247295
971.573 .0247241
972.188 .0247186
972.802 .0247118
973.416 .0247052
974.030 .0246989
974.643 .0246924
975.256 .0246868
975.869 .0246823
976.481 .0246788
977.093 .0246756
977.705 .0246737
978.316 .0246723
978.927 .0246707
979.538 .0246698
980.148 .0246698
980.758 .0246702
981.367 .0246713
981.977 .0246729
982.586 .0246740
983.194 .0246755
983.802 .0246762
984.410 .0246756
985.018 .0246748
985.625 .0246740
986.232 .0246724
986.838 .0246698
987.445 .0246666
988.050 .0246613
988.656 .0246538
989.261 .0246448
989.866 .0246331
990.471 .0246195
991.075 .0246050
991.679 .0245904
992.282 .0245764
992.886 .0245645
993.489 .0245544
994.091 .0245463
994.694 .0245405
995.296 .0245351
995.897 .0245298
996.499 .0245254
997.100 .0245221
997.701 .0245203
998.301 .0245203
998.901 .0245234
999.501 .0245284
1000.101 .0245358
1000.700 .0245454
1001.299 .0245551
1001.898 .0245647
1002.496 .0245729
1003.094 .0245796
1003.692 .0245847
1004.289 .0245881
1004.887 .0245909
1005.484 .0245934
1006.080 .0245967
1006.677 .0245993
1007.273 .0246011
1007.868 .0246024
1008.464 .0246034
1009.059 .0246035
1009.654 .0246028
1010.249 .0246017
1010.843 .0246001
1011.437 .0245985
1012.031 .0245971
1012.625 .0245960
1013.218 .0245953
1013.811 .0245949
1014.404 .0245955
1014.997 .0245959
1015.589 .0245974
1016.181 .0245996
1016.773 .0246027
1017.365 .0246067
1017.956 .0246111
1018.547 .0246147
1019.138 .0246184
1019.728 .0246221
1020.319 .0246250
1020.909 .0246281
1021.499 .0246327
1022.088 .0246375
1022.678 .0246426
1023.267 .0246480
1023.856 .0246523
1024.445 .0246539
1025.033 .0246528
1025.621 .0246475
1026.209 .0246390
1026.797 .0246291
1027.385 .0246179
1027.972 .0246076
1028.560 .0246004
1029.147 .0245957
1029.734 .0245941
1030.320 .0245941
1030.907 .0245946
1031.493 .0245949
1032.079 .0245956
1032.665 .0245964
1033.250 .0245966
1033.836 .0245990
1034.421 .0246037
1035.006 .0246107
1035.591 .0246210
1036.176 .0246325
1036.761 .0246452
1037.345 .0246573
1037.929 .0246672
1038.514 .0246731
1039.097 .0246760
1039.681 .0246751
1040.265 .0246707
1040.848 .0246641
1041.432 .0246563
1042.015 .0246469
1042.598 .0246373
1043.181 .0246298
1043.764 .0246235
1044.346 .0246186
1044.929 .0246156
1045.511 .0246126
1046.094 .0246109
1046.676 .0246091
1047.258 .0246075
1047.840 .0246060
1048.422 .0246046
1049.003 .0246033
1049.585 .0246017
1050.166 .0246018
1050.748 .0246024
1051.329 .0246024
1051.910 .0246012
1052.491 .0245986
1053.072 .0245927
1053.653 .0245847
1054.234 .0245745
1054.815 .0245640
1055.396 .0245539
1055.976 .0245445
1056.557 .0245358
1057.138 .0245296
1057.718 .0245254
1058.298 .0245243
1058.879 .0245251
1059.459 .0245285
1060.039 .0245337
1060.620 .0245414
1061.200 .0245498
1061.780 .0245593
1062.360 .0245685
1062.940 .0245776
1063.520 .0245843
1064.101 .0245902
1064.681 .0245937
1065.261 .0245957
1065.841 .0245952
1066.421 .0245932
1067.001 .0245895
1067.581 .0245813
1068.161 .0245687
1068.741 .0245521
1069.321 .0245319
1069.901 .0245094
1070.482 .0244840
1071.062 .0244591
1071.642 .0244374
1072.222 .0244197
1072.803 .0244063
1073.383 .0243968
1073.963 .0243931
1074.544 .0243917
1075.124 .0243914
1075.705 .0243900
1076.286 .0243884
1076.866 .0243855
1077.447 .0243831
1078.028 .0243820
1078.609 .0243844
1079.190 .0243892
1079.771 .0243972
1080.352 .0244064
1080.934 .0244162
1081.515 .0244236
1082.097 .0244297
1082.679 .0244314
1083.260 .0244310
1083.842 .0244265
1084.424 .0244204
1085.007 .0244141
1085.589 .0244089
1086.172 .0244034
1086.754 .0243997
1087.337 .0243961
1087.920 .0243943
1088.503 .0243903
1089.087 .0243888
1089.670 .0243877
1090.254 .0243885
1090.838 .0243904
1091.422 .0243922
1092.006 .0243926
1092.590 .0243906
1093.175 .0243860
1093.760 .0243775
1094.345 .0243646
1094.930 .0243511
1095.516 .0243351
1096.102 .0243207
1096.688 .0243071
1097.274 .0242941
1097.860 .0242811
1098.447 .0242658
1099.034 .0242452
1099.622 .0242165
1100.209 .0241854
1100.797 .0241497
1101.385 .0241134
1101.973 .0240809
1102.562 .0240543
1103.151 .0240336
1103.740 .0240205
1104.330 .0240125
1104.920 .0240074
1105.510 .0240062
1106.101 .0240083
1106.691 .0240096
1107.283 .0240175
1107.874 .0240291
1108.466 .0240492
1109.058 .0240763
1109.651 .0241119
1110.244 .0241491
1110.837 .0241875
1111.431 .0242239
1112.025 .0242512
1112.620 .0242699
1113.215 .0242815
1113.810 .0242848
1114.406 .0242845
1115.002 .0242796
1115.599 .0242746
1116.196 .0242676
1116.793 .0242646
1117.391 .0242611
1117.989 .0242566
1118.588 .0242513
1119.187 .0242422
1119.787 .0242294
1120.387 .0242119
1120.988 .0241920
1121.589 .0241705
1122.190 .0241525
1122.793 .0241399
1123.395 .0241314
1123.998 .0241302
1124.602 .0241379
1125.206 .0241520
1125.811 .0241715
1126.416 .0241950
1127.022 .0242219
1127.628 .0242526
1128.235 .0242903
1128.843 .0243330
1129.451 .0243858
1130.059 .0244461
1130.669 .0245131
1131.278 .0245831
1131.889 .0246538
1132.500 .0247215
1133.112 .0247838
1133.724 .0248427
1134.337 .0248960
1134.950 .0249451
1135.564 .0249952
1136.179 .0250465
1136.795 .0251069
1137.411 .0251737
1138.028 .0252453
1138.645 .0253249
1139.263 .0254113
1139.882 .0254999
1140.502 .0255956
1141.122 .0257021
1141.743 .0258365
1142.365 .0259971
1142.987 .0259385
1143.611 .0262268
1144.235 .0264462
1144.859 .0270707
1145.485 .0273466
