Measurement Sequence started on: 10-20-44-796
Integration time: 35
Scans to Average: 2 
>>>>>Begin Spectral Data<<<<<
432.953 .0345289
433.882 .0334233
434.810 .0329706
435.737 .0325493
436.662 .0324938
437.586 .0327071
438.509 .0325711
439.431 .0324829
440.351 .0324054
441.269 .0323386
442.187 .0322785
443.103 .0322276
444.018 .0321880
444.932 .0321579
445.844 .0321425
446.756 .0321149
447.666 .0320811
448.575 .0320383
449.482 .0319747
450.388 .0319052
451.294 .0318308
452.198 .0317532
453.100 .0316896
454.002 .0316586
454.902 .0316408
455.801 .0316399
456.699 .0316497
457.596 .0316603
458.492 .0316675
459.387 .0316732
460.280 .0316677
461.172 .0316509
462.064 .0316368
462.954 .0316194
463.843 .0316067
464.730 .0316082
465.617 .0316160
466.503 .0316294
467.387 .0316436
468.271 .0316532
469.153 .0316537
470.035 .0316486
470.915 .0316398
471.794 .0316223
472.673 .0316019
473.550 .0315801
474.426 .0315572
475.301 .0315416
476.175 .0315320
477.048 .0315255
477.920 .0315221
478.791 .0315204
479.661 .0315176
480.530 .0315163
481.398 .0315134
482.266 .0315105
483.132 .0315087
483.997 .0315069
484.861 .0315035
485.724 .0315037
486.587 .0315088
487.448 .0315165
488.308 .0315241
489.168 .0315329
490.026 .0315388
490.884 .0315416
491.741 .0315392
492.597 .0315321
493.452 .0315229
494.306 .0315083
495.159 .0314887
496.011 .0314666
496.862 .0314422
497.713 .0314119
498.562 .0313752
499.411 .0313299
500.259 .0312738
501.106 .0312047
501.952 .0311274
502.798 .0310436
503.642 .0309564
504.486 .0308679
505.329 .0307824
506.171 .0307003
507.012 .0306239
507.852 .0305438
508.692 .0304641
509.531 .0303787
510.369 .0302883
511.206 .0301876
512.043 .0300800
512.878 .0299657
513.713 .0298472
514.547 .0297213
515.381 .0295920
516.213 .0294529
517.045 .0293073
517.876 .0291473
518.706 .0289696
519.536 .0287726
520.365 .0285581
521.193 .0283271
522.020 .0280900
522.847 .0278456
523.673 .0276040
524.498 .0273658
525.323 .0271369
526.146 .0269186
526.969 .0267114
527.792 .0265170
528.614 .0263391
529.435 .0261826
530.255 .0260440
531.075 .0259167
531.894 .0258118
532.712 .0257238
533.530 .0256476
534.347 .0255785
535.163 .0255121
535.979 .0254536
536.794 .0254000
537.608 .0253424
538.422 .0252866
539.235 .0252358
540.048 .0251872
540.860 .0251400
541.671 .0250999
542.481 .0250712
543.292 .0250583
544.101 .0250636
544.910 .0250896
545.718 .0251330
546.526 .0251929
547.333 .0252608
548.139 .0253338
548.945 .0254112
549.750 .0254793
550.555 .0255455
551.359 .0256147
552.162 .0256845
552.965 .0257585
553.768 .0258364
554.569 .0259195
555.371 .0260054
556.171 .0260888
556.972 .0261668
557.771 .0262381
558.570 .0263031
559.369 .0263623
560.167 .0264190
560.964 .0264808
561.761 .0265459
562.558 .0266169
563.354 .0266955
564.149 .0267737
564.944 .0268504
565.738 .0269231
566.532 .0269925
567.325 .0270620
568.118 .0271312
568.910 .0272033
569.702 .0272808
570.494 .0273660
571.285 .0274554
572.075 .0275472
572.865 .0276380
573.654 .0277239
574.443 .0278033
575.232 .0278757
576.020 .0279433
576.807 .0280079
577.594 .0280720
578.381 .0281364
579.167 .0282001
579.952 .0282641
580.738 .0283285
581.522 .0283909
582.307 .0284495
583.091 .0285041
583.874 .0285538
584.657 .0285982
585.440 .0286397
586.222 .0286778
587.004 .0287127
587.785 .0287458
588.566 .0287768
589.346 .0288045
590.126 .0288306
590.906 .0288535
591.685 .0288723
592.464 .0288870
593.242 .0288978
594.020 .0289035
594.797 .0289068
595.575 .0289083
596.351 .0289077
597.128 .0289054
597.904 .0289019
598.679 .0288960
599.454 .0288882
600.229 .0288796
601.004 .0288691
601.778 .0288572
602.551 .0288442
603.325 .0288298
604.097 .0288157
604.870 .0288018
605.642 .0287886
606.414 .0287771
607.185 .0287664
607.956 .0287564
608.727 .0287463
609.497 .0287364
610.267 .0287264
611.037 .0287159
611.806 .0287053
612.575 .0286938
613.344 .0286819
614.112 .0286699
614.880 .0286569
615.647 .0286431
616.414 .0286287
617.181 .0286128
617.948 .0285956
618.714 .0285773
619.480 .0285579
620.245 .0285379
621.011 .0285174
621.775 .0284972
622.540 .0284770
623.304 .0284572
624.068 .0284384
624.832 .0284202
625.595 .0284038
626.358 .0283882
627.120 .0283739
627.883 .0283607
628.645 .0283485
629.406 .0283370
630.168 .0283255
630.929 .0283150
631.689 .0283055
632.450 .0282956
633.210 .0282855
633.970 .0282751
634.729 .0282642
635.489 .0282521
636.248 .0282390
637.006 .0282244
637.765 .0282083
638.523 .0281904
639.280 .0281714
640.038 .0281506
640.795 .0281297
641.552 .0281082
642.309 .0280868
643.065 .0280670
643.821 .0280476
644.577 .0280287
645.332 .0280113
646.088 .0279954
646.843 .0279806
647.597 .0279665
648.352 .0279539
649.106 .0279422
649.860 .0279317
650.613 .0279218
651.367 .0279124
652.120 .0279038
652.872 .0278953
653.625 .0278861
654.377 .0278772
655.129 .0278678
655.881 .0278573
656.632 .0278464
657.384 .0278344
658.135 .0278214
658.885 .0278074
659.636 .0277927
660.386 .0277777
661.136 .0277629
661.885 .0277482
662.635 .0277333
663.384 .0277186
664.133 .0277038
664.881 .0276877
665.630 .0276713
666.378 .0276539
667.126 .0276364
667.874 .0276189
668.621 .0276019
669.368 .0275851
670.115 .0275692
670.862 .0275532
671.608 .0275378
672.354 .0275228
673.100 .0275079
673.846 .0274930
674.591 .0274787
675.337 .0274649
676.082 .0274520
676.826 .0274401
677.571 .0274296
678.315 .0274201
679.059 .0274119
679.803 .0274039
680.547 .0273960
681.290 .0273880
682.033 .0273787
682.776 .0273682
683.518 .0273564
684.261 .0273424
685.003 .0273265
685.745 .0273089
686.487 .0272900
687.228 .0272695
687.969 .0272479
688.710 .0272253
689.451 .0272017
690.192 .0271778
690.932 .0271532
691.672 .0271281
692.412 .0271032
693.152 .0270787
693.891 .0270550
694.630 .0270329
695.369 .0270126
696.108 .0269941
696.846 .0269771
697.585 .0269613
698.323 .0269461
699.061 .0269308
699.798 .0269156
700.536 .0269003
701.273 .0268848
702.010 .0268698
702.746 .0268553
703.483 .0268420
704.219 .0268297
704.955 .0268182
705.691 .0268070
706.427 .0267955
707.162 .0267836
707.897 .0267709
708.632 .0267576
709.367 .0267445
710.101 .0267311
710.835 .0267182
711.569 .0267054
712.303 .0266929
713.037 .0266805
713.770 .0266680
714.503 .0266553
715.236 .0266421
715.969 .0266281
716.702 .0266137
717.434 .0265989
718.166 .0265840
718.898 .0265693
719.629 .0265551
720.361 .0265412
721.092 .0265273
721.823 .0265137
722.554 .0265001
723.284 .0264864
724.014 .0264725
724.744 .0264583
725.474 .0264435
726.204 .0264284
726.933 .0264127
727.662 .0263969
728.391 .0263810
729.120 .0263649
729.849 .0263487
730.577 .0263328
731.305 .0263167
732.033 .0263009
732.760 .0262848
733.488 .0262692
734.215 .0262537
734.942 .0262388
735.669 .0262241
736.395 .0262107
737.122 .0261978
737.848 .0261854
738.573 .0261735
739.299 .0261621
740.024 .0261503
740.750 .0261387
741.474 .0261269
742.199 .0261149
742.924 .0261031
743.648 .0260914
744.372 .0260803
745.096 .0260703
745.819 .0260611
746.543 .0260520
747.266 .0260436
747.989 .0260362
748.711 .0260290
749.434 .0260226
750.156 .0260174
750.878 .0260132
751.599 .0260105
752.321 .0260093
753.042 .0260095
753.763 .0260109
754.484 .0260135
755.205 .0260160
755.925 .0260183
756.645 .0260201
757.365 .0260209
758.085 .0260209
758.804 .0260203
759.523 .0260184
760.242 .0260151
760.961 .0260103
761.679 .0260035
762.397 .0259942
763.115 .0259823
763.833 .0259672
764.551 .0259494
765.268 .0259286
765.985 .0259054
766.702 .0258806
767.418 .0258547
768.134 .0258286
768.850 .0258024
769.566 .0257764
770.282 .0257508
770.997 .0257262
771.712 .0257025
772.427 .0256798
773.142 .0256586
773.856 .0256389
774.570 .0256207
775.284 .0256041
775.998 .0255886
776.711 .0255743
777.424 .0255609
778.137 .0255483
778.849 .0255354
779.562 .0255226
780.274 .0255094
780.986 .0254958
781.697 .0254819
782.409 .0254674
783.120 .0254522
783.831 .0254370
784.541 .0254219
785.252 .0254068
785.962 .0253917
786.671 .0253777
787.381 .0253642
788.090 .0253518
788.799 .0253400
789.508 .0253288
790.217 .0253181
790.925 .0253080
791.633 .0252977
792.341 .0252871
793.048 .0252760
793.755 .0252640
794.462 .0252508
795.169 .0252370
795.875 .0252222
796.581 .0252066
797.287 .0251907
797.993 .0251746
798.698 .0251585
799.403 .0251426
800.108 .0251269
800.812 .0251117
801.517 .0250969
802.221 .0250824
802.924 .0250677
803.628 .0250534
804.331 .0250399
805.034 .0250272
805.736 .0250154
806.439 .0250047
807.141 .0249952
807.843 .0249868
808.544 .0249790
809.245 .0249710
809.946 .0249624
810.647 .0249524
811.347 .0249411
812.047 .0249280
812.747 .0249139
813.447 .0248993
814.146 .0248844
814.845 .0248700
815.543 .0248563
816.242 .0248430
816.940 .0248298
817.638 .0248159
818.335 .0248015
819.032 .0247857
819.729 .0247685
820.426 .0247504
821.122 .0247319
821.818 .0247134
822.514 .0246957
823.209 .0246791
823.905 .0246639
824.599 .0246493
825.294 .0246351
825.988 .0246200
826.682 .0246042
827.376 .0245870
828.069 .0245685
828.762 .0245494
829.455 .0245307
830.147 .0245120
830.840 .0244943
831.531 .0244779
832.223 .0244624
832.914 .0244480
833.605 .0244340
834.296 .0244198
834.986 .0244059
835.676 .0243921
836.366 .0243787
837.055 .0243661
837.744 .0243548
838.433 .0243444
839.121 .0243351
839.809 .0243268
840.497 .0243189
841.185 .0243115
841.872 .0243046
842.559 .0242979
843.245 .0242915
843.932 .0242854
844.617 .0242795
845.303 .0242740
845.988 .0242691
846.673 .0242642
847.358 .0242594
848.042 .0242548
848.726 .0242502
849.410 .0242452
850.093 .0242407
850.776 .0242361
851.459 .0242316
852.141 .0242269
852.823 .0242217
853.505 .0242158
854.186 .0242099
854.867 .0242039
855.548 .0241978
856.228 .0241920
856.908 .0241869
857.588 .0241823
858.267 .0241782
858.946 .0241743
859.625 .0241704
860.303 .0241663
860.981 .0241624
861.659 .0241581
862.336 .0241540
863.013 .0241505
863.690 .0241481
864.366 .0241461
865.042 .0241447
865.718 .0241436
866.393 .0241426
867.068 .0241412
867.743 .0241395
868.417 .0241366
869.091 .0241331
869.765 .0241291
870.438 .0241244
871.111 .0241190
871.783 .0241134
872.456 .0241075
873.127 .0241011
873.799 .0240949
874.470 .0240880
875.141 .0240807
875.811 .0240737
876.481 .0240668
877.151 .0240599
877.820 .0240533
878.489 .0240470
879.158 .0240410
879.826 .0240357
880.494 .0240309
881.162 .0240262
881.829 .0240223
882.496 .0240186
883.163 .0240151
883.829 .0240115
884.495 .0240077
885.160 .0240036
885.825 .0239997
886.490 .0239961
887.154 .0239927
887.818 .0239898
888.482 .0239876
889.145 .0239858
889.808 .0239845
890.471 .0239836
891.133 .0239827
891.795 .0239817
892.456 .0239810
893.117 .0239796
893.778 .0239780
894.439 .0239763
895.099 .0239749
895.758 .0239738
896.417 .0239729
897.076 .0239723
897.735 .0239721
898.393 .0239723
899.051 .0239728
899.708 .0239731
900.365 .0239731
901.022 .0239729
901.678 .0239722
902.334 .0239710
902.990 .0239692
903.645 .0239676
904.300 .0239663
904.954 .0239654
905.608 .0239647
906.262 .0239640
906.915 .0239637
907.568 .0239635
908.221 .0239628
908.873 .0239615
909.525 .0239595
910.176 .0239565
910.828 .0239526
911.478 .0239481
912.129 .0239428
912.778 .0239371
913.428 .0239311
914.077 .0239246
914.726 .0239176
915.375 .0239104
916.023 .0239034
916.670 .0238965
917.318 .0238899
917.964 .0238831
918.611 .0238761
919.257 .0238690
919.903 .0238614
920.548 .0238535
921.193 .0238456
921.838 .0238381
922.482 .0238309
923.126 .0238243
923.770 .0238185
924.413 .0238131
925.056 .0238079
925.698 .0238026
926.340 .0237968
926.982 .0237901
927.623 .0237827
928.264 .0237745
928.904 .0237656
929.544 .0237564
930.184 .0237467
930.823 .0237365
931.462 .0237260
932.101 .0237148
932.739 .0237028
933.377 .0236898
934.014 .0236760
934.651 .0236612
935.288 .0236457
935.924 .0236299
936.560 .0236138
937.196 .0235975
937.831 .0235810
938.466 .0235647
939.100 .0235483
939.734 .0235321
940.368 .0235164
941.001 .0235015
941.634 .0234872
942.266 .0234737
942.899 .0234609
943.530 .0234485
944.162 .0234362
944.793 .0234239
945.423 .0234108
946.053 .0233973
946.683 .0233834
947.313 .0233692
947.942 .0233542
948.571 .0233387
949.199 .0233218
949.827 .0233037
950.455 .0232838
951.082 .0232623
951.709 .0232391
952.335 .0232153
952.961 .0231909
953.587 .0231662
954.212 .0231418
954.837 .0231177
955.462 .0230938
956.086 .0230703
956.710 .0230471
957.334 .0230244
957.957 .0230021
958.579 .0229809
959.202 .0229607
959.824 .0229422
960.445 .0229252
961.067 .0229096
961.688 .0228949
962.308 .0228806
962.928 .0228663
963.548 .0228510
964.168 .0228350
964.787 .0228185
965.406 .0228019
966.024 .0227852
966.642 .0227689
967.260 .0227531
967.877 .0227376
968.494 .0227222
969.110 .0227065
969.727 .0226900
970.342 .0226727
970.958 .0226551
971.573 .0226372
972.188 .0226195
972.802 .0226032
973.416 .0225884
974.030 .0225752
974.643 .0225638
975.256 .0225535
975.869 .0225437
976.481 .0225341
977.093 .0225244
977.705 .0225146
978.316 .0225048
978.927 .0224957
979.538 .0224866
980.148 .0224786
980.758 .0224716
981.367 .0224650
981.977 .0224589
982.586 .0224529
983.194 .0224462
983.802 .0224384
984.410 .0224290
985.018 .0224184
985.625 .0224066
986.232 .0223941
986.838 .0223808
987.445 .0223677
988.050 .0223548
988.656 .0223423
989.261 .0223299
989.866 .0223182
990.471 .0223064
991.075 .0222946
991.679 .0222826
992.282 .0222708
992.886 .0222598
993.489 .0222495
994.091 .0222404
994.694 .0222331
995.296 .0222273
995.897 .0222217
996.499 .0222158
997.100 .0222096
997.701 .0222023
998.301 .0221939
998.901 .0221851
999.501 .0221764
1000.101 .0221684
1000.700 .0221613
1001.299 .0221550
1001.898 .0221495
1002.496 .0221442
1003.094 .0221381
1003.692 .0221312
1004.289 .0221230
1004.887 .0221142
1005.484 .0221049
1006.080 .0220963
1006.677 .0220894
1007.273 .0220835
1007.868 .0220788
1008.464 .0220750
1009.059 .0220718
1009.654 .0220687
1010.249 .0220660
1010.843 .0220639
1011.437 .0220620
1012.031 .0220608
1012.625 .0220605
1013.218 .0220602
1013.811 .0220607
1014.404 .0220616
1014.997 .0220625
1015.589 .0220636
1016.181 .0220654
1016.773 .0220669
1017.365 .0220699
1017.956 .0220736
1018.547 .0220780
1019.138 .0220818
1019.728 .0220852
1020.319 .0220871
1020.909 .0220875
1021.499 .0220858
1022.088 .0220828
1022.678 .0220786
1023.267 .0220747
1023.856 .0220706
1024.445 .0220674
1025.033 .0220642
1025.621 .0220612
1026.209 .0220581
1026.797 .0220547
1027.385 .0220500
1027.972 .0220452
1028.560 .0220396
1029.147 .0220345
1029.734 .0220297
1030.320 .0220256
1030.907 .0220218
1031.493 .0220190
1032.079 .0220168
1032.665 .0220147
1033.250 .0220122
1033.836 .0220097
1034.421 .0220067
1035.006 .0220035
1035.591 .0220002
1036.176 .0219968
1036.761 .0219944
1037.345 .0219938
1037.929 .0219950
1038.514 .0219983
1039.097 .0220030
1039.681 .0220092
1040.265 .0220161
1040.848 .0220228
1041.432 .0220297
1042.015 .0220357
1042.598 .0220420
1043.181 .0220492
1043.764 .0220575
1044.346 .0220673
1044.929 .0220786
1045.511 .0220907
1046.094 .0221021
1046.676 .0221118
1047.258 .0221187
1047.840 .0221217
1048.422 .0221217
1049.003 .0221188
1049.585 .0221133
1050.166 .0221065
1050.748 .0220999
1051.329 .0220932
1051.910 .0220874
1052.491 .0220823
1053.072 .0220774
1053.653 .0220725
1054.234 .0220674
1054.815 .0220625
1055.396 .0220583
1055.976 .0220553
1056.557 .0220534
1057.138 .0220529
1057.718 .0220541
1058.298 .0220560
1058.879 .0220586
1059.459 .0220616
1060.039 .0220651
1060.620 .0220688
1061.200 .0220732
1061.780 .0220779
1062.360 .0220822
1062.940 .0220859
1063.520 .0220892
1064.101 .0220917
1064.681 .0220929
1065.261 .0220937
1065.841 .0220944
1066.421 .0220966
1067.001 .0220999
1067.581 .0221034
1068.161 .0221078
1068.741 .0221145
1069.321 .0221221
1069.901 .0221292
1070.482 .0221371
1071.062 .0221448
1071.642 .0221519
1072.222 .0221594
1072.803 .0221662
1073.383 .0221723
1073.963 .0221775
1074.544 .0221815
1075.124 .0221836
1075.705 .0221832
1076.286 .0221803
1076.866 .0221746
1077.447 .0221682
1078.028 .0221615
1078.609 .0221541
1079.190 .0221484
1079.771 .0221458
1080.352 .0221449
1080.934 .0221461
1081.515 .0221491
1082.097 .0221540
1082.679 .0221600
1083.260 .0221666
1083.842 .0221748
1084.424 .0221851
1085.007 .0221987
1085.589 .0222163
1086.172 .0222372
1086.754 .0222627
1087.337 .0222903
1087.920 .0223180
1088.503 .0223461
1089.087 .0223725
1089.670 .0223961
1090.254 .0224163
1090.838 .0224321
1091.422 .0224450
1092.006 .0224532
1092.590 .0224591
1093.175 .0224609
1093.760 .0224582
1094.345 .0224520
1094.930 .0224403
1095.516 .0224256
1096.102 .0224088
1096.688 .0223914
1097.274 .0223778
1097.860 .0223682
1098.447 .0223628
1099.034 .0223602
1099.622 .0223597
1100.209 .0223603
1100.797 .0223605
1101.385 .0223582
1101.973 .0223558
1102.562 .0223528
1103.151 .0223518
1103.740 .0223528
1104.330 .0223556
1104.920 .0223634
1105.510 .0223733
1106.101 .0223833
1106.691 .0223917
1107.283 .0223958
1107.874 .0223965
1108.466 .0223913
1109.058 .0223843
1109.651 .0223759
1110.244 .0223669
1110.837 .0223615
1111.431 .0223583
1112.025 .0223593
1112.620 .0223657
1113.215 .0223750
1113.810 .0223875
1114.406 .0224029
1115.002 .0224166
1115.599 .0224269
1116.196 .0224344
1116.793 .0224398
1117.391 .0224414
1117.989 .0224405
1118.588 .0224408
1119.187 .0224397
1119.787 .0224432
1120.387 .0224506
1120.988 .0224613
1121.589 .0224773
1122.190 .0224932
1122.793 .0225062
1123.395 .0225149
1123.998 .0225190
1124.602 .0225177
1125.206 .0225132
1125.811 .0225119
1126.416 .0225123
1127.022 .0225178
1127.628 .0225290
1128.235 .0225458
1128.843 .0225642
1129.451 .0225859
1130.059 .0226033
1130.669 .0226166
1131.278 .0226255
1131.889 .0226311
1132.500 .0226360
1133.112 .0226439
1133.724 .0226598
1134.337 .0226835
1134.950 .0227149
1135.564 .0227537
1136.179 .0227892
1136.795 .0228278
1137.411 .0228633
1138.028 .0228957
1138.645 .0229260
1139.263 .0229526
1139.882 .0229846
1140.502 .0230242
1141.122 .0230682
1141.743 .0231124
1142.365 .0231653
1142.987 .0232541
1143.611 .0234171
1144.235 .0232996
1144.859 .0232093
1145.485 .0234794
