Measurement Sequence started on: 10-20-44-796
Integration time: 35
Scans to Average: 2 
>>>>>Begin Spectral Data<<<<<
432.953 .0443075
433.882 .0381922
434.810 .0401541
435.737 .0380039
436.662 .0340855
437.586 .0351416
438.509 .0343377
439.431 .0338880
440.351 .0335404
441.269 .0333612
442.187 .0333009
443.103 .0332508
444.018 .0331606
444.932 .0330880
445.844 .0329948
446.756 .0329420
447.666 .0329095
448.575 .0328992
449.482 .0329215
450.388 .0329281
451.294 .0329173
452.198 .0328981
453.100 .0328552
454.002 .0328076
454.902 .0327536
455.801 .0327096
456.699 .0326763
457.596 .0326556
458.492 .0326347
459.387 .0326200
460.280 .0326147
461.172 .0326009
462.064 .0325782
462.954 .0325525
463.843 .0325167
464.730 .0324732
465.617 .0324348
466.503 .0323960
467.387 .0323569
468.271 .0323203
469.153 .0322795
470.035 .0322392
470.915 .0321975
471.794 .0321480
472.673 .0320949
473.550 .0320424
474.426 .0319910
475.301 .0319413
476.175 .0319042
477.048 .0318759
477.920 .0318549
478.791 .0318456
479.661 .0318408
480.530 .0318353
481.398 .0318276
482.266 .0318129
483.132 .0317937
483.997 .0317616
484.861 .0317203
485.724 .0316733
486.587 .0316278
487.448 .0315837
488.308 .0315397
489.168 .0315034
490.026 .0314729
490.884 .0314442
491.741 .0314163
492.597 .0313872
493.452 .0313564
494.306 .0313280
495.159 .0312979
496.011 .0312692
496.862 .0312467
497.713 .0312258
498.562 .0312098
499.411 .0311995
500.259 .0311917
501.106 .0311813
501.952 .0311659
502.798 .0311489
503.642 .0311154
504.486 .0310698
505.329 .0310089
506.171 .0309310
507.012 .0308395
507.852 .0307348
508.692 .0306150
509.531 .0304931
510.369 .0303687
511.206 .0302438
512.043 .0301196
512.878 .0300009
513.713 .0298770
514.547 .0297484
515.381 .0296116
516.213 .0294626
517.045 .0292992
517.876 .0291296
518.706 .0289524
519.536 .0287830
520.365 .0286212
521.193 .0284665
522.020 .0283219
522.847 .0281837
523.673 .0280417
524.498 .0278931
525.323 .0277345
526.146 .0275652
526.969 .0273891
527.792 .0272129
528.614 .0270373
529.435 .0268835
530.255 .0267642
531.075 .0266765
531.894 .0266257
532.712 .0266049
533.530 .0266051
534.347 .0266186
535.163 .0266333
535.979 .0266314
536.794 .0266176
537.608 .0265874
538.422 .0265455
539.235 .0264911
540.048 .0264390
540.860 .0263956
541.671 .0263695
542.481 .0263596
543.292 .0263556
544.101 .0263576
544.910 .0263682
545.718 .0263730
546.526 .0263788
547.333 .0263764
548.139 .0263827
548.945 .0263957
549.750 .0264242
550.555 .0264701
551.359 .0265366
552.162 .0266190
552.965 .0267149
553.768 .0268138
554.569 .0269105
555.371 .0269977
556.171 .0270746
556.972 .0271460
557.771 .0272111
558.570 .0272700
559.369 .0273297
560.167 .0273932
560.964 .0274664
561.761 .0275436
562.558 .0276305
563.354 .0277220
564.149 .0278160
564.944 .0279134
565.738 .0280031
566.532 .0280871
567.325 .0281612
568.118 .0282238
568.910 .0282766
569.702 .0283188
570.494 .0283529
571.285 .0283838
572.075 .0284196
572.865 .0284584
573.654 .0284974
574.443 .0285390
575.232 .0285830
576.020 .0286272
576.807 .0286704
577.594 .0287126
578.381 .0287535
579.167 .0287963
579.952 .0288438
580.738 .0289013
581.522 .0289696
582.307 .0290472
583.091 .0291315
583.874 .0292199
584.657 .0293051
585.440 .0293834
586.222 .0294540
587.004 .0295175
587.785 .0295728
588.566 .0296194
589.346 .0296568
590.126 .0296902
590.906 .0297170
591.685 .0297380
592.464 .0297532
593.242 .0297629
594.020 .0297659
594.797 .0297629
595.575 .0297565
596.351 .0297487
597.128 .0297391
597.904 .0297296
598.679 .0297195
599.454 .0297103
600.229 .0297008
601.004 .0296908
601.778 .0296810
602.551 .0296723
603.325 .0296632
604.097 .0296547
604.870 .0296473
605.642 .0296414
606.414 .0296362
607.185 .0296310
607.956 .0296245
608.727 .0296161
609.497 .0296049
610.267 .0295913
611.037 .0295753
611.806 .0295585
612.575 .0295412
613.344 .0295243
614.112 .0295085
614.880 .0294934
615.647 .0294797
616.414 .0294663
617.181 .0294527
617.948 .0294383
618.714 .0294228
619.480 .0294070
620.245 .0293915
621.011 .0293771
621.775 .0293642
622.540 .0293540
623.304 .0293462
624.068 .0293402
624.832 .0293357
625.595 .0293318
626.358 .0293271
627.120 .0293216
627.883 .0293149
628.645 .0293059
629.406 .0292952
630.168 .0292832
630.929 .0292700
631.689 .0292560
632.450 .0292407
633.210 .0292252
633.970 .0292092
634.729 .0291936
635.489 .0291768
636.248 .0291599
637.006 .0291435
637.765 .0291265
638.523 .0291090
639.280 .0290919
640.038 .0290754
640.795 .0290603
641.552 .0290467
642.309 .0290348
643.065 .0290259
643.821 .0290190
644.577 .0290136
645.332 .0290094
646.088 .0290044
646.843 .0289986
647.597 .0289905
648.352 .0289810
649.106 .0289689
649.860 .0289540
650.613 .0289378
651.367 .0289196
652.120 .0289014
652.872 .0288827
653.625 .0288634
654.377 .0288444
655.129 .0288254
655.881 .0288062
656.632 .0287873
657.384 .0287690
658.135 .0287509
658.885 .0287335
659.636 .0287161
660.386 .0286985
661.136 .0286814
661.885 .0286656
662.635 .0286511
663.384 .0286384
664.133 .0286277
664.881 .0286175
665.630 .0286087
666.378 .0286012
667.126 .0285929
667.874 .0285846
668.621 .0285750
669.368 .0285638
670.115 .0285516
670.862 .0285384
671.608 .0285247
672.354 .0285117
673.100 .0284993
673.846 .0284866
674.591 .0284735
675.337 .0284605
676.082 .0284469
676.826 .0284335
677.571 .0284209
678.315 .0284085
679.059 .0283966
679.803 .0283855
680.547 .0283750
681.290 .0283654
682.033 .0283556
682.776 .0283451
683.518 .0283341
684.261 .0283224
685.003 .0283093
685.745 .0282960
686.487 .0282833
687.228 .0282711
687.969 .0282591
688.710 .0282474
689.451 .0282351
690.192 .0282220
690.932 .0282073
691.672 .0281907
692.412 .0281726
693.152 .0281534
693.891 .0281330
694.630 .0281132
695.369 .0280948
696.108 .0280776
696.846 .0280620
697.585 .0280480
698.323 .0280348
699.061 .0280217
699.798 .0280078
700.536 .0279924
701.273 .0279750
702.010 .0279565
702.746 .0279364
703.483 .0279158
704.219 .0278955
704.955 .0278761
705.691 .0278585
706.427 .0278426
707.162 .0278281
707.897 .0278148
708.632 .0278019
709.367 .0277887
710.101 .0277736
710.835 .0277570
711.569 .0277386
712.303 .0277190
713.037 .0276991
713.770 .0276798
714.503 .0276620
715.236 .0276462
715.969 .0276324
716.702 .0276208
717.434 .0276109
718.166 .0276010
718.898 .0275910
719.629 .0275799
720.361 .0275671
721.092 .0275524
721.823 .0275362
722.554 .0275194
723.284 .0275024
724.014 .0274856
724.744 .0274686
725.474 .0274520
726.204 .0274357
726.933 .0274182
727.662 .0273991
728.391 .0273792
729.120 .0273577
729.849 .0273349
730.577 .0273115
731.305 .0272881
732.033 .0272651
732.760 .0272429
733.488 .0272223
734.215 .0272029
734.942 .0271847
735.669 .0271675
736.395 .0271501
737.122 .0271335
737.848 .0271173
738.573 .0271013
739.299 .0270862
740.024 .0270721
740.750 .0270584
741.474 .0270451
742.199 .0270323
742.924 .0270197
743.648 .0270064
744.372 .0269930
745.096 .0269794
745.819 .0269654
746.543 .0269514
747.266 .0269379
747.989 .0269251
748.711 .0269135
749.434 .0269027
750.156 .0268923
750.878 .0268830
751.599 .0268746
752.321 .0268670
753.042 .0268606
753.763 .0268553
754.484 .0268511
755.205 .0268475
755.925 .0268444
756.645 .0268407
757.365 .0268360
758.085 .0268304
758.804 .0268230
759.523 .0268143
760.242 .0268045
760.961 .0267935
761.679 .0267822
762.397 .0267707
763.115 .0267582
763.833 .0267445
764.551 .0267293
765.268 .0267116
765.985 .0266911
766.702 .0266680
767.418 .0266430
768.134 .0266171
768.850 .0265921
769.566 .0265678
770.282 .0265447
770.997 .0265236
771.712 .0265037
772.427 .0264845
773.142 .0264659
773.856 .0264470
774.570 .0264275
775.284 .0264075
775.998 .0263871
776.711 .0263665
777.424 .0263461
778.137 .0263264
778.849 .0263072
779.562 .0262884
780.274 .0262699
780.986 .0262512
781.697 .0262334
782.409 .0262165
783.120 .0262003
783.831 .0261854
784.541 .0261718
785.252 .0261594
785.962 .0261479
786.671 .0261372
787.381 .0261272
788.090 .0261174
788.799 .0261074
789.508 .0260972
790.217 .0260874
790.925 .0260778
791.633 .0260686
792.341 .0260598
793.048 .0260513
793.755 .0260427
794.462 .0260334
795.169 .0260233
795.875 .0260121
796.581 .0260000
797.287 .0259870
797.993 .0259735
798.698 .0259600
799.403 .0259467
800.108 .0259339
800.812 .0259216
801.517 .0259097
802.221 .0258975
802.924 .0258847
803.628 .0258715
804.331 .0258574
805.034 .0258428
805.736 .0258276
806.439 .0258127
807.141 .0257985
807.843 .0257854
808.544 .0257733
809.245 .0257617
809.946 .0257508
810.647 .0257404
811.347 .0257302
812.047 .0257201
812.747 .0257109
813.447 .0257020
814.146 .0256938
814.845 .0256865
815.543 .0256798
816.242 .0256740
816.940 .0256687
817.638 .0256632
818.335 .0256573
819.032 .0256502
819.729 .0256423
820.426 .0256331
821.122 .0256243
821.818 .0256149
822.514 .0256051
823.209 .0255950
823.905 .0255847
824.599 .0255734
825.294 .0255618
825.988 .0255486
826.682 .0255340
827.376 .0255179
828.069 .0255008
828.762 .0254826
829.455 .0254649
830.147 .0254474
830.840 .0254313
831.531 .0254161
832.223 .0254026
832.914 .0253886
833.605 .0253753
834.296 .0253621
834.986 .0253484
835.676 .0253342
836.366 .0253198
837.055 .0253050
837.744 .0252912
838.433 .0252779
839.121 .0252655
839.809 .0252534
840.497 .0252419
841.185 .0252302
841.872 .0252186
842.559 .0252065
843.245 .0251945
843.932 .0251823
844.617 .0251709
845.303 .0251597
845.988 .0251488
846.673 .0251386
847.358 .0251289
848.042 .0251200
848.726 .0251115
849.410 .0251029
850.093 .0250948
850.776 .0250869
851.459 .0250793
852.141 .0250711
852.823 .0250621
853.505 .0250524
854.186 .0250418
854.867 .0250303
855.548 .0250174
856.228 .0250040
856.908 .0249904
857.588 .0249773
858.267 .0249651
858.946 .0249537
859.625 .0249433
860.303 .0249334
860.981 .0249238
861.659 .0249135
862.336 .0249021
863.013 .0248898
863.690 .0248768
864.366 .0248632
865.042 .0248486
865.718 .0248341
866.393 .0248201
867.068 .0248067
867.743 .0247937
868.417 .0247806
869.091 .0247668
869.765 .0247526
870.438 .0247378
871.111 .0247222
871.783 .0247066
872.456 .0246911
873.127 .0246754
873.799 .0246602
874.470 .0246451
875.141 .0246302
875.811 .0246156
876.481 .0246019
877.151 .0245876
877.820 .0245734
878.489 .0245597
879.158 .0245467
879.826 .0245343
880.494 .0245232
881.162 .0245122
881.829 .0245019
882.496 .0244913
883.163 .0244801
883.829 .0244684
884.495 .0244574
885.160 .0244465
885.825 .0244360
886.490 .0244260
887.154 .0244165
887.818 .0244075
888.482 .0243989
889.145 .0243896
889.808 .0243799
890.471 .0243689
891.133 .0243572
891.795 .0243443
892.456 .0243308
893.117 .0243170
893.778 .0243034
894.439 .0242907
895.099 .0242778
895.758 .0242655
896.417 .0242540
897.076 .0242424
897.735 .0242317
898.393 .0242214
899.051 .0242113
899.708 .0242020
900.365 .0241931
901.022 .0241847
901.678 .0241767
902.334 .0241689
902.990 .0241613
903.645 .0241536
904.300 .0241457
904.954 .0241369
905.608 .0241274
906.262 .0241180
906.915 .0241077
907.568 .0240968
908.221 .0240855
908.873 .0240734
909.525 .0240607
910.176 .0240472
910.828 .0240336
911.478 .0240202
912.129 .0240072
912.778 .0239949
913.428 .0239839
914.077 .0239742
914.726 .0239657
915.375 .0239578
916.023 .0239510
916.670 .0239449
917.318 .0239386
917.964 .0239324
918.611 .0239259
919.257 .0239193
919.903 .0239129
920.548 .0239069
921.193 .0239020
921.838 .0238980
922.482 .0238955
923.126 .0238938
923.770 .0238932
924.413 .0238927
925.056 .0238919
925.698 .0238912
926.340 .0238901
926.982 .0238884
927.623 .0238859
928.264 .0238839
928.904 .0238820
929.544 .0238802
930.184 .0238787
930.823 .0238765
931.462 .0238733
932.101 .0238684
932.739 .0238608
933.377 .0238502
934.014 .0238373
934.651 .0238221
935.288 .0238051
935.924 .0237872
936.560 .0237691
937.196 .0237505
937.831 .0237325
938.466 .0237147
939.100 .0236963
939.734 .0236777
940.368 .0236590
941.001 .0236406
941.634 .0236229
942.266 .0236065
942.899 .0235915
943.530 .0235780
944.162 .0235659
944.793 .0235542
945.423 .0235423
946.053 .0235302
946.683 .0235173
947.313 .0235035
947.942 .0234890
948.571 .0234734
949.199 .0234573
949.827 .0234415
950.455 .0234259
951.082 .0234102
951.709 .0233948
952.335 .0233800
952.961 .0233657
953.587 .0233520
954.212 .0233387
954.837 .0233261
955.462 .0233144
956.086 .0233034
956.710 .0232930
957.334 .0232835
957.957 .0232748
958.579 .0232662
959.202 .0232579
959.824 .0232492
960.445 .0232402
961.067 .0232314
961.688 .0232232
962.308 .0232156
962.928 .0232087
963.548 .0232024
964.168 .0231969
964.787 .0231918
965.406 .0231864
966.024 .0231806
966.642 .0231748
967.260 .0231690
967.877 .0231632
968.494 .0231573
969.110 .0231521
969.727 .0231474
970.342 .0231433
970.958 .0231388
971.573 .0231341
972.188 .0231286
972.802 .0231224
973.416 .0231151
974.030 .0231072
974.643 .0230989
975.256 .0230905
975.869 .0230829
976.481 .0230754
977.093 .0230675
977.705 .0230608
978.316 .0230538
978.927 .0230478
979.538 .0230422
980.148 .0230379
980.758 .0230340
981.367 .0230320
981.977 .0230309
982.586 .0230308
983.194 .0230318
983.802 .0230335
984.410 .0230349
985.018 .0230372
985.625 .0230394
986.232 .0230422
986.838 .0230457
987.445 .0230500
988.050 .0230536
988.656 .0230573
989.261 .0230601
989.866 .0230618
990.471 .0230624
991.075 .0230624
991.679 .0230615
992.282 .0230608
992.886 .0230603
993.489 .0230594
994.091 .0230591
994.694 .0230589
995.296 .0230579
995.897 .0230563
996.499 .0230538
997.100 .0230504
997.701 .0230469
998.301 .0230431
998.901 .0230396
999.501 .0230358
1000.101 .0230329
1000.700 .0230294
1001.299 .0230253
1001.898 .0230212
1002.496 .0230160
1003.094 .0230103
1003.692 .0230049
1004.289 .0229983
1004.887 .0229923
1005.484 .0229858
1006.080 .0229793
1006.677 .0229720
1007.273 .0229646
1007.868 .0229572
1008.464 .0229499
1009.059 .0229438
1009.654 .0229391
1010.249 .0229361
1010.843 .0229360
1011.437 .0229382
1012.031 .0229413
1012.625 .0229460
1013.218 .0229503
1013.811 .0229540
1014.404 .0229574
1014.997 .0229605
1015.589 .0229634
1016.181 .0229668
1016.773 .0229707
1017.365 .0229748
1017.956 .0229788
1018.547 .0229834
1019.138 .0229860
1019.728 .0229875
1020.319 .0229873
1020.909 .0229855
1021.499 .0229831
1022.088 .0229811
1022.678 .0229789
1023.267 .0229783
1023.856 .0229794
1024.445 .0229813
1025.033 .0229824
1025.621 .0229841
1026.209 .0229854
1026.797 .0229854
1027.385 .0229843
1027.972 .0229814
1028.560 .0229767
1029.147 .0229719
1029.734 .0229660
1030.320 .0229590
1030.907 .0229510
1031.493 .0229429
1032.079 .0229341
1032.665 .0229259
1033.250 .0229191
1033.836 .0229135
1034.421 .0229119
1035.006 .0229139
1035.591 .0229179
1036.176 .0229232
1036.761 .0229304
1037.345 .0229383
1037.929 .0229455
1038.514 .0229518
1039.097 .0229576
1039.681 .0229634
1040.265 .0229703
1040.848 .0229773
1041.432 .0229842
1042.015 .0229907
1042.598 .0229958
1043.181 .0229970
1043.764 .0229938
1044.346 .0229855
1044.929 .0229731
1045.511 .0229569
1046.094 .0229403
1046.676 .0229233
1047.258 .0229077
1047.840 .0228965
1048.422 .0228896
1049.003 .0228857
1049.585 .0228843
1050.166 .0228842
1050.748 .0228851
1051.329 .0228853
1051.910 .0228852
1052.491 .0228830
1053.072 .0228792
1053.653 .0228751
1054.234 .0228699
1054.815 .0228645
1055.396 .0228603
1055.976 .0228564
1056.557 .0228530
1057.138 .0228484
1057.718 .0228412
1058.298 .0228314
1058.879 .0228190
1059.459 .0228036
1060.039 .0227853
1060.620 .0227652
1061.200 .0227443
1061.780 .0227243
1062.360 .0227059
1062.940 .0226914
1063.520 .0226785
1064.101 .0226668
1064.681 .0226543
1065.261 .0226410
1065.841 .0226243
1066.421 .0226053
1067.001 .0225866
1067.581 .0225696
1068.161 .0225522
1068.741 .0225377
1069.321 .0225254
1069.901 .0225161
1070.482 .0225079
1071.062 .0225015
1071.642 .0224954
1072.222 .0224918
1072.803 .0224882
1073.383 .0224865
1073.963 .0224887
1074.544 .0224965
1075.124 .0225066
1075.705 .0225203
1076.286 .0225355
1076.866 .0225498
1077.447 .0225606
1078.028 .0225711
1078.609 .0225803
1079.190 .0225885
1079.771 .0225948
1080.352 .0225999
1080.934 .0226042
1081.515 .0226051
1082.097 .0226023
1082.679 .0225977
1083.260 .0225876
1083.842 .0225715
1084.424 .0225473
1085.007 .0225190
1085.589 .0224869
1086.172 .0224538
1086.754 .0224209
1087.337 .0223902
1087.920 .0223635
1088.503 .0223384
1089.087 .0223142
1089.670 .0222941
1090.254 .0222751
1090.838 .0222556
1091.422 .0222359
1092.006 .0222173
1092.590 .0221991
1093.175 .0221860
1093.760 .0221791
1094.345 .0221784
1094.930 .0221820
1095.516 .0221899
1096.102 .0221983
1096.688 .0222084
1097.274 .0222178
1097.860 .0222218
1098.447 .0222204
1099.034 .0222170
1099.622 .0222095
1100.209 .0222005
1100.797 .0221939
1101.385 .0221916
1101.973 .0221926
1102.562 .0221985
1103.151 .0222064
1103.740 .0222151
1104.330 .0222276
1104.920 .0222426
1105.510 .0222577
1106.101 .0222740
1106.691 .0222906
1107.283 .0223081
1107.874 .0223284
1108.466 .0223507
1109.058 .0223722
1109.651 .0223956
1110.244 .0224219
1110.837 .0224463
1111.431 .0224694
1112.025 .0224895
1112.620 .0225054
1113.215 .0225132
1113.810 .0225123
1114.406 .0225024
1115.002 .0224840
1115.599 .0224595
1116.196 .0224305
1116.793 .0223986
1117.391 .0223673
1117.989 .0223368
1118.588 .0223143
1119.187 .0223016
1119.787 .0222994
1120.387 .0223042
1120.988 .0223178
1121.589 .0223397
1122.190 .0223655
1122.793 .0223918
1123.395 .0224211
1123.998 .0224530
1124.602 .0224847
1125.206 .0225155
1125.811 .0225475
1126.416 .0225817
1127.022 .0226168
1127.628 .0226453
1128.235 .0226694
1128.843 .0226848
1129.451 .0226889
1130.059 .0226802
1130.669 .0226647
1131.278 .0226473
1131.889 .0226264
1132.500 .0226082
1133.112 .0225945
1133.724 .0225930
1134.337 .0226048
1134.950 .0226284
1135.564 .0226694
1136.179 .0227236
1136.795 .0227898
1137.411 .0228655
1138.028 .0229504
1138.645 .0230435
1139.263 .0231454
1139.882 .0232467
1140.502 .0233584
1141.122 .0234740
1141.743 .0235942
1142.365 .0237028
1142.987 .0236823
1143.611 .0241489
1144.235 .0241439
1144.859 .0242380
1145.485 .0239331
