Measurement Sequence started on: 10-20-44-796
Integration time: 35
Scans to Average: 2 
>>>>>Begin Spectral Data<<<<<
432.953 .0412383
433.882 .0430775
434.810 .0433910
435.737 .0409359
436.662 .0408227
437.586 .0413367
438.509 .0412714
439.431 .0412108
440.351 .0412199
441.269 .0413078
442.187 .0413784
443.103 .0414016
444.018 .0413730
444.932 .0412907
445.844 .0411585
446.756 .0409581
447.666 .0407346
448.575 .0404963
449.482 .0402749
450.388 .0400670
451.294 .0399026
452.198 .0397635
453.100 .0396489
454.002 .0395520
454.902 .0394595
455.801 .0393649
456.699 .0392704
457.596 .0391715
458.492 .0390735
459.387 .0389881
460.280 .0389231
461.172 .0388828
462.064 .0388710
462.954 .0388825
463.843 .0388982
464.730 .0389093
465.617 .0389120
466.503 .0388971
467.387 .0388659
468.271 .0388186
469.153 .0387633
470.035 .0387029
470.915 .0386484
471.794 .0386093
472.673 .0385797
473.550 .0385689
474.426 .0385739
475.301 .0385843
476.175 .0386020
477.048 .0386171
477.920 .0386228
478.791 .0386167
479.661 .0386003
480.530 .0385671
481.398 .0385160
482.266 .0384540
483.132 .0383824
483.997 .0383047
484.861 .0382294
485.724 .0381572
486.587 .0380914
487.448 .0380396
488.308 .0379926
489.168 .0379485
490.026 .0379096
490.884 .0378688
491.741 .0378240
492.597 .0377749
493.452 .0377283
494.306 .0376856
495.159 .0376527
496.011 .0376360
496.862 .0376323
497.713 .0376426
498.562 .0376566
499.411 .0376636
500.259 .0376548
501.106 .0376223
501.952 .0375597
502.798 .0374692
503.642 .0373547
504.486 .0372216
505.329 .0370773
506.171 .0369350
507.012 .0368008
507.852 .0366712
508.692 .0365491
509.531 .0364322
510.369 .0363071
511.206 .0361694
512.043 .0360118
512.878 .0358304
513.713 .0356316
514.547 .0354137
515.381 .0351866
516.213 .0349579
517.045 .0347366
517.876 .0345262
518.706 .0343234
519.536 .0341398
520.365 .0339644
521.193 .0337823
522.020 .0336043
522.847 .0334109
523.673 .0332042
524.498 .0329868
525.323 .0327738
526.146 .0325750
526.969 .0323998
527.792 .0322624
528.614 .0321606
529.435 .0320948
530.255 .0320582
531.075 .0320318
531.894 .0320057
532.712 .0319763
533.530 .0319217
534.347 .0318438
535.163 .0317628
535.979 .0316720
536.794 .0315854
537.608 .0315083
538.422 .0314519
539.235 .0314092
540.048 .0313793
540.860 .0313725
541.671 .0313719
542.481 .0313871
543.292 .0314112
544.101 .0314269
544.910 .0314455
545.718 .0314566
546.526 .0314604
547.333 .0314599
548.139 .0314662
548.945 .0314743
549.750 .0314900
550.555 .0315240
551.359 .0315739
552.162 .0316373
552.965 .0317149
553.768 .0317961
554.569 .0318690
555.371 .0319293
556.171 .0319730
556.972 .0319974
557.771 .0320098
558.570 .0320111
559.369 .0320073
560.167 .0320062
560.964 .0320135
561.761 .0320289
562.558 .0320583
563.354 .0320968
564.149 .0321354
564.944 .0321714
565.738 .0322034
566.532 .0322300
567.325 .0322503
568.118 .0322715
568.910 .0322961
569.702 .0323276
570.494 .0323720
571.285 .0324238
572.075 .0324871
572.865 .0325610
573.654 .0326356
574.443 .0327077
575.232 .0327718
576.020 .0328281
576.807 .0328728
577.594 .0329102
578.381 .0329415
579.167 .0329696
579.952 .0329976
580.738 .0330284
581.522 .0330587
582.307 .0330905
583.091 .0331236
583.874 .0331540
584.657 .0331812
585.440 .0332030
586.222 .0332177
587.004 .0332291
587.785 .0332362
588.566 .0332413
589.346 .0332448
590.126 .0332499
590.906 .0332557
591.685 .0332595
592.464 .0332613
593.242 .0332602
594.020 .0332536
594.797 .0332431
595.575 .0332278
596.351 .0332081
597.128 .0331860
597.904 .0331625
598.679 .0331402
599.454 .0331198
600.229 .0331016
601.004 .0330863
601.778 .0330731
602.551 .0330621
603.325 .0330509
604.097 .0330415
604.870 .0330336
605.642 .0330267
606.414 .0330206
607.185 .0330153
607.956 .0330101
608.727 .0330061
609.497 .0330013
610.267 .0329951
611.037 .0329880
611.806 .0329792
612.575 .0329674
613.344 .0329529
614.112 .0329356
614.880 .0329154
615.647 .0328922
616.414 .0328681
617.181 .0328412
617.948 .0328138
618.714 .0327856
619.480 .0327579
620.245 .0327323
621.011 .0327078
621.775 .0326847
622.540 .0326640
623.304 .0326453
624.068 .0326272
624.832 .0326093
625.595 .0325916
626.358 .0325725
627.120 .0325515
627.883 .0325283
628.645 .0325029
629.406 .0324758
630.168 .0324475
630.929 .0324185
631.689 .0323898
632.450 .0323619
633.210 .0323336
633.970 .0323063
634.729 .0322802
635.489 .0322544
636.248 .0322282
637.006 .0322030
637.765 .0321786
638.523 .0321554
639.280 .0321342
640.038 .0321154
640.795 .0320983
641.552 .0320836
642.309 .0320707
643.065 .0320585
643.821 .0320464
644.577 .0320339
645.332 .0320191
646.088 .0320025
646.843 .0319836
647.597 .0319613
648.352 .0319373
649.106 .0319132
649.860 .0318882
650.613 .0318631
651.367 .0318392
652.120 .0318154
652.872 .0317923
653.625 .0317702
654.377 .0317481
655.129 .0317253
655.881 .0317037
656.632 .0316827
657.384 .0316623
658.135 .0316437
658.885 .0316262
659.636 .0316091
660.386 .0315926
661.136 .0315749
661.885 .0315554
662.635 .0315348
663.384 .0315133
664.133 .0314900
664.881 .0314661
665.630 .0314413
666.378 .0314156
667.126 .0313887
667.874 .0313603
668.621 .0313298
669.368 .0312976
670.115 .0312647
670.862 .0312308
671.608 .0311983
672.354 .0311683
673.100 .0311402
673.846 .0311143
674.591 .0310892
675.337 .0310643
676.082 .0310386
676.826 .0310117
677.571 .0309837
678.315 .0309549
679.059 .0309270
679.803 .0308999
680.547 .0308751
681.290 .0308522
682.033 .0308301
682.776 .0308083
683.518 .0307853
684.261 .0307600
685.003 .0307327
685.745 .0307039
686.487 .0306754
687.228 .0306482
687.969 .0306230
688.710 .0305998
689.451 .0305791
690.192 .0305603
690.932 .0305414
691.672 .0305220
692.412 .0305020
693.152 .0304798
693.891 .0304564
694.630 .0304324
695.369 .0304080
696.108 .0303837
696.846 .0303599
697.585 .0303361
698.323 .0303123
699.061 .0302886
699.798 .0302647
700.536 .0302411
701.273 .0302189
702.010 .0301975
702.746 .0301768
703.483 .0301580
704.219 .0301403
704.955 .0301234
705.691 .0301077
706.427 .0300923
707.162 .0300777
707.897 .0300639
708.632 .0300516
709.367 .0300404
710.101 .0300303
710.835 .0300210
711.569 .0300121
712.303 .0300032
713.037 .0299937
713.770 .0299826
714.503 .0299704
715.236 .0299574
715.969 .0299435
716.702 .0299292
717.434 .0299156
718.166 .0299024
718.898 .0298898
719.629 .0298774
720.361 .0298653
721.092 .0298524
721.823 .0298391
722.554 .0298243
723.284 .0298086
724.014 .0297916
724.744 .0297734
725.474 .0297539
726.204 .0297339
726.933 .0297141
727.662 .0296946
728.391 .0296759
729.120 .0296588
729.849 .0296433
730.577 .0296294
731.305 .0296165
732.033 .0296045
732.760 .0295924
733.488 .0295810
734.215 .0295693
734.942 .0295571
735.669 .0295446
736.395 .0295319
737.122 .0295194
737.848 .0295069
738.573 .0294948
739.299 .0294820
740.024 .0294691
740.750 .0294558
741.474 .0294415
742.199 .0294259
742.924 .0294097
743.648 .0293926
744.372 .0293746
745.096 .0293564
745.819 .0293381
746.543 .0293206
747.266 .0293056
747.989 .0292923
748.711 .0292811
749.434 .0292718
750.156 .0292645
750.878 .0292578
751.599 .0292526
752.321 .0292472
753.042 .0292409
753.763 .0292335
754.484 .0292253
755.205 .0292157
755.925 .0292057
756.645 .0291953
757.365 .0291839
758.085 .0291721
758.804 .0291586
759.523 .0291423
760.242 .0291232
760.961 .0291019
761.679 .0290776
762.397 .0290502
763.115 .0290208
763.833 .0289902
764.551 .0289592
765.268 .0289292
765.985 .0288995
766.702 .0288714
767.418 .0288443
768.134 .0288185
768.850 .0287930
769.566 .0287695
770.282 .0287468
770.997 .0287260
771.712 .0287065
772.427 .0286894
773.142 .0286738
773.856 .0286599
774.570 .0286467
775.284 .0286341
775.998 .0286208
776.711 .0286065
777.424 .0285904
778.137 .0285734
778.849 .0285551
779.562 .0285361
780.274 .0285164
780.986 .0284979
781.697 .0284792
782.409 .0284609
783.120 .0284418
783.831 .0284228
784.541 .0284034
785.252 .0283838
785.962 .0283646
786.671 .0283470
787.381 .0283307
788.090 .0283163
788.799 .0283034
789.508 .0282920
790.217 .0282815
790.925 .0282710
791.633 .0282597
792.341 .0282474
793.048 .0282335
793.755 .0282184
794.462 .0282022
795.169 .0281866
795.875 .0281712
796.581 .0281559
797.287 .0281413
797.993 .0281267
798.698 .0281127
799.403 .0280986
800.108 .0280843
800.812 .0280696
801.517 .0280550
802.221 .0280403
802.924 .0280256
803.628 .0280115
804.331 .0279982
805.034 .0279852
805.736 .0279725
806.439 .0279597
807.141 .0279466
807.843 .0279334
808.544 .0279199
809.245 .0279055
809.946 .0278901
810.647 .0278734
811.347 .0278554
812.047 .0278363
812.747 .0278169
813.447 .0277967
814.146 .0277770
814.845 .0277580
815.543 .0277397
816.242 .0277227
816.940 .0277070
817.638 .0276925
818.335 .0276791
819.032 .0276662
819.729 .0276542
820.426 .0276427
821.122 .0276320
821.818 .0276217
822.514 .0276121
823.209 .0276034
823.905 .0275950
824.599 .0275870
825.294 .0275793
825.988 .0275710
826.682 .0275619
827.376 .0275521
828.069 .0275411
828.762 .0275285
829.455 .0275145
830.147 .0274988
830.840 .0274819
831.531 .0274639
832.223 .0274460
832.914 .0274287
833.605 .0274130
834.296 .0273989
834.986 .0273864
835.676 .0273762
836.366 .0273675
837.055 .0273597
837.744 .0273523
838.433 .0273447
839.121 .0273372
839.809 .0273298
840.497 .0273234
841.185 .0273181
841.872 .0273138
842.559 .0273105
843.245 .0273079
843.932 .0273050
844.617 .0273012
845.303 .0272961
845.988 .0272895
846.673 .0272814
847.358 .0272721
848.042 .0272623
848.726 .0272529
849.410 .0272440
850.093 .0272359
850.776 .0272279
851.459 .0272199
852.141 .0272111
852.823 .0272019
853.505 .0271927
854.186 .0271835
854.867 .0271748
855.548 .0271664
856.228 .0271588
856.908 .0271517
857.588 .0271447
858.267 .0271379
858.946 .0271309
859.625 .0271237
860.303 .0271162
860.981 .0271089
861.659 .0271025
862.336 .0270965
863.013 .0270912
863.690 .0270864
864.366 .0270817
865.042 .0270768
865.718 .0270715
866.393 .0270660
867.068 .0270603
867.743 .0270544
868.417 .0270482
869.091 .0270419
869.765 .0270353
870.438 .0270284
871.111 .0270208
871.783 .0270134
872.456 .0270058
873.127 .0269987
873.799 .0269922
874.470 .0269861
875.141 .0269805
875.811 .0269753
876.481 .0269697
877.151 .0269638
877.820 .0269570
878.489 .0269491
879.158 .0269405
879.826 .0269317
880.494 .0269234
881.162 .0269164
881.829 .0269103
882.496 .0269051
883.163 .0269006
883.829 .0268960
884.495 .0268907
885.160 .0268854
885.825 .0268801
886.490 .0268754
887.154 .0268720
887.818 .0268706
888.482 .0268709
889.145 .0268734
889.808 .0268782
890.471 .0268841
891.133 .0268904
891.795 .0268965
892.456 .0269013
893.117 .0269052
893.778 .0269080
894.439 .0269096
895.099 .0269099
895.758 .0269095
896.417 .0269084
897.076 .0269053
897.735 .0269010
898.393 .0268950
899.051 .0268870
899.708 .0268768
900.365 .0268640
901.022 .0268489
901.678 .0268323
902.334 .0268154
902.990 .0267987
903.645 .0267824
904.300 .0267674
904.954 .0267539
905.608 .0267412
906.262 .0267298
906.915 .0267192
907.568 .0267082
908.221 .0266976
908.873 .0266869
909.525 .0266754
910.176 .0266637
910.828 .0266525
911.478 .0266415
912.129 .0266304
912.778 .0266194
913.428 .0266082
914.077 .0265969
914.726 .0265864
915.375 .0265763
916.023 .0265664
916.670 .0265573
917.318 .0265490
917.964 .0265409
918.611 .0265330
919.257 .0265249
919.903 .0265156
920.548 .0265059
921.193 .0264958
921.838 .0264858
922.482 .0264763
923.126 .0264680
923.770 .0264602
924.413 .0264519
925.056 .0264433
925.698 .0264326
926.340 .0264199
926.982 .0264055
927.623 .0263889
928.264 .0263711
928.904 .0263529
929.544 .0263357
930.184 .0263199
930.823 .0263065
931.462 .0262949
932.101 .0262841
932.739 .0262739
933.377 .0262634
934.014 .0262520
934.651 .0262397
935.288 .0262263
935.924 .0262117
936.560 .0261969
937.196 .0261820
937.831 .0261667
938.466 .0261516
939.100 .0261364
939.734 .0261207
940.368 .0261037
941.001 .0260849
941.634 .0260645
942.266 .0260427
942.899 .0260198
943.530 .0259952
944.162 .0259700
944.793 .0259442
945.423 .0259179
946.053 .0258913
946.683 .0258650
947.313 .0258380
947.942 .0258107
948.571 .0257829
949.199 .0257549
949.827 .0257262
950.455 .0256975
951.082 .0256689
951.709 .0256411
952.335 .0256137
952.961 .0255866
953.587 .0255605
954.212 .0255357
954.837 .0255112
955.462 .0254879
956.086 .0254657
956.710 .0254447
957.334 .0254239
957.957 .0254041
958.579 .0253848
959.202 .0253654
959.824 .0253461
960.445 .0253260
961.067 .0253061
961.688 .0252863
962.308 .0252665
962.928 .0252471
963.548 .0252284
964.168 .0252103
964.787 .0251920
965.406 .0251742
966.024 .0251568
966.642 .0251395
967.260 .0251230
967.877 .0251074
968.494 .0250927
969.110 .0250786
969.727 .0250652
970.342 .0250520
970.958 .0250393
971.573 .0250266
972.188 .0250136
972.802 .0250006
973.416 .0249880
974.030 .0249749
974.643 .0249620
975.256 .0249492
975.869 .0249363
976.481 .0249229
977.093 .0249097
977.705 .0248962
978.316 .0248830
978.927 .0248703
979.538 .0248583
980.148 .0248468
980.758 .0248356
981.367 .0248243
981.977 .0248131
982.586 .0248021
983.194 .0247920
983.802 .0247818
984.410 .0247725
985.018 .0247639
985.625 .0247562
986.232 .0247487
986.838 .0247405
987.445 .0247315
988.050 .0247214
988.656 .0247098
989.261 .0246971
989.866 .0246839
990.471 .0246706
991.075 .0246573
991.679 .0246439
992.282 .0246300
992.886 .0246153
993.489 .0245995
994.091 .0245826
994.694 .0245648
995.296 .0245466
995.897 .0245274
996.499 .0245089
997.100 .0244922
997.701 .0244767
998.301 .0244627
998.901 .0244505
999.501 .0244396
1000.101 .0244297
1000.700 .0244210
1001.299 .0244137
1001.898 .0244085
1002.496 .0244058
1003.094 .0244049
1003.692 .0244055
1004.289 .0244086
1004.887 .0244126
1005.484 .0244172
1006.080 .0244222
1006.677 .0244271
1007.273 .0244306
1007.868 .0244326
1008.464 .0244339
1009.059 .0244348
1009.654 .0244350
1010.249 .0244353
1010.843 .0244350
1011.437 .0244347
1012.031 .0244338
1012.625 .0244328
1013.218 .0244316
1013.811 .0244312
1014.404 .0244306
1014.997 .0244303
1015.589 .0244297
1016.181 .0244300
1016.773 .0244312
1017.365 .0244335
1017.956 .0244370
1018.547 .0244408
1019.138 .0244447
1019.728 .0244489
1020.319 .0244521
1020.909 .0244547
1021.499 .0244552
1022.088 .0244532
1022.678 .0244472
1023.267 .0244378
1023.856 .0244243
1024.445 .0244086
1025.033 .0243910
1025.621 .0243729
1026.209 .0243553
1026.797 .0243383
1027.385 .0243234
1027.972 .0243103
1028.560 .0242991
1029.147 .0242897
1029.734 .0242809
1030.320 .0242733
1030.907 .0242662
1031.493 .0242607
1032.079 .0242584
1032.665 .0242601
1033.250 .0242665
1033.836 .0242767
1034.421 .0242910
1035.006 .0243085
1035.591 .0243271
1036.176 .0243449
1036.761 .0243614
1037.345 .0243742
1037.929 .0243840
1038.514 .0243900
1039.097 .0243925
1039.681 .0243939
1040.265 .0243942
1040.848 .0243947
1041.432 .0243955
1042.015 .0243961
1042.598 .0243965
1043.181 .0243964
1043.764 .0243962
1044.346 .0243940
1044.929 .0243911
1045.511 .0243888
1046.094 .0243882
1046.676 .0243888
1047.258 .0243930
1047.840 .0244013
1048.422 .0244129
1049.003 .0244268
1049.585 .0244399
1050.166 .0244526
1050.748 .0244635
1051.329 .0244732
1051.910 .0244819
1052.491 .0244894
1053.072 .0244980
1053.653 .0245063
1054.234 .0245152
1054.815 .0245233
1055.396 .0245294
1055.976 .0245321
1056.557 .0245328
1057.138 .0245310
1057.718 .0245263
1058.298 .0245216
1058.879 .0245186
1059.459 .0245167
1060.039 .0245162
1060.620 .0245169
1061.200 .0245174
1061.780 .0245151
1062.360 .0245109
1062.940 .0245030
1063.520 .0244927
1064.101 .0244802
1064.681 .0244658
1065.261 .0244504
1065.841 .0244359
1066.421 .0244209
1067.001 .0244044
1067.581 .0243872
1068.161 .0243698
1068.741 .0243516
1069.321 .0243351
1069.901 .0243214
1070.482 .0243113
1071.062 .0243039
1071.642 .0242999
1072.222 .0242984
1072.803 .0242981
1073.383 .0243004
1073.963 .0243068
1074.544 .0243160
1075.124 .0243301
1075.705 .0243480
1076.286 .0243708
1076.866 .0243966
1077.447 .0244235
1078.028 .0244474
1078.609 .0244668
1079.190 .0244806
1079.771 .0244874
1080.352 .0244864
1080.934 .0244827
1081.515 .0244788
1082.097 .0244763
1082.679 .0244769
1083.260 .0244798
1083.842 .0244825
1084.424 .0244869
1085.007 .0244898
1085.589 .0244902
1086.172 .0244871
1086.754 .0244832
1087.337 .0244794
1087.920 .0244792
1088.503 .0244842
1089.087 .0244952
1089.670 .0245103
1090.254 .0245309
1090.838 .0245501
1091.422 .0245684
1092.006 .0245837
1092.590 .0245949
1093.175 .0246030
1093.760 .0246089
1094.345 .0246109
1094.930 .0246102
1095.516 .0246071
1096.102 .0246030
1096.688 .0245956
1097.274 .0245846
1097.860 .0245675
1098.447 .0245471
1099.034 .0245239
1099.622 .0244969
1100.209 .0244695
1100.797 .0244473
1101.385 .0244300
1101.973 .0244184
1102.562 .0244113
1103.151 .0244068
1103.740 .0244040
1104.330 .0244052
1104.920 .0244071
1105.510 .0244109
1106.101 .0244200
1106.691 .0244319
1107.283 .0244497
1107.874 .0244742
1108.466 .0245020
1109.058 .0245332
1109.651 .0245679
1110.244 .0246045
1110.837 .0246375
1111.431 .0246671
1112.025 .0246919
1112.620 .0247148
1113.215 .0247375
1113.810 .0247551
1114.406 .0247703
1115.002 .0247828
1115.599 .0247909
1116.196 .0247929
1116.793 .0247879
1117.391 .0247775
1117.989 .0247637
1118.588 .0247460
1119.187 .0247239
1119.787 .0247011
1120.387 .0246766
1120.988 .0246529
1121.589 .0246298
1122.190 .0246076
1122.793 .0245856
1123.395 .0245679
1123.998 .0245588
1124.602 .0245570
1125.206 .0245690
1125.811 .0245939
1126.416 .0246280
1127.022 .0246756
1127.628 .0247336
1128.235 .0247992
1128.843 .0248725
1129.451 .0249501
1130.059 .0250308
1130.669 .0251098
1131.278 .0251879
1131.889 .0252589
1132.500 .0253247
1133.112 .0253836
1133.724 .0254298
1134.337 .0254625
1134.950 .0254856
1135.564 .0254995
1136.179 .0255109
1136.795 .0255265
1137.411 .0255511
1138.028 .0255819
1138.645 .0256309
1139.263 .0256929
1139.882 .0257681
1140.502 .0258548
1141.122 .0259686
1141.743 .0261229
1142.365 .0262966
1142.987 .0262331
1143.611 .0264211
1144.235 .0270503
1144.859 .0277748
1145.485 .0274584
