Measurement Sequence started on: 10-20-44-796
Integration time: 35
Scans to Average: 2 
>>>>>Begin Spectral Data<<<<<
432.953 .0385218
433.882 .0325396
434.810 .0332350
435.737 .0323200
436.662 .0310213
437.586 .0320176
438.509 .0317218
439.431 .0316791
440.351 .0316553
441.269 .0316754
442.187 .0317161
443.103 .0317350
444.018 .0317227
444.932 .0317147
445.844 .0316929
446.756 .0316592
447.666 .0316170
448.575 .0315597
449.482 .0315011
450.388 .0314350
451.294 .0313625
452.198 .0312909
453.100 .0312266
454.002 .0311774
454.902 .0311411
455.801 .0311212
456.699 .0311138
457.596 .0311154
458.492 .0311121
459.387 .0311097
460.280 .0311098
461.172 .0311108
462.064 .0311169
462.954 .0311250
463.843 .0311391
464.730 .0311588
465.617 .0311823
466.503 .0312061
467.387 .0312263
468.271 .0312388
469.153 .0312396
470.035 .0312329
470.915 .0312227
471.794 .0312073
472.673 .0311902
473.550 .0311775
474.426 .0311715
475.301 .0311725
476.175 .0311807
477.048 .0311931
477.920 .0312105
478.791 .0312275
479.661 .0312399
480.530 .0312471
481.398 .0312497
482.266 .0312460
483.132 .0312354
483.997 .0312210
484.861 .0312021
485.724 .0311831
486.587 .0311666
487.448 .0311520
488.308 .0311383
489.168 .0311251
490.026 .0311101
490.884 .0310905
491.741 .0310650
492.597 .0310298
493.452 .0309858
494.306 .0309371
495.159 .0308821
496.011 .0308242
496.862 .0307660
497.713 .0307091
498.562 .0306521
499.411 .0305943
500.259 .0305326
501.106 .0304667
501.952 .0303978
502.798 .0303257
503.642 .0302492
504.486 .0301707
505.329 .0300927
506.171 .0300142
507.012 .0299398
507.852 .0298639
508.692 .0297841
509.531 .0297014
510.369 .0296150
511.206 .0295236
512.043 .0294306
512.878 .0293334
513.713 .0292378
514.547 .0291408
515.381 .0290408
516.213 .0289328
517.045 .0288147
517.876 .0286847
518.706 .0285369
519.536 .0283722
520.365 .0281955
521.193 .0280063
522.020 .0278218
522.847 .0276377
523.673 .0274593
524.498 .0272820
525.323 .0271071
526.146 .0269338
526.969 .0267624
527.792 .0265874
528.614 .0264080
529.435 .0262283
530.255 .0260554
531.075 .0258829
531.894 .0257181
532.712 .0255654
533.530 .0254238
534.347 .0252987
535.163 .0251869
535.979 .0250933
536.794 .0250236
537.608 .0249765
538.422 .0249515
539.235 .0249429
540.048 .0249462
540.860 .0249590
541.671 .0249735
542.481 .0249927
543.292 .0250076
544.101 .0250272
544.910 .0250492
545.718 .0250810
546.526 .0251195
547.333 .0251716
548.139 .0252287
548.945 .0252952
549.750 .0253580
550.555 .0254183
551.359 .0254715
552.162 .0255184
552.965 .0255623
553.768 .0256080
554.569 .0256521
555.371 .0257024
556.171 .0257556
556.972 .0258198
557.771 .0258820
558.570 .0259467
559.369 .0260071
560.167 .0260682
560.964 .0261239
561.761 .0261796
562.558 .0262346
563.354 .0262972
564.149 .0263633
564.944 .0264342
565.738 .0265138
566.532 .0266015
567.325 .0266918
568.118 .0267871
568.910 .0268805
569.702 .0269752
570.494 .0270677
571.285 .0271606
572.075 .0272538
572.865 .0273492
573.654 .0274442
574.443 .0275373
575.232 .0276309
576.020 .0277242
576.807 .0278154
577.594 .0279061
578.381 .0279955
579.167 .0280812
579.952 .0281634
580.738 .0282429
581.522 .0283180
582.307 .0283900
583.091 .0284562
583.874 .0285160
584.657 .0285707
585.440 .0286212
586.222 .0286674
587.004 .0287103
587.785 .0287506
588.566 .0287869
589.346 .0288188
590.126 .0288455
590.906 .0288677
591.685 .0288858
592.464 .0288984
593.242 .0289066
594.020 .0289104
594.797 .0289127
595.575 .0289141
596.351 .0289157
597.128 .0289169
597.904 .0289176
598.679 .0289181
599.454 .0289158
600.229 .0289113
601.004 .0289051
601.778 .0288963
602.551 .0288863
603.325 .0288761
604.097 .0288657
604.870 .0288556
605.642 .0288472
606.414 .0288398
607.185 .0288330
607.956 .0288261
608.727 .0288180
609.497 .0288079
610.267 .0287972
611.037 .0287842
611.806 .0287682
612.575 .0287511
613.344 .0287328
614.112 .0287139
614.880 .0286946
615.647 .0286751
616.414 .0286561
617.181 .0286379
617.948 .0286206
618.714 .0286041
619.480 .0285886
620.245 .0285744
621.011 .0285612
621.775 .0285492
622.540 .0285377
623.304 .0285268
624.068 .0285168
624.832 .0285078
625.595 .0284993
626.358 .0284912
627.120 .0284835
627.883 .0284770
628.645 .0284711
629.406 .0284643
630.168 .0284565
630.929 .0284481
631.689 .0284382
632.450 .0284265
633.210 .0284132
633.970 .0283984
634.729 .0283830
635.489 .0283667
636.248 .0283494
637.006 .0283318
637.765 .0283141
638.523 .0282963
639.280 .0282783
640.038 .0282603
640.795 .0282425
641.552 .0282254
642.309 .0282099
643.065 .0281958
643.821 .0281829
644.577 .0281709
645.332 .0281595
646.088 .0281487
646.843 .0281372
647.597 .0281248
648.352 .0281128
649.106 .0281020
649.860 .0280924
650.613 .0280844
651.367 .0280783
652.120 .0280743
652.872 .0280711
653.625 .0280674
654.377 .0280622
655.129 .0280551
655.881 .0280450
656.632 .0280321
657.384 .0280166
658.135 .0280006
658.885 .0279839
659.636 .0279681
660.386 .0279530
661.136 .0279384
661.885 .0279236
662.635 .0279086
663.384 .0278925
664.133 .0278752
664.881 .0278564
665.630 .0278369
666.378 .0278173
667.126 .0277985
667.874 .0277804
668.621 .0277641
669.368 .0277491
670.115 .0277355
670.862 .0277217
671.608 .0277085
672.354 .0276956
673.100 .0276822
673.846 .0276689
674.591 .0276561
675.337 .0276436
676.082 .0276319
676.826 .0276207
677.571 .0276106
678.315 .0276008
679.059 .0275916
679.803 .0275822
680.547 .0275723
681.290 .0275620
682.033 .0275502
682.776 .0275365
683.518 .0275215
684.261 .0275052
685.003 .0274876
685.745 .0274695
686.487 .0274515
687.228 .0274335
687.969 .0274159
688.710 .0273989
689.451 .0273821
690.192 .0273656
690.932 .0273490
691.672 .0273321
692.412 .0273149
693.152 .0272978
693.891 .0272807
694.630 .0272639
695.369 .0272480
696.108 .0272326
696.846 .0272173
697.585 .0272020
698.323 .0271863
699.061 .0271706
699.798 .0271544
700.536 .0271380
701.273 .0271213
702.010 .0271053
702.746 .0270894
703.483 .0270740
704.219 .0270588
704.955 .0270438
705.691 .0270284
706.427 .0270121
707.162 .0269952
707.897 .0269781
708.632 .0269613
709.367 .0269453
710.101 .0269296
710.835 .0269149
711.569 .0269005
712.303 .0268860
713.037 .0268714
713.770 .0268564
714.503 .0268400
715.236 .0268227
715.969 .0268041
716.702 .0267851
717.434 .0267660
718.166 .0267477
718.898 .0267302
719.629 .0267140
720.361 .0266990
721.092 .0266847
721.823 .0266708
722.554 .0266580
723.284 .0266445
724.014 .0266306
724.744 .0266157
725.474 .0266002
726.204 .0265839
726.933 .0265674
727.662 .0265505
728.391 .0265339
729.120 .0265172
729.849 .0265005
730.577 .0264838
731.305 .0264677
732.033 .0264517
732.760 .0264359
733.488 .0264202
734.215 .0264042
734.942 .0263878
735.669 .0263714
736.395 .0263548
737.122 .0263386
737.848 .0263223
738.573 .0263059
739.299 .0262900
740.024 .0262747
740.750 .0262599
741.474 .0262455
742.199 .0262320
742.924 .0262185
743.648 .0262051
744.372 .0261916
745.096 .0261784
745.819 .0261654
746.543 .0261527
747.266 .0261399
747.989 .0261276
748.711 .0261158
749.434 .0261046
750.156 .0260941
750.878 .0260845
751.599 .0260758
752.321 .0260677
753.042 .0260604
753.763 .0260539
754.484 .0260482
755.205 .0260434
755.925 .0260389
756.645 .0260346
757.365 .0260303
758.085 .0260253
758.804 .0260199
759.523 .0260139
760.242 .0260073
760.961 .0259999
761.679 .0259917
762.397 .0259822
763.115 .0259715
763.833 .0259596
764.551 .0259458
765.268 .0259303
765.985 .0259134
766.702 .0258948
767.418 .0258749
768.134 .0258545
768.850 .0258338
769.566 .0258129
770.282 .0257922
770.997 .0257715
771.712 .0257511
772.427 .0257313
773.142 .0257119
773.856 .0256934
774.570 .0256765
775.284 .0256606
775.998 .0256455
776.711 .0256316
777.424 .0256186
778.137 .0256057
778.849 .0255930
779.562 .0255800
780.274 .0255666
780.986 .0255527
781.697 .0255386
782.409 .0255242
783.120 .0255100
783.831 .0254964
784.541 .0254830
785.252 .0254701
785.962 .0254577
786.671 .0254449
787.381 .0254321
788.090 .0254192
788.799 .0254061
789.508 .0253926
790.217 .0253794
790.925 .0253667
791.633 .0253543
792.341 .0253420
793.048 .0253300
793.755 .0253177
794.462 .0253052
795.169 .0252915
795.875 .0252767
796.581 .0252613
797.287 .0252451
797.993 .0252283
798.698 .0252117
799.403 .0251954
800.108 .0251797
800.812 .0251643
801.517 .0251494
802.221 .0251347
802.924 .0251199
803.628 .0251051
804.331 .0250903
805.034 .0250760
805.736 .0250617
806.439 .0250481
807.141 .0250359
807.843 .0250248
808.544 .0250146
809.245 .0250049
809.946 .0249952
810.647 .0249853
811.347 .0249749
812.047 .0249638
812.747 .0249526
813.447 .0249411
814.146 .0249294
814.845 .0249179
815.543 .0249070
816.242 .0248968
816.940 .0248868
817.638 .0248773
818.335 .0248678
819.032 .0248577
819.729 .0248470
820.426 .0248349
821.122 .0248217
821.818 .0248072
822.514 .0247913
823.209 .0247744
823.905 .0247571
824.599 .0247394
825.294 .0247218
825.988 .0247049
826.682 .0246883
827.376 .0246719
828.069 .0246558
828.762 .0246393
829.455 .0246225
830.147 .0246053
830.840 .0245879
831.531 .0245703
832.223 .0245531
832.914 .0245364
833.605 .0245203
834.296 .0245054
834.986 .0244912
835.676 .0244777
836.366 .0244647
837.055 .0244516
837.744 .0244378
838.433 .0244235
839.121 .0244086
839.809 .0243931
840.497 .0243775
841.185 .0243620
841.872 .0243470
842.559 .0243331
843.245 .0243201
843.932 .0243084
844.617 .0242974
845.303 .0242875
845.988 .0242777
846.673 .0242681
847.358 .0242586
848.042 .0242491
848.726 .0242398
849.410 .0242310
850.093 .0242226
850.776 .0242145
851.459 .0242069
852.141 .0241997
852.823 .0241926
853.505 .0241851
854.186 .0241767
854.867 .0241677
855.548 .0241579
856.228 .0241473
856.908 .0241362
857.588 .0241251
858.267 .0241142
858.946 .0241036
859.625 .0240937
860.303 .0240843
860.981 .0240755
861.659 .0240669
862.336 .0240581
863.013 .0240489
863.690 .0240394
864.366 .0240295
865.042 .0240196
865.718 .0240100
866.393 .0240006
867.068 .0239917
867.743 .0239838
868.417 .0239766
869.091 .0239701
869.765 .0239640
870.438 .0239580
871.111 .0239517
871.783 .0239454
872.456 .0239384
873.127 .0239311
873.799 .0239235
874.470 .0239159
875.141 .0239082
875.811 .0239008
876.481 .0238936
877.151 .0238868
877.820 .0238803
878.489 .0238736
879.158 .0238665
879.826 .0238588
880.494 .0238504
881.162 .0238411
881.829 .0238309
882.496 .0238198
883.163 .0238081
883.829 .0237963
884.495 .0237846
885.160 .0237736
885.825 .0237634
886.490 .0237542
887.154 .0237460
887.818 .0237390
888.482 .0237330
889.145 .0237279
889.808 .0237241
890.471 .0237212
891.133 .0237193
891.795 .0237178
892.456 .0237169
893.117 .0237164
893.778 .0237161
894.439 .0237153
895.099 .0237142
895.758 .0237126
896.417 .0237107
897.076 .0237083
897.735 .0237053
898.393 .0237016
899.051 .0236970
899.708 .0236914
900.365 .0236850
901.022 .0236774
901.678 .0236691
902.334 .0236600
902.990 .0236511
903.645 .0236421
904.300 .0236335
904.954 .0236254
905.608 .0236179
906.262 .0236107
906.915 .0236037
907.568 .0235964
908.221 .0235889
908.873 .0235812
909.525 .0235737
910.176 .0235665
910.828 .0235599
911.478 .0235541
912.129 .0235486
912.778 .0235435
913.428 .0235388
914.077 .0235339
914.726 .0235289
915.375 .0235239
916.023 .0235191
916.670 .0235147
917.318 .0235107
917.964 .0235073
918.611 .0235039
919.257 .0235006
919.903 .0234970
920.548 .0234927
921.193 .0234878
921.838 .0234827
922.482 .0234772
923.126 .0234720
923.770 .0234667
924.413 .0234615
925.056 .0234562
925.698 .0234509
926.340 .0234453
926.982 .0234391
927.623 .0234324
928.264 .0234256
928.904 .0234188
929.544 .0234125
930.184 .0234060
930.823 .0233998
931.462 .0233933
932.101 .0233858
932.739 .0233771
933.377 .0233670
934.014 .0233552
934.651 .0233425
935.288 .0233293
935.924 .0233160
936.560 .0233029
937.196 .0232901
937.831 .0232775
938.466 .0232644
939.100 .0232503
939.734 .0232346
940.368 .0232173
941.001 .0231987
941.634 .0231794
942.266 .0231599
942.899 .0231409
943.530 .0231224
944.162 .0231048
944.793 .0230881
945.423 .0230719
946.053 .0230555
946.683 .0230390
947.313 .0230224
947.942 .0230055
948.571 .0229882
949.199 .0229714
949.827 .0229554
950.455 .0229403
951.082 .0229261
951.709 .0229127
952.335 .0228998
952.961 .0228870
953.587 .0228739
954.212 .0228601
954.837 .0228454
955.462 .0228296
956.086 .0228127
956.710 .0227952
957.334 .0227774
957.957 .0227592
958.579 .0227408
959.202 .0227229
959.824 .0227053
960.445 .0226879
961.067 .0226713
961.688 .0226553
962.308 .0226402
962.928 .0226256
963.548 .0226116
964.168 .0225979
964.787 .0225850
965.406 .0225726
966.024 .0225611
966.642 .0225505
967.260 .0225407
967.877 .0225313
968.494 .0225228
969.110 .0225145
969.727 .0225058
970.342 .0224965
970.958 .0224864
971.573 .0224753
972.188 .0224639
972.802 .0224519
973.416 .0224403
974.030 .0224291
974.643 .0224190
975.256 .0224098
975.869 .0224017
976.481 .0223942
977.093 .0223876
977.705 .0223814
978.316 .0223753
978.927 .0223693
979.538 .0223638
980.148 .0223583
980.758 .0223530
981.367 .0223484
981.977 .0223444
982.586 .0223406
983.194 .0223377
983.802 .0223350
984.410 .0223330
985.018 .0223314
985.625 .0223300
986.232 .0223287
986.838 .0223275
987.445 .0223260
988.050 .0223231
988.656 .0223196
989.261 .0223156
989.866 .0223102
990.471 .0223040
991.075 .0222973
991.679 .0222896
992.282 .0222807
992.886 .0222708
993.489 .0222598
994.091 .0222474
994.694 .0222344
995.296 .0222202
995.897 .0222054
996.499 .0221907
997.100 .0221764
997.701 .0221631
998.301 .0221519
998.901 .0221429
999.501 .0221353
1000.101 .0221299
1000.700 .0221267
1001.299 .0221246
1001.898 .0221239
1002.496 .0221243
1003.094 .0221253
1003.692 .0221269
1004.289 .0221291
1004.887 .0221319
1005.484 .0221352
1006.080 .0221386
1006.677 .0221413
1007.273 .0221432
1007.868 .0221445
1008.464 .0221449
1009.059 .0221442
1009.654 .0221428
1010.249 .0221407
1010.843 .0221387
1011.437 .0221366
1012.031 .0221347
1012.625 .0221332
1013.218 .0221317
1013.811 .0221302
1014.404 .0221283
1014.997 .0221258
1015.589 .0221231
1016.181 .0221205
1016.773 .0221179
1017.365 .0221153
1017.956 .0221125
1018.547 .0221099
1019.138 .0221067
1019.728 .0221035
1020.319 .0220997
1020.909 .0220948
1021.499 .0220890
1022.088 .0220823
1022.678 .0220744
1023.267 .0220662
1023.856 .0220581
1024.445 .0220507
1025.033 .0220435
1025.621 .0220372
1026.209 .0220314
1026.797 .0220267
1027.385 .0220230
1027.972 .0220208
1028.560 .0220194
1029.147 .0220195
1029.734 .0220205
1030.320 .0220223
1030.907 .0220249
1031.493 .0220285
1032.079 .0220327
1032.665 .0220374
1033.250 .0220417
1033.836 .0220461
1034.421 .0220499
1035.006 .0220534
1035.591 .0220568
1036.176 .0220603
1036.761 .0220635
1037.345 .0220670
1037.929 .0220694
1038.514 .0220716
1039.097 .0220735
1039.681 .0220756
1040.265 .0220772
1040.848 .0220783
1041.432 .0220788
1042.015 .0220787
1042.598 .0220784
1043.181 .0220791
1043.764 .0220801
1044.346 .0220827
1044.929 .0220863
1045.511 .0220898
1046.094 .0220930
1046.676 .0220956
1047.258 .0220967
1047.840 .0220964
1048.422 .0220941
1049.003 .0220898
1049.585 .0220837
1050.166 .0220774
1050.748 .0220718
1051.329 .0220675
1051.910 .0220654
1052.491 .0220651
1053.072 .0220657
1053.653 .0220668
1054.234 .0220665
1054.815 .0220642
1055.396 .0220595
1055.976 .0220520
1056.557 .0220422
1057.138 .0220317
1057.718 .0220214
1058.298 .0220126
1058.879 .0220061
1059.459 .0220018
1060.039 .0219990
1060.620 .0219960
1061.200 .0219923
1061.780 .0219866
1062.360 .0219782
1062.940 .0219685
1063.520 .0219581
1064.101 .0219484
1064.681 .0219409
1065.261 .0219361
1065.841 .0219337
1066.421 .0219334
1067.001 .0219333
1067.581 .0219325
1068.161 .0219301
1068.741 .0219260
1069.321 .0219193
1069.901 .0219108
1070.482 .0219034
1071.062 .0218968
1071.642 .0218922
1072.222 .0218910
1072.803 .0218914
1073.383 .0218935
1073.963 .0218961
1074.544 .0218993
1075.124 .0219019
1075.705 .0219053
1076.286 .0219090
1076.866 .0219125
1077.447 .0219170
1078.028 .0219219
1078.609 .0219269
1079.190 .0219322
1079.771 .0219365
1080.352 .0219374
1080.934 .0219351
1081.515 .0219308
1082.097 .0219237
1082.679 .0219163
1083.260 .0219092
1083.842 .0219034
1084.424 .0218992
1085.007 .0218977
1085.589 .0218984
1086.172 .0219000
1086.754 .0219036
1087.337 .0219059
1087.920 .0219080
1088.503 .0219103
1089.087 .0219128
1089.670 .0219163
1090.254 .0219219
1090.838 .0219288
1091.422 .0219361
1092.006 .0219440
1092.590 .0219520
1093.175 .0219585
1093.760 .0219639
1094.345 .0219663
1094.930 .0219660
1095.516 .0219639
1096.102 .0219615
1096.688 .0219571
1097.274 .0219539
1097.860 .0219499
1098.447 .0219455
1099.034 .0219422
1099.622 .0219391
1100.209 .0219372
1100.797 .0219371
1101.385 .0219384
1101.973 .0219401
1102.562 .0219416
1103.151 .0219438
1103.740 .0219447
1104.330 .0219458
1104.920 .0219469
1105.510 .0219460
1106.101 .0219444
1106.691 .0219430
1107.283 .0219408
1107.874 .0219396
1108.466 .0219390
1109.058 .0219381
1109.651 .0219379
1110.244 .0219381
1110.837 .0219377
1111.431 .0219361
1112.025 .0219344
1112.620 .0219308
1113.215 .0219262
1113.810 .0219197
1114.406 .0219128
1115.002 .0219088
1115.599 .0219080
1116.196 .0219105
1116.793 .0219151
1117.391 .0219221
1117.989 .0219303
1118.588 .0219372
1119.187 .0219426
1119.787 .0219452
1120.387 .0219463
1120.988 .0219478
1121.589 .0219517
1122.190 .0219608
1122.793 .0219764
1123.395 .0219999
1123.998 .0220302
1124.602 .0220657
1125.206 .0221023
1125.811 .0221373
1126.416 .0221675
1127.022 .0221941
1127.628 .0222150
1128.235 .0222305
1128.843 .0222453
1129.451 .0222599
1130.059 .0222757
1130.669 .0222953
1131.278 .0223177
1131.889 .0223434
1132.500 .0223719
1133.112 .0224012
1133.724 .0224282
1134.337 .0224546
1134.950 .0224785
1135.564 .0225000
1136.179 .0225216
1136.795 .0225451
1137.411 .0225699
1138.028 .0226008
1138.645 .0226386
1139.263 .0226833
1139.882 .0227293
1140.502 .0227717
1141.122 .0228133
1141.743 .0228523
1142.365 .0228772
1142.987 .0228941
1143.611 .0228023
1144.235 .0229767
1144.859 .0230351
1145.485 .0227971
