Measurement Sequence started on: 10-20-44-796
Integration time: 35
Scans to Average: 2 
>>>>>Begin Spectral Data<<<<<
432.953 .0425224
433.882 .0436342
434.810 .0470067
435.737 .0485159
436.662 .0453836
437.586 .0441596
438.509 .0437340
439.431 .0432636
440.351 .0427960
441.269 .0424081
442.187 .0422041
443.103 .0420961
444.018 .0420353
444.932 .0420148
445.844 .0419980
446.756 .0419949
447.666 .0420053
448.575 .0420265
449.482 .0420561
450.388 .0420730
451.294 .0420946
452.198 .0421015
453.100 .0420885
454.002 .0420564
454.902 .0420075
455.801 .0419493
456.699 .0418768
457.596 .0417814
458.492 .0416721
459.387 .0415456
460.280 .0414095
461.172 .0412636
462.064 .0411071
462.954 .0409509
463.843 .0407964
464.730 .0406496
465.617 .0405157
466.503 .0403914
467.387 .0402807
468.271 .0401830
469.153 .0400969
470.035 .0400174
470.915 .0399422
471.794 .0398739
472.673 .0398098
473.550 .0397547
474.426 .0397092
475.301 .0396714
476.175 .0396463
477.048 .0396297
477.920 .0396126
478.791 .0395953
479.661 .0395773
480.530 .0395505
481.398 .0395181
482.266 .0394836
483.132 .0394449
483.997 .0394063
484.861 .0393731
485.724 .0393439
486.587 .0393223
487.448 .0393043
488.308 .0392809
489.168 .0392516
490.026 .0392168
490.884 .0391719
491.741 .0391192
492.597 .0390649
493.452 .0390084
494.306 .0389499
495.159 .0388951
496.011 .0388399
496.862 .0387825
497.713 .0387207
498.562 .0386536
499.411 .0385775
500.259 .0384934
501.106 .0384017
501.952 .0383091
502.798 .0382175
503.642 .0381322
504.486 .0380488
505.329 .0379687
506.171 .0378948
507.012 .0378236
507.852 .0377506
508.692 .0376788
509.531 .0376060
510.369 .0375344
511.206 .0374607
512.043 .0373897
512.878 .0373120
513.713 .0372259
514.547 .0371289
515.381 .0370126
516.213 .0368760
517.045 .0367295
517.876 .0365660
518.706 .0364048
519.536 .0362485
520.365 .0361017
521.193 .0359655
522.020 .0358424
522.847 .0357139
523.673 .0355664
524.498 .0353858
525.323 .0351692
526.146 .0349272
526.969 .0346758
527.792 .0344247
528.614 .0342006
529.435 .0340235
530.255 .0338908
531.075 .0337932
531.894 .0337240
532.712 .0336478
533.530 .0335569
534.347 .0334279
535.163 .0332567
535.979 .0330750
536.794 .0329042
537.608 .0327670
538.422 .0326751
539.235 .0326463
540.048 .0326581
540.860 .0326989
541.671 .0327447
542.481 .0327651
543.292 .0327487
544.101 .0326866
544.910 .0325829
545.718 .0324527
546.526 .0323258
547.333 .0322231
548.139 .0321536
548.945 .0321351
549.750 .0321501
550.555 .0321984
551.359 .0322634
552.162 .0323365
552.965 .0324114
553.768 .0324790
554.569 .0325398
555.371 .0325977
556.171 .0326600
556.972 .0327306
557.771 .0328104
558.570 .0328988
559.369 .0329960
560.167 .0330957
560.964 .0331875
561.761 .0332725
562.558 .0333463
563.354 .0334081
564.149 .0334548
564.944 .0334893
565.738 .0335185
566.532 .0335398
567.325 .0335604
568.118 .0335771
568.910 .0335972
569.702 .0336224
570.494 .0336499
571.285 .0336829
572.075 .0337193
572.865 .0337564
573.654 .0337933
574.443 .0338254
575.232 .0338528
576.020 .0338716
576.807 .0338822
577.594 .0338868
578.381 .0338886
579.167 .0338869
579.952 .0338923
580.738 .0339020
581.522 .0339163
582.307 .0339322
583.091 .0339468
583.874 .0339591
584.657 .0339659
585.440 .0339695
586.222 .0339672
587.004 .0339635
587.785 .0339624
588.566 .0339600
589.346 .0339579
590.126 .0339543
590.906 .0339465
591.685 .0339342
592.464 .0339142
593.242 .0338857
594.020 .0338522
594.797 .0338178
595.575 .0337822
596.351 .0337472
597.128 .0337157
597.904 .0336878
598.679 .0336621
599.454 .0336392
600.229 .0336169
601.004 .0335954
601.778 .0335746
602.551 .0335542
603.325 .0335338
604.097 .0335152
604.870 .0334980
605.642 .0334823
606.414 .0334677
607.185 .0334523
607.956 .0334357
608.727 .0334177
609.497 .0333985
610.267 .0333760
611.037 .0333509
611.806 .0333242
612.575 .0332948
613.344 .0332634
614.112 .0332308
614.880 .0331979
615.647 .0331648
616.414 .0331329
617.181 .0331027
617.948 .0330742
618.714 .0330491
619.480 .0330271
620.245 .0330075
621.011 .0329902
621.775 .0329745
622.540 .0329592
623.304 .0329450
624.068 .0329320
624.832 .0329183
625.595 .0329053
626.358 .0328934
627.120 .0328814
627.883 .0328684
628.645 .0328560
629.406 .0328420
630.168 .0328266
630.929 .0328102
631.689 .0327915
632.450 .0327714
633.210 .0327508
633.970 .0327280
634.729 .0327031
635.489 .0326773
636.248 .0326501
637.006 .0326216
637.765 .0325932
638.523 .0325646
639.280 .0325362
640.038 .0325083
640.795 .0324819
641.552 .0324559
642.309 .0324314
643.065 .0324067
643.821 .0323801
644.577 .0323506
645.332 .0323169
646.088 .0322791
646.843 .0322377
647.597 .0321935
648.352 .0321474
649.106 .0321011
649.860 .0320564
650.613 .0320139
651.367 .0319746
652.120 .0319372
652.872 .0319024
653.625 .0318679
654.377 .0318332
655.129 .0317978
655.881 .0317620
656.632 .0317275
657.384 .0316941
658.135 .0316624
658.885 .0316339
659.636 .0316083
660.386 .0315853
661.136 .0315631
661.885 .0315413
662.635 .0315178
663.384 .0314918
664.133 .0314629
664.881 .0314305
665.630 .0313948
666.378 .0313577
667.126 .0313187
667.874 .0312791
668.621 .0312397
669.368 .0312002
670.115 .0311619
670.862 .0311256
671.608 .0310899
672.354 .0310561
673.100 .0310247
673.846 .0309962
674.591 .0309690
675.337 .0309444
676.082 .0309211
676.826 .0308991
677.571 .0308793
678.315 .0308603
679.059 .0308427
679.803 .0308279
680.547 .0308140
681.290 .0308003
682.033 .0307862
682.776 .0307712
683.518 .0307539
684.261 .0307348
685.003 .0307138
685.745 .0306905
686.487 .0306663
687.228 .0306423
687.969 .0306182
688.710 .0305951
689.451 .0305726
690.192 .0305500
690.932 .0305276
691.672 .0305049
692.412 .0304815
693.152 .0304581
693.891 .0304352
694.630 .0304130
695.369 .0303916
696.108 .0303710
696.846 .0303514
697.585 .0303324
698.323 .0303151
699.061 .0302984
699.798 .0302831
700.536 .0302687
701.273 .0302552
702.010 .0302433
702.746 .0302327
703.483 .0302221
704.219 .0302119
704.955 .0302007
705.691 .0301884
706.427 .0301750
707.162 .0301613
707.897 .0301469
708.632 .0301336
709.367 .0301212
710.101 .0301100
710.835 .0300997
711.569 .0300906
712.303 .0300818
713.037 .0300733
713.770 .0300641
714.503 .0300537
715.236 .0300426
715.969 .0300319
716.702 .0300211
717.434 .0300114
718.166 .0300028
718.898 .0299950
719.629 .0299881
720.361 .0299815
721.092 .0299741
721.823 .0299655
722.554 .0299542
723.284 .0299404
724.014 .0299235
724.744 .0299037
725.474 .0298817
726.204 .0298590
726.933 .0298361
727.662 .0298122
728.391 .0297888
729.120 .0297664
729.849 .0297445
730.577 .0297239
731.305 .0297037
732.033 .0296841
732.760 .0296649
733.488 .0296467
734.215 .0296293
734.942 .0296134
735.669 .0295986
736.395 .0295842
737.122 .0295701
737.848 .0295554
738.573 .0295397
739.299 .0295227
740.024 .0295046
740.750 .0294850
741.474 .0294632
742.199 .0294396
742.924 .0294156
743.648 .0293915
744.372 .0293671
745.096 .0293430
745.819 .0293195
746.543 .0292960
747.266 .0292725
747.989 .0292488
748.711 .0292250
749.434 .0292018
750.156 .0291794
750.878 .0291578
751.599 .0291380
752.321 .0291204
753.042 .0291046
753.763 .0290910
754.484 .0290788
755.205 .0290659
755.925 .0290522
756.645 .0290376
757.365 .0290222
758.085 .0290060
758.804 .0289895
759.523 .0289734
760.242 .0289577
760.961 .0289419
761.679 .0289245
762.397 .0289048
763.115 .0288825
763.833 .0288567
764.551 .0288276
765.268 .0287960
765.985 .0287634
766.702 .0287316
767.418 .0287023
768.134 .0286756
768.850 .0286523
769.566 .0286318
770.282 .0286126
770.997 .0285948
771.712 .0285766
772.427 .0285579
773.142 .0285393
773.856 .0285214
774.570 .0285045
775.284 .0284891
775.998 .0284755
776.711 .0284632
777.424 .0284518
778.137 .0284403
778.849 .0284269
779.562 .0284116
780.274 .0283948
780.986 .0283761
781.697 .0283565
782.409 .0283370
783.120 .0283175
783.831 .0282991
784.541 .0282823
785.252 .0282661
785.962 .0282509
786.671 .0282366
787.381 .0282228
788.090 .0282096
788.799 .0281975
789.508 .0281856
790.217 .0281741
790.925 .0281630
791.633 .0281519
792.341 .0281397
793.048 .0281265
793.755 .0281119
794.462 .0280959
795.169 .0280788
795.875 .0280611
796.581 .0280432
797.287 .0280265
797.993 .0280111
798.698 .0279978
799.403 .0279863
800.108 .0279769
800.812 .0279695
801.517 .0279638
802.221 .0279601
802.924 .0279583
803.628 .0279585
804.331 .0279605
805.034 .0279642
805.736 .0279689
806.439 .0279742
807.141 .0279802
807.843 .0279866
808.544 .0279924
809.245 .0279979
809.946 .0280027
810.647 .0280064
811.347 .0280097
812.047 .0280121
812.747 .0280137
813.447 .0280143
814.146 .0280136
814.845 .0280124
815.543 .0280098
816.242 .0280073
816.940 .0280045
817.638 .0280022
818.335 .0280006
819.032 .0279992
819.729 .0279987
820.426 .0279989
821.122 .0279992
821.818 .0279993
822.514 .0279987
823.209 .0279973
823.905 .0279944
824.599 .0279902
825.294 .0279851
825.988 .0279795
826.682 .0279732
827.376 .0279664
828.069 .0279600
828.762 .0279544
829.455 .0279489
830.147 .0279439
830.840 .0279402
831.531 .0279367
832.223 .0279343
832.914 .0279323
833.605 .0279310
834.296 .0279308
834.986 .0279306
835.676 .0279302
836.366 .0279294
837.055 .0279281
837.744 .0279255
838.433 .0279214
839.121 .0279161
839.809 .0279086
840.497 .0279003
841.185 .0278914
841.872 .0278819
842.559 .0278726
843.245 .0278637
843.932 .0278543
844.617 .0278443
845.303 .0278336
845.988 .0278219
846.673 .0278103
847.358 .0277990
848.042 .0277885
848.726 .0277793
849.410 .0277718
850.093 .0277657
850.776 .0277610
851.459 .0277577
852.141 .0277540
852.823 .0277493
853.505 .0277439
854.186 .0277365
854.867 .0277280
855.548 .0277189
856.228 .0277099
856.908 .0277010
857.588 .0276928
858.267 .0276841
858.946 .0276746
859.625 .0276643
860.303 .0276532
860.981 .0276408
861.659 .0276283
862.336 .0276153
863.013 .0276020
863.690 .0275891
864.366 .0275767
865.042 .0275642
865.718 .0275516
866.393 .0275378
867.068 .0275220
867.743 .0275045
868.417 .0274853
869.091 .0274644
869.765 .0274437
870.438 .0274233
871.111 .0274028
871.783 .0273822
872.456 .0273620
873.127 .0273416
873.799 .0273215
874.470 .0273011
875.141 .0272803
875.811 .0272592
876.481 .0272385
877.151 .0272184
877.820 .0271991
878.489 .0271811
879.158 .0271640
879.826 .0271472
880.494 .0271309
881.162 .0271144
881.829 .0270979
882.496 .0270815
883.163 .0270658
883.829 .0270507
884.495 .0270360
885.160 .0270229
885.825 .0270111
886.490 .0270000
887.154 .0269893
887.818 .0269785
888.482 .0269673
889.145 .0269552
889.808 .0269426
890.471 .0269296
891.133 .0269171
891.795 .0269047
892.456 .0268919
893.117 .0268794
893.778 .0268671
894.439 .0268538
895.099 .0268390
895.758 .0268225
896.417 .0268038
897.076 .0267830
897.735 .0267610
898.393 .0267381
899.051 .0267153
899.708 .0266931
900.365 .0266712
901.022 .0266501
901.678 .0266301
902.334 .0266100
902.990 .0265907
903.645 .0265722
904.300 .0265540
904.954 .0265365
905.608 .0265201
906.262 .0265048
906.915 .0264905
907.568 .0264769
908.221 .0264635
908.873 .0264501
909.525 .0264371
910.176 .0264236
910.828 .0264095
911.478 .0263960
912.129 .0263823
912.778 .0263684
913.428 .0263541
914.077 .0263389
914.726 .0263228
915.375 .0263061
916.023 .0262884
916.670 .0262700
917.318 .0262517
917.964 .0262339
918.611 .0262162
919.257 .0261996
919.903 .0261835
920.548 .0261675
921.193 .0261517
921.838 .0261358
922.482 .0261193
923.126 .0261031
923.770 .0260875
924.413 .0260730
925.056 .0260596
925.698 .0260478
926.340 .0260372
926.982 .0260275
927.623 .0260187
928.264 .0260098
928.904 .0260004
929.544 .0259903
930.184 .0259794
930.823 .0259672
931.462 .0259540
932.101 .0259396
932.739 .0259244
933.377 .0259082
934.014 .0258908
934.651 .0258724
935.288 .0258532
935.924 .0258345
936.560 .0258162
937.196 .0257981
937.831 .0257810
938.466 .0257644
939.100 .0257486
939.734 .0257336
940.368 .0257195
941.001 .0257062
941.634 .0256934
942.266 .0256816
942.899 .0256699
943.530 .0256590
944.162 .0256494
944.793 .0256409
945.423 .0256334
946.053 .0256260
946.683 .0256188
947.313 .0256112
947.942 .0256030
948.571 .0255931
949.199 .0255816
949.827 .0255680
950.455 .0255527
951.082 .0255361
951.709 .0255194
952.335 .0255039
952.961 .0254897
953.587 .0254772
954.212 .0254666
954.837 .0254570
955.462 .0254480
956.086 .0254388
956.710 .0254307
957.334 .0254224
957.957 .0254146
958.579 .0254078
959.202 .0254024
959.824 .0253987
960.445 .0253968
961.067 .0253959
961.688 .0253959
962.308 .0253958
962.928 .0253950
963.548 .0253927
964.168 .0253896
964.787 .0253844
965.406 .0253778
966.024 .0253699
966.642 .0253610
967.260 .0253508
967.877 .0253402
968.494 .0253296
969.110 .0253189
969.727 .0253089
970.342 .0252995
970.958 .0252909
971.573 .0252840
972.188 .0252782
972.802 .0252741
973.416 .0252718
974.030 .0252715
974.643 .0252726
975.256 .0252757
975.869 .0252801
976.481 .0252850
977.093 .0252909
977.705 .0252978
978.316 .0253051
978.927 .0253124
979.538 .0253198
980.148 .0253262
980.758 .0253320
981.367 .0253370
981.977 .0253405
982.586 .0253435
983.194 .0253456
983.802 .0253476
984.410 .0253494
985.018 .0253522
985.625 .0253560
986.232 .0253610
986.838 .0253680
987.445 .0253756
988.050 .0253836
988.656 .0253913
989.261 .0253981
989.866 .0254034
990.471 .0254075
991.075 .0254105
991.679 .0254127
992.282 .0254147
992.886 .0254162
993.489 .0254177
994.091 .0254191
994.694 .0254204
995.296 .0254211
995.897 .0254209
996.499 .0254201
997.100 .0254186
997.701 .0254175
998.301 .0254164
998.901 .0254166
999.501 .0254184
1000.101 .0254219
1000.700 .0254263
1001.299 .0254311
1001.898 .0254363
1002.496 .0254416
1003.094 .0254466
1003.692 .0254513
1004.289 .0254552
1004.887 .0254598
1005.484 .0254644
1006.080 .0254692
1006.677 .0254739
1007.273 .0254788
1007.868 .0254826
1008.464 .0254858
1009.059 .0254866
1009.654 .0254858
1010.249 .0254837
1010.843 .0254820
1011.437 .0254801
1012.031 .0254784
1012.625 .0254770
1013.218 .0254762
1013.811 .0254755
1014.404 .0254752
1014.997 .0254741
1015.589 .0254732
1016.181 .0254731
1016.773 .0254735
1017.365 .0254745
1017.956 .0254776
1018.547 .0254824
1019.138 .0254904
1019.728 .0254997
1020.319 .0255107
1020.909 .0255228
1021.499 .0255358
1022.088 .0255501
1022.678 .0255644
1023.267 .0255785
1023.856 .0255925
1024.445 .0256055
1025.033 .0256171
1025.621 .0256264
1026.209 .0256338
1026.797 .0256382
1027.385 .0256400
1027.972 .0256387
1028.560 .0256345
1029.147 .0256279
1029.734 .0256220
1030.320 .0256150
1030.907 .0256080
1031.493 .0256022
1032.079 .0255963
1032.665 .0255912
1033.250 .0255871
1033.836 .0255834
1034.421 .0255801
1035.006 .0255777
1035.591 .0255758
1036.176 .0255744
1036.761 .0255750
1037.345 .0255763
1037.929 .0255777
1038.514 .0255804
1039.097 .0255830
1039.681 .0255835
1040.265 .0255829
1040.848 .0255804
1041.432 .0255754
1042.015 .0255682
1042.598 .0255574
1043.181 .0255444
1043.764 .0255303
1044.346 .0255157
1044.929 .0255005
1045.511 .0254862
1046.094 .0254742
1046.676 .0254635
1047.258 .0254549
1047.840 .0254478
1048.422 .0254411
1049.003 .0254346
1049.585 .0254270
1050.166 .0254167
1050.748 .0254048
1051.329 .0253909
1051.910 .0253754
1052.491 .0253596
1053.072 .0253444
1053.653 .0253304
1054.234 .0253168
1054.815 .0253038
1055.396 .0252905
1055.976 .0252741
1056.557 .0252553
1057.138 .0252341
1057.718 .0252127
1058.298 .0251918
1058.879 .0251736
1059.459 .0251596
1060.039 .0251518
1060.620 .0251496
1061.200 .0251511
1061.780 .0251551
1062.360 .0251596
1062.940 .0251618
1063.520 .0251594
1064.101 .0251538
1064.681 .0251454
1065.261 .0251339
1065.841 .0251206
1066.421 .0251056
1067.001 .0250890
1067.581 .0250705
1068.161 .0250494
1068.741 .0250267
1069.321 .0250009
1069.901 .0249743
1070.482 .0249464
1071.062 .0249203
1071.642 .0248975
1072.222 .0248804
1072.803 .0248691
1073.383 .0248650
1073.963 .0248652
1074.544 .0248695
1075.124 .0248770
1075.705 .0248867
1076.286 .0248977
1076.866 .0249108
1077.447 .0249254
1078.028 .0249419
1078.609 .0249591
1079.190 .0249781
1079.771 .0249977
1080.352 .0250152
1080.934 .0250293
1081.515 .0250383
1082.097 .0250429
1082.679 .0250422
1083.260 .0250363
1083.842 .0250272
1084.424 .0250144
1085.007 .0249998
1085.589 .0249833
1086.172 .0249651
1086.754 .0249465
1087.337 .0249241
1087.920 .0249025
1088.503 .0248798
1089.087 .0248583
1089.670 .0248368
1090.254 .0248179
1090.838 .0248000
1091.422 .0247834
1092.006 .0247665
1092.590 .0247482
1093.175 .0247283
1093.760 .0247069
1094.345 .0246826
1094.930 .0246563
1095.516 .0246296
1096.102 .0246050
1096.688 .0245810
1097.274 .0245612
1097.860 .0245401
1098.447 .0245169
1099.034 .0244923
1099.622 .0244666
1100.209 .0244411
1100.797 .0244183
1101.385 .0244015
1101.973 .0243918
1102.562 .0243920
1103.151 .0244016
1103.740 .0244189
1104.330 .0244440
1104.920 .0244754
1105.510 .0245091
1106.101 .0245424
1106.691 .0245761
1107.283 .0246076
1107.874 .0246381
1108.466 .0246649
1109.058 .0246869
1109.651 .0247024
1110.244 .0247091
1110.837 .0247105
1111.431 .0247066
1112.025 .0246976
1112.620 .0246848
1113.215 .0246713
1113.810 .0246587
1114.406 .0246447
1115.002 .0246278
1115.599 .0246079
1116.196 .0245841
1116.793 .0245558
1117.391 .0245225
1117.989 .0244827
1118.588 .0244477
1119.187 .0244161
1119.787 .0243870
1120.387 .0243664
1120.988 .0243518
1121.589 .0243420
1122.190 .0243346
1122.793 .0243332
1123.395 .0243335
1123.998 .0243388
1124.602 .0243576
1125.206 .0243840
1125.811 .0244234
1126.416 .0244714
1127.022 .0245280
1127.628 .0245892
1128.235 .0246569
1128.843 .0247175
1129.451 .0247745
1130.059 .0248308
1130.669 .0248846
1131.278 .0249365
1131.889 .0249859
1132.500 .0250304
1133.112 .0250682
1133.724 .0250965
1134.337 .0251172
1134.950 .0251202
1135.564 .0251251
1136.179 .0251208
1136.795 .0251212
1137.411 .0251203
1138.028 .0251260
1138.645 .0251457
1139.263 .0251702
1139.882 .0251907
1140.502 .0252252
1141.122 .0252605
1141.743 .0252939
1142.365 .0253084
1142.987 .0250888
1143.611 .0256758
1144.235 .0255372
1144.859 .0253103
1145.485 .0249829
