Measurement Sequence started on: 10-20-44-796
Integration time: 35
Scans to Average: 2 
>>>>>Begin Spectral Data<<<<<
432.953 .0425159
433.882 .0354523
434.810 .0344344
435.737 .0346323
436.662 .0343426
437.586 .0347636
438.509 .0344684
439.431 .0344559
440.351 .0344776
441.269 .0344998
442.187 .0345232
443.103 .0345380
444.018 .0345563
444.932 .0345568
445.844 .0345655
446.756 .0345957
447.666 .0346435
448.575 .0346855
449.482 .0347253
450.388 .0347572
451.294 .0347664
452.198 .0347672
453.100 .0347637
454.002 .0347480
454.902 .0347281
455.801 .0347124
456.699 .0347033
457.596 .0347052
458.492 .0347143
459.387 .0347216
460.280 .0347205
461.172 .0347013
462.064 .0346691
462.954 .0346210
463.843 .0345666
464.730 .0345069
465.617 .0344494
466.503 .0343928
467.387 .0343335
468.271 .0342738
469.153 .0342171
470.035 .0341583
470.915 .0340999
471.794 .0340326
472.673 .0339617
473.550 .0338934
474.426 .0338306
475.301 .0337735
476.175 .0337276
477.048 .0336874
477.920 .0336554
478.791 .0336293
479.661 .0336079
480.530 .0335893
481.398 .0335760
482.266 .0335686
483.132 .0335626
483.997 .0335587
484.861 .0335585
485.724 .0335634
486.587 .0335761
487.448 .0335923
488.308 .0336105
489.168 .0336317
490.026 .0336532
490.884 .0336736
491.741 .0336895
492.597 .0336994
493.452 .0336991
494.306 .0336904
495.159 .0336732
496.011 .0336471
496.862 .0336131
497.713 .0335722
498.562 .0335238
499.411 .0334687
500.259 .0334028
501.106 .0333283
501.952 .0332450
502.798 .0331537
503.642 .0330514
504.486 .0329420
505.329 .0328301
506.171 .0327171
507.012 .0326017
507.852 .0324880
508.692 .0323762
509.531 .0322648
510.369 .0321522
511.206 .0320419
512.043 .0319319
512.878 .0318223
513.713 .0317114
514.547 .0316035
515.381 .0314955
516.213 .0313880
517.045 .0312783
517.876 .0311663
518.706 .0310510
519.536 .0309276
520.365 .0307967
521.193 .0306654
522.020 .0305322
522.847 .0303922
523.673 .0302427
524.498 .0300913
525.323 .0299284
526.146 .0297672
526.969 .0296056
527.792 .0294476
528.614 .0292877
529.435 .0291366
530.255 .0289944
531.075 .0288574
531.894 .0287292
532.712 .0286110
533.530 .0284991
534.347 .0283996
535.163 .0282990
535.979 .0282099
536.794 .0281331
537.608 .0280764
538.422 .0280231
539.235 .0279810
540.048 .0279488
540.860 .0279225
541.671 .0278963
542.481 .0278746
543.292 .0278532
544.101 .0278312
544.910 .0278128
545.718 .0277960
546.526 .0277830
547.333 .0277816
548.139 .0277880
548.945 .0278069
549.750 .0278339
550.555 .0278669
551.359 .0279032
552.162 .0279465
552.965 .0279993
553.768 .0280522
554.569 .0281114
555.371 .0281754
556.171 .0282434
556.972 .0283146
557.771 .0283871
558.570 .0284586
559.369 .0285301
560.167 .0285954
560.964 .0286540
561.761 .0287072
562.558 .0287594
563.354 .0288091
564.149 .0288572
564.944 .0289056
565.738 .0289557
566.532 .0290060
567.325 .0290586
568.118 .0291083
568.910 .0291594
569.702 .0292114
570.494 .0292628
571.285 .0293157
572.075 .0293707
572.865 .0294271
573.654 .0294861
574.443 .0295473
575.232 .0296081
576.020 .0296686
576.807 .0297314
577.594 .0297928
578.381 .0298532
579.167 .0299139
579.952 .0299742
580.738 .0300348
581.522 .0300953
582.307 .0301546
583.091 .0302118
583.874 .0302672
584.657 .0303204
585.440 .0303711
586.222 .0304178
587.004 .0304609
587.785 .0305001
588.566 .0305366
589.346 .0305687
590.126 .0305957
590.906 .0306178
591.685 .0306364
592.464 .0306493
593.242 .0306565
594.020 .0306588
594.797 .0306579
595.575 .0306533
596.351 .0306457
597.128 .0306356
597.904 .0306245
598.679 .0306121
599.454 .0305995
600.229 .0305865
601.004 .0305737
601.778 .0305590
602.551 .0305433
603.325 .0305272
604.097 .0305105
604.870 .0304939
605.642 .0304782
606.414 .0304629
607.185 .0304486
607.956 .0304345
608.727 .0304209
609.497 .0304082
610.267 .0303966
611.037 .0303848
611.806 .0303730
612.575 .0303611
613.344 .0303485
614.112 .0303347
614.880 .0303214
615.647 .0303075
616.414 .0302933
617.181 .0302797
617.948 .0302660
618.714 .0302530
619.480 .0302416
620.245 .0302304
621.011 .0302196
621.775 .0302094
622.540 .0301987
623.304 .0301870
624.068 .0301751
624.832 .0301627
625.595 .0301503
626.358 .0301385
627.120 .0301278
627.883 .0301167
628.645 .0301078
629.406 .0300996
630.168 .0300915
630.929 .0300840
631.689 .0300757
632.450 .0300661
633.210 .0300550
633.970 .0300424
634.729 .0300280
635.489 .0300121
636.248 .0299954
637.006 .0299769
637.765 .0299579
638.523 .0299383
639.280 .0299178
640.038 .0298965
640.795 .0298752
641.552 .0298524
642.309 .0298288
643.065 .0298051
643.821 .0297802
644.577 .0297550
645.332 .0297302
646.088 .0297065
646.843 .0296839
647.597 .0296627
648.352 .0296427
649.106 .0296239
649.860 .0296065
650.613 .0295892
651.367 .0295713
652.120 .0295540
652.872 .0295365
653.625 .0295189
654.377 .0295017
655.129 .0294858
655.881 .0294710
656.632 .0294578
657.384 .0294449
658.135 .0294325
658.885 .0294195
659.636 .0294056
660.386 .0293903
661.136 .0293744
661.885 .0293577
662.635 .0293410
663.384 .0293249
664.133 .0293102
664.881 .0292958
665.630 .0292820
666.378 .0292683
667.126 .0292543
667.874 .0292388
668.621 .0292214
669.368 .0292025
670.115 .0291829
670.862 .0291629
671.608 .0291434
672.354 .0291249
673.100 .0291081
673.846 .0290926
674.591 .0290779
675.337 .0290633
676.082 .0290486
676.826 .0290330
677.571 .0290165
678.315 .0289988
679.059 .0289805
679.803 .0289621
680.547 .0289438
681.290 .0289258
682.033 .0289080
682.776 .0288904
683.518 .0288723
684.261 .0288533
685.003 .0288336
685.745 .0288125
686.487 .0287908
687.228 .0287690
687.969 .0287470
688.710 .0287253
689.451 .0287043
690.192 .0286835
690.932 .0286633
691.672 .0286433
692.412 .0286234
693.152 .0286036
693.891 .0285842
694.630 .0285648
695.369 .0285457
696.108 .0285268
696.846 .0285083
697.585 .0284896
698.323 .0284707
699.061 .0284506
699.798 .0284295
700.536 .0284073
701.273 .0283844
702.010 .0283615
702.746 .0283392
703.483 .0283172
704.219 .0282961
704.955 .0282754
705.691 .0282547
706.427 .0282336
707.162 .0282119
707.897 .0281902
708.632 .0281688
709.367 .0281483
710.101 .0281293
710.835 .0281122
711.569 .0280973
712.303 .0280835
713.037 .0280704
713.770 .0280572
714.503 .0280428
715.236 .0280270
715.969 .0280096
716.702 .0279912
717.434 .0279718
718.166 .0279522
718.898 .0279328
719.629 .0279135
720.361 .0278942
721.092 .0278746
721.823 .0278543
722.554 .0278332
723.284 .0278114
724.014 .0277882
724.744 .0277647
725.474 .0277412
726.204 .0277175
726.933 .0276941
727.662 .0276715
728.391 .0276502
729.120 .0276299
729.849 .0276112
730.577 .0275947
731.305 .0275792
732.033 .0275656
732.760 .0275529
733.488 .0275408
734.215 .0275289
734.942 .0275166
735.669 .0275033
736.395 .0274896
737.122 .0274759
737.848 .0274622
738.573 .0274490
739.299 .0274373
740.024 .0274259
740.750 .0274149
741.474 .0274040
742.199 .0273926
742.924 .0273803
743.648 .0273675
744.372 .0273538
745.096 .0273402
745.819 .0273268
746.543 .0273142
747.266 .0273031
747.989 .0272936
748.711 .0272860
749.434 .0272798
750.156 .0272746
750.878 .0272706
751.599 .0272667
752.321 .0272632
753.042 .0272601
753.763 .0272576
754.484 .0272555
755.205 .0272541
755.925 .0272534
756.645 .0272529
757.365 .0272522
758.085 .0272511
758.804 .0272484
759.523 .0272439
760.242 .0272369
760.961 .0272275
761.679 .0272160
762.397 .0272028
763.115 .0271883
763.833 .0271730
764.551 .0271573
765.268 .0271412
765.985 .0271247
766.702 .0271083
767.418 .0270911
768.134 .0270738
768.850 .0270563
769.566 .0270386
770.282 .0270208
770.997 .0270029
771.712 .0269856
772.427 .0269686
773.142 .0269527
773.856 .0269376
774.570 .0269238
775.284 .0269114
775.998 .0269000
776.711 .0268896
777.424 .0268802
778.137 .0268712
778.849 .0268619
779.562 .0268521
780.274 .0268419
780.986 .0268309
781.697 .0268198
782.409 .0268094
783.120 .0268006
783.831 .0267933
784.541 .0267877
785.252 .0267835
785.962 .0267800
786.671 .0267763
787.381 .0267710
788.090 .0267639
788.799 .0267549
789.508 .0267435
790.217 .0267300
790.925 .0267156
791.633 .0267008
792.341 .0266855
793.048 .0266700
793.755 .0266541
794.462 .0266372
795.169 .0266194
795.875 .0266008
796.581 .0265817
797.287 .0265620
797.993 .0265426
798.698 .0265236
799.403 .0265057
800.108 .0264892
800.812 .0264742
801.517 .0264607
802.221 .0264488
802.924 .0264378
803.628 .0264282
804.331 .0264199
805.034 .0264130
805.736 .0264071
806.439 .0264020
807.141 .0263976
807.843 .0263932
808.544 .0263879
809.245 .0263820
809.946 .0263745
810.647 .0263656
811.347 .0263551
812.047 .0263435
812.747 .0263311
813.447 .0263180
814.146 .0263047
814.845 .0262913
815.543 .0262775
816.242 .0262635
816.940 .0262488
817.638 .0262338
818.335 .0262185
819.032 .0262025
819.729 .0261862
820.426 .0261701
821.122 .0261537
821.818 .0261374
822.514 .0261216
823.209 .0261063
823.905 .0260911
824.599 .0260762
825.294 .0260616
825.988 .0260464
826.682 .0260305
827.376 .0260136
828.069 .0259952
828.762 .0259758
829.455 .0259548
830.147 .0259324
830.840 .0259092
831.531 .0258855
832.223 .0258617
832.914 .0258382
833.605 .0258157
834.296 .0257940
834.986 .0257733
835.676 .0257537
836.366 .0257350
837.055 .0257165
837.744 .0256986
838.433 .0256816
839.121 .0256656
839.809 .0256503
840.497 .0256366
841.185 .0256249
841.872 .0256155
842.559 .0256077
843.245 .0256016
843.932 .0255964
844.617 .0255919
845.303 .0255868
845.988 .0255805
846.673 .0255733
847.358 .0255651
848.042 .0255552
848.726 .0255444
849.410 .0255329
850.093 .0255205
850.776 .0255074
851.459 .0254936
852.141 .0254789
852.823 .0254630
853.505 .0254459
854.186 .0254272
854.867 .0254079
855.548 .0253881
856.228 .0253682
856.908 .0253492
857.588 .0253321
858.267 .0253165
858.946 .0253026
859.625 .0252905
860.303 .0252800
860.981 .0252707
861.659 .0252624
862.336 .0252545
863.013 .0252472
863.690 .0252401
864.366 .0252331
865.042 .0252257
865.718 .0252190
866.393 .0252119
867.068 .0252041
867.743 .0251958
868.417 .0251866
869.091 .0251762
869.765 .0251647
870.438 .0251519
871.111 .0251380
871.783 .0251228
872.456 .0251068
873.127 .0250898
873.799 .0250730
874.470 .0250563
875.141 .0250399
875.811 .0250248
876.481 .0250111
877.151 .0249985
877.820 .0249872
878.489 .0249775
879.158 .0249687
879.826 .0249604
880.494 .0249527
881.162 .0249448
881.829 .0249375
882.496 .0249303
883.163 .0249237
883.829 .0249176
884.495 .0249123
885.160 .0249075
885.825 .0249030
886.490 .0248988
887.154 .0248942
887.818 .0248896
888.482 .0248847
889.145 .0248791
889.808 .0248733
890.471 .0248670
891.133 .0248612
891.795 .0248553
892.456 .0248499
893.117 .0248444
893.778 .0248393
894.439 .0248343
895.099 .0248293
895.758 .0248245
896.417 .0248197
897.076 .0248148
897.735 .0248100
898.393 .0248051
899.051 .0248001
899.708 .0247948
900.365 .0247900
901.022 .0247851
901.678 .0247805
902.334 .0247754
902.990 .0247705
903.645 .0247657
904.300 .0247608
904.954 .0247556
905.608 .0247502
906.262 .0247447
906.915 .0247391
907.568 .0247332
908.221 .0247277
908.873 .0247223
909.525 .0247179
910.176 .0247137
910.828 .0247103
911.478 .0247073
912.129 .0247044
912.778 .0247013
913.428 .0246984
914.077 .0246949
914.726 .0246912
915.375 .0246872
916.023 .0246833
916.670 .0246792
917.318 .0246756
917.964 .0246716
918.611 .0246675
919.257 .0246626
919.903 .0246565
920.548 .0246484
921.193 .0246392
921.838 .0246286
922.482 .0246176
923.126 .0246067
923.770 .0245965
924.413 .0245871
925.056 .0245789
925.698 .0245716
926.340 .0245651
926.982 .0245588
927.623 .0245527
928.264 .0245462
928.904 .0245396
929.544 .0245328
930.184 .0245264
930.823 .0245205
931.462 .0245153
932.101 .0245108
932.739 .0245067
933.377 .0245027
934.014 .0244982
934.651 .0244935
935.288 .0244884
935.924 .0244830
936.560 .0244770
937.196 .0244705
937.831 .0244639
938.466 .0244561
939.100 .0244473
939.734 .0244376
940.368 .0244274
941.001 .0244168
941.634 .0244058
942.266 .0243953
942.899 .0243849
943.530 .0243748
944.162 .0243646
944.793 .0243539
945.423 .0243418
946.053 .0243281
946.683 .0243130
947.313 .0242970
947.942 .0242807
948.571 .0242648
949.199 .0242500
949.827 .0242365
950.455 .0242247
951.082 .0242140
951.709 .0242041
952.335 .0241953
952.961 .0241864
953.587 .0241777
954.212 .0241684
954.837 .0241592
955.462 .0241498
956.086 .0241406
956.710 .0241321
957.334 .0241236
957.957 .0241153
958.579 .0241072
959.202 .0240988
959.824 .0240901
960.445 .0240807
961.067 .0240711
961.688 .0240606
962.308 .0240494
962.928 .0240377
963.548 .0240258
964.168 .0240137
964.787 .0240019
965.406 .0239904
966.024 .0239799
966.642 .0239703
967.260 .0239616
967.877 .0239542
968.494 .0239475
969.110 .0239412
969.727 .0239351
970.342 .0239295
970.958 .0239247
971.573 .0239200
972.188 .0239163
972.802 .0239132
973.416 .0239106
974.030 .0239079
974.643 .0239047
975.256 .0239011
975.869 .0238964
976.481 .0238903
977.093 .0238836
977.705 .0238768
978.316 .0238705
978.927 .0238647
979.538 .0238597
980.148 .0238542
980.758 .0238477
981.367 .0238395
981.977 .0238294
982.586 .0238176
983.194 .0238049
983.802 .0237914
984.410 .0237783
985.018 .0237672
985.625 .0237576
986.232 .0237503
986.838 .0237452
987.445 .0237409
988.050 .0237367
988.656 .0237323
989.261 .0237276
989.866 .0237222
990.471 .0237172
991.075 .0237131
991.679 .0237096
992.282 .0237075
992.886 .0237069
993.489 .0237078
994.091 .0237100
994.694 .0237131
995.296 .0237162
995.897 .0237194
996.499 .0237222
997.100 .0237244
997.701 .0237260
998.301 .0237280
998.901 .0237299
999.501 .0237319
1000.101 .0237344
1000.700 .0237371
1001.299 .0237400
1001.898 .0237434
1002.496 .0237477
1003.094 .0237522
1003.692 .0237561
1004.289 .0237601
1004.887 .0237628
1005.484 .0237646
1006.080 .0237647
1006.677 .0237633
1007.273 .0237601
1007.868 .0237556
1008.464 .0237498
1009.059 .0237429
1009.654 .0237362
1010.249 .0237302
1010.843 .0237247
1011.437 .0237200
1012.031 .0237153
1012.625 .0237099
1013.218 .0237035
1013.811 .0236964
1014.404 .0236879
1014.997 .0236788
1015.589 .0236691
1016.181 .0236600
1016.773 .0236519
1017.365 .0236461
1017.956 .0236425
1018.547 .0236408
1019.138 .0236405
1019.728 .0236407
1020.319 .0236408
1020.909 .0236408
1021.499 .0236403
1022.088 .0236402
1022.678 .0236397
1023.267 .0236398
1023.856 .0236406
1024.445 .0236428
1025.033 .0236460
1025.621 .0236505
1026.209 .0236548
1026.797 .0236581
1027.385 .0236600
1027.972 .0236602
1028.560 .0236580
1029.147 .0236544
1029.734 .0236497
1030.320 .0236445
1030.907 .0236396
1031.493 .0236363
1032.079 .0236340
1032.665 .0236338
1033.250 .0236341
1033.836 .0236337
1034.421 .0236316
1035.006 .0236280
1035.591 .0236219
1036.176 .0236135
1036.761 .0236039
1037.345 .0235935
1037.929 .0235828
1038.514 .0235732
1039.097 .0235645
1039.681 .0235575
1040.265 .0235519
1040.848 .0235466
1041.432 .0235412
1042.015 .0235350
1042.598 .0235281
1043.181 .0235205
1043.764 .0235130
1044.346 .0235064
1044.929 .0235002
1045.511 .0234960
1046.094 .0234948
1046.676 .0234964
1047.258 .0235011
1047.840 .0235082
1048.422 .0235166
1049.003 .0235254
1049.585 .0235326
1050.166 .0235371
1050.748 .0235393
1051.329 .0235389
1051.910 .0235362
1052.491 .0235315
1053.072 .0235257
1053.653 .0235199
1054.234 .0235140
1054.815 .0235091
1055.396 .0235033
1055.976 .0234971
1056.557 .0234892
1057.138 .0234789
1057.718 .0234673
1058.298 .0234535
1058.879 .0234399
1059.459 .0234266
1060.039 .0234135
1060.620 .0234000
1061.200 .0233854
1061.780 .0233710
1062.360 .0233554
1062.940 .0233408
1063.520 .0233252
1064.101 .0233103
1064.681 .0232962
1065.261 .0232827
1065.841 .0232695
1066.421 .0232571
1067.001 .0232446
1067.581 .0232292
1068.161 .0232120
1068.741 .0231924
1069.321 .0231699
1069.901 .0231481
1070.482 .0231272
1071.062 .0231098
1071.642 .0230960
1072.222 .0230872
1072.803 .0230806
1073.383 .0230779
1073.963 .0230778
1074.544 .0230775
1075.124 .0230770
1075.705 .0230749
1076.286 .0230699
1076.866 .0230640
1077.447 .0230576
1078.028 .0230517
1078.609 .0230474
1079.190 .0230467
1079.771 .0230483
1080.352 .0230526
1080.934 .0230579
1081.515 .0230633
1082.097 .0230684
1082.679 .0230716
1083.260 .0230715
1083.842 .0230678
1084.424 .0230628
1085.007 .0230559
1085.589 .0230497
1086.172 .0230450
1086.754 .0230420
1087.337 .0230408
1087.920 .0230414
1088.503 .0230420
1089.087 .0230420
1089.670 .0230398
1090.254 .0230372
1090.838 .0230326
1091.422 .0230283
1092.006 .0230232
1092.590 .0230177
1093.175 .0230139
1093.760 .0230105
1094.345 .0230059
1094.930 .0230002
1095.516 .0229936
1096.102 .0229863
1096.688 .0229766
1097.274 .0229684
1097.860 .0229595
1098.447 .0229515
1099.034 .0229432
1099.622 .0229354
1100.209 .0229287
1100.797 .0229233
1101.385 .0229168
1101.973 .0229102
1102.562 .0229046
1103.151 .0228989
1103.740 .0228917
1104.330 .0228854
1104.920 .0228802
1105.510 .0228767
1106.101 .0228762
1106.691 .0228801
1107.283 .0228857
1107.874 .0228938
1108.466 .0229020
1109.058 .0229105
1109.651 .0229163
1110.244 .0229177
1110.837 .0229143
1111.431 .0229092
1112.025 .0229044
1112.620 .0228983
1113.215 .0228966
1113.810 .0229010
1114.406 .0229105
1115.002 .0229233
1115.599 .0229357
1116.196 .0229465
1116.793 .0229537
1117.391 .0229569
1117.989 .0229560
1118.588 .0229523
1119.187 .0229473
1119.787 .0229439
1120.387 .0229434
1120.988 .0229445
1121.589 .0229464
1122.190 .0229451
1122.793 .0229421
1123.395 .0229326
1123.998 .0229172
1124.602 .0228972
1125.206 .0228760
1125.811 .0228559
1126.416 .0228376
1127.022 .0228235
1127.628 .0228175
1128.235 .0228145
1128.843 .0228201
1129.451 .0228332
1130.059 .0228529
1130.669 .0228770
1131.278 .0229080
1131.889 .0229432
1132.500 .0229819
1133.112 .0230243
1133.724 .0230722
1134.337 .0231255
1134.950 .0231873
1135.564 .0232555
1136.179 .0233322
1136.795 .0234167
1137.411 .0235080
1138.028 .0235976
1138.645 .0236886
1139.263 .0237753
1139.882 .0238540
1140.502 .0239326
1141.122 .0240079
1141.743 .0240810
1142.365 .0241410
1142.987 .0241616
1143.611 .0244236
1144.235 .0244507
1144.859 .0243999
1145.485 .0241264
