Measurement Sequence started on: 10-20-44-796
Integration time: 35
Scans to Average: 2 
>>>>>Begin Spectral Data<<<<<
432.953 .0512992
433.882 .0510186
434.810 .0474111
435.737 .0430460
436.662 .0425177
437.586 .0433631
438.509 .0424797
439.431 .0417952
440.351 .0413320
441.269 .0410358
442.187 .0407647
443.103 .0405141
444.018 .0402930
444.932 .0401167
445.844 .0399561
446.756 .0398059
447.666 .0396893
448.575 .0395943
449.482 .0395210
450.388 .0394733
451.294 .0394405
452.198 .0394273
453.100 .0394301
454.002 .0394599
454.902 .0394892
455.801 .0395264
456.699 .0395706
457.596 .0396078
458.492 .0396437
459.387 .0396693
460.280 .0396871
461.172 .0396976
462.064 .0397004
462.954 .0396871
463.843 .0396640
464.730 .0396392
465.617 .0396081
466.503 .0395715
467.387 .0395289
468.271 .0394788
469.153 .0394197
470.035 .0393574
470.915 .0392904
471.794 .0392200
472.673 .0391555
473.550 .0390970
474.426 .0390526
475.301 .0390219
476.175 .0389998
477.048 .0389837
477.920 .0389717
478.791 .0389567
479.661 .0389327
480.530 .0389038
481.398 .0388690
482.266 .0388301
483.132 .0387917
483.997 .0387515
484.861 .0387129
485.724 .0386781
486.587 .0386440
487.448 .0386057
488.308 .0385614
489.168 .0385096
490.026 .0384512
490.884 .0383881
491.741 .0383238
492.597 .0382582
493.452 .0382003
494.306 .0381482
495.159 .0380989
496.011 .0380543
496.862 .0380112
497.713 .0379665
498.562 .0379166
499.411 .0378577
500.259 .0377932
501.106 .0377247
501.952 .0376572
502.798 .0375898
503.642 .0375216
504.486 .0374510
505.329 .0373760
506.171 .0372941
507.012 .0372033
507.852 .0370989
508.692 .0369816
509.531 .0368517
510.369 .0367099
511.206 .0365591
512.043 .0364010
512.878 .0362400
513.713 .0360783
514.547 .0359114
515.381 .0357399
516.213 .0355584
517.045 .0353719
517.876 .0351785
518.706 .0349804
519.536 .0347847
520.365 .0345933
521.193 .0344081
522.020 .0342310
522.847 .0340614
523.673 .0339042
524.498 .0337525
525.323 .0336056
526.146 .0334570
526.969 .0333147
527.792 .0331740
528.614 .0330360
529.435 .0329103
530.255 .0327982
531.075 .0326955
531.894 .0326112
532.712 .0325401
533.530 .0324790
534.347 .0324263
535.163 .0323833
535.979 .0323438
536.794 .0323099
537.608 .0322756
538.422 .0322389
539.235 .0322069
540.048 .0321767
540.860 .0321354
541.671 .0320926
542.481 .0320509
543.292 .0320004
544.101 .0319425
544.910 .0318861
545.718 .0318326
546.526 .0317877
547.333 .0317544
548.139 .0317304
548.945 .0317200
549.750 .0317185
550.555 .0317257
551.359 .0317420
552.162 .0317699
552.965 .0318010
553.768 .0318388
554.569 .0318862
555.371 .0319397
556.171 .0319949
556.972 .0320509
557.771 .0321043
558.570 .0321526
559.369 .0321933
560.167 .0322265
560.964 .0322546
561.761 .0322824
562.558 .0323119
563.354 .0323469
564.149 .0323861
564.944 .0324328
565.738 .0324851
566.532 .0325426
567.325 .0326043
568.118 .0326655
568.910 .0327278
569.702 .0327916
570.494 .0328579
571.285 .0329261
572.075 .0329977
572.865 .0330686
573.654 .0331363
574.443 .0331977
575.232 .0332505
576.020 .0332913
576.807 .0333225
577.594 .0333459
578.381 .0333629
579.167 .0333761
579.952 .0333882
580.738 .0334036
581.522 .0334247
582.307 .0334468
583.091 .0334714
583.874 .0334961
584.657 .0335204
585.440 .0335422
586.222 .0335629
587.004 .0335835
587.785 .0336046
588.566 .0336259
589.346 .0336469
590.126 .0336669
590.906 .0336866
591.685 .0337032
592.464 .0337155
593.242 .0337234
594.020 .0337256
594.797 .0337241
595.575 .0337188
596.351 .0337108
597.128 .0337009
597.904 .0336891
598.679 .0336753
599.454 .0336591
600.229 .0336409
601.004 .0336204
601.778 .0335982
602.551 .0335750
603.325 .0335515
604.097 .0335285
604.870 .0335061
605.642 .0334854
606.414 .0334665
607.185 .0334498
607.956 .0334337
608.727 .0334185
609.497 .0334040
610.267 .0333894
611.037 .0333743
611.806 .0333580
612.575 .0333405
613.344 .0333212
614.112 .0333009
614.880 .0332794
615.647 .0332576
616.414 .0332361
617.181 .0332147
617.948 .0331938
618.714 .0331725
619.480 .0331507
620.245 .0331277
621.011 .0331042
621.775 .0330804
622.540 .0330557
623.304 .0330312
624.068 .0330078
624.832 .0329860
625.595 .0329654
626.358 .0329456
627.120 .0329258
627.883 .0329040
628.645 .0328796
629.406 .0328514
630.168 .0328197
630.929 .0327856
631.689 .0327503
632.450 .0327136
633.210 .0326773
633.970 .0326409
634.729 .0326045
635.489 .0325677
636.248 .0325300
637.006 .0324900
637.765 .0324482
638.523 .0324050
639.280 .0323607
640.038 .0323159
640.795 .0322727
641.552 .0322305
642.309 .0321908
643.065 .0321526
643.821 .0321159
644.577 .0320802
645.332 .0320466
646.088 .0320134
646.843 .0319808
647.597 .0319489
648.352 .0319178
649.106 .0318875
649.860 .0318582
650.613 .0318295
651.367 .0318021
652.120 .0317758
652.872 .0317505
653.625 .0317256
654.377 .0317018
655.129 .0316787
655.881 .0316563
656.632 .0316336
657.384 .0316106
658.135 .0315863
658.885 .0315612
659.636 .0315352
660.386 .0315086
661.136 .0314820
661.885 .0314562
662.635 .0314320
663.384 .0314097
664.133 .0313893
664.881 .0313711
665.630 .0313539
666.378 .0313377
667.126 .0313211
667.874 .0313036
668.621 .0312858
669.368 .0312679
670.115 .0312499
670.862 .0312324
671.608 .0312156
672.354 .0312002
673.100 .0311852
673.846 .0311711
674.591 .0311568
675.337 .0311424
676.082 .0311280
676.826 .0311131
677.571 .0310978
678.315 .0310833
679.059 .0310695
679.803 .0310568
680.547 .0310449
681.290 .0310338
682.033 .0310223
682.776 .0310112
683.518 .0309994
684.261 .0309864
685.003 .0309721
685.745 .0309573
686.487 .0309414
687.228 .0309261
687.969 .0309111
688.710 .0308966
689.451 .0308831
690.192 .0308705
690.932 .0308576
691.672 .0308450
692.412 .0308324
693.152 .0308192
693.891 .0308052
694.630 .0307913
695.369 .0307768
696.108 .0307625
696.846 .0307488
697.585 .0307352
698.323 .0307219
699.061 .0307086
699.798 .0306945
700.536 .0306793
701.273 .0306634
702.010 .0306464
702.746 .0306276
703.483 .0306082
704.219 .0305885
704.955 .0305682
705.691 .0305479
706.427 .0305277
707.162 .0305075
707.897 .0304871
708.632 .0304668
709.367 .0304463
710.101 .0304258
710.835 .0304061
711.569 .0303867
712.303 .0303671
713.037 .0303476
713.770 .0303271
714.503 .0303052
715.236 .0302820
715.969 .0302573
716.702 .0302311
717.434 .0302046
718.166 .0301781
718.898 .0301521
719.629 .0301269
720.361 .0301031
721.092 .0300795
721.823 .0300561
722.554 .0300324
723.284 .0300079
724.014 .0299819
724.744 .0299549
725.474 .0299267
726.204 .0298984
726.933 .0298701
727.662 .0298421
728.391 .0298149
729.120 .0297880
729.849 .0297611
730.577 .0297340
731.305 .0297065
732.033 .0296789
732.760 .0296506
733.488 .0296223
734.215 .0295939
734.942 .0295662
735.669 .0295384
736.395 .0295110
737.122 .0294837
737.848 .0294560
738.573 .0294277
739.299 .0293988
740.024 .0293697
740.750 .0293401
741.474 .0293108
742.199 .0292817
742.924 .0292535
743.648 .0292262
744.372 .0291991
745.096 .0291733
745.819 .0291480
746.543 .0291234
747.266 .0290992
747.989 .0290755
748.711 .0290526
749.434 .0290302
750.156 .0290093
750.878 .0289894
751.599 .0289714
752.321 .0289556
753.042 .0289422
753.763 .0289306
754.484 .0289209
755.205 .0289124
755.925 .0289048
756.645 .0288974
757.365 .0288892
758.085 .0288801
758.804 .0288697
759.523 .0288581
760.242 .0288454
760.961 .0288318
761.679 .0288178
762.397 .0288030
763.115 .0287882
763.833 .0287725
764.551 .0287557
765.268 .0287378
765.985 .0287187
766.702 .0286987
767.418 .0286778
768.134 .0286563
768.850 .0286352
769.566 .0286150
770.282 .0285958
770.997 .0285778
771.712 .0285612
772.427 .0285459
773.142 .0285319
773.856 .0285189
774.570 .0285071
775.284 .0284967
775.998 .0284881
776.711 .0284812
777.424 .0284760
778.137 .0284725
778.849 .0284698
779.562 .0284676
780.274 .0284646
780.986 .0284602
781.697 .0284542
782.409 .0284471
783.120 .0284396
783.831 .0284324
784.541 .0284264
785.252 .0284220
785.962 .0284194
786.671 .0284180
787.381 .0284166
788.090 .0284151
788.799 .0284125
789.508 .0284077
790.217 .0284012
790.925 .0283937
791.633 .0283857
792.341 .0283783
793.048 .0283721
793.755 .0283670
794.462 .0283627
795.169 .0283585
795.875 .0283543
796.581 .0283494
797.287 .0283439
797.993 .0283371
798.698 .0283300
799.403 .0283228
800.108 .0283158
800.812 .0283095
801.517 .0283041
802.221 .0282996
802.924 .0282956
803.628 .0282912
804.331 .0282872
805.034 .0282831
805.736 .0282788
806.439 .0282740
807.141 .0282695
807.843 .0282649
808.544 .0282598
809.245 .0282540
809.946 .0282482
810.647 .0282422
811.347 .0282367
812.047 .0282311
812.747 .0282268
813.447 .0282238
814.146 .0282216
814.845 .0282202
815.543 .0282198
816.242 .0282197
816.940 .0282195
817.638 .0282186
818.335 .0282178
819.032 .0282161
819.729 .0282139
820.426 .0282115
821.122 .0282086
821.818 .0282049
822.514 .0282002
823.209 .0281937
823.905 .0281853
824.599 .0281742
825.294 .0281604
825.988 .0281443
826.682 .0281262
827.376 .0281065
828.069 .0280855
828.762 .0280639
829.455 .0280424
830.147 .0280208
830.840 .0279993
831.531 .0279782
832.223 .0279578
832.914 .0279383
833.605 .0279197
834.296 .0279026
834.986 .0278871
835.676 .0278730
836.366 .0278600
837.055 .0278473
837.744 .0278340
838.433 .0278200
839.121 .0278050
839.809 .0277889
840.497 .0277721
841.185 .0277553
841.872 .0277389
842.559 .0277236
843.245 .0277089
843.932 .0276945
844.617 .0276803
845.303 .0276659
845.988 .0276508
846.673 .0276348
847.358 .0276185
848.042 .0276025
848.726 .0275871
849.410 .0275730
850.093 .0275605
850.776 .0275490
851.459 .0275388
852.141 .0275287
852.823 .0275182
853.505 .0275072
854.186 .0274953
854.867 .0274823
855.548 .0274684
856.228 .0274538
856.908 .0274382
857.588 .0274215
858.267 .0274039
858.946 .0273847
859.625 .0273642
860.303 .0273425
860.981 .0273201
861.659 .0272971
862.336 .0272745
863.013 .0272519
863.690 .0272297
864.366 .0272080
865.042 .0271863
865.718 .0271645
866.393 .0271429
867.068 .0271212
867.743 .0270992
868.417 .0270779
869.091 .0270572
869.765 .0270376
870.438 .0270193
871.111 .0270018
871.783 .0269849
872.456 .0269683
873.127 .0269516
873.799 .0269343
874.470 .0269165
875.141 .0268987
875.811 .0268803
876.481 .0268619
877.151 .0268437
877.820 .0268258
878.489 .0268084
879.158 .0267910
879.826 .0267733
880.494 .0267547
881.162 .0267349
881.829 .0267141
882.496 .0266919
883.163 .0266688
883.829 .0266453
884.495 .0266215
885.160 .0265986
885.825 .0265769
886.490 .0265567
887.154 .0265380
887.818 .0265209
888.482 .0265045
889.145 .0264883
889.808 .0264724
890.471 .0264570
891.133 .0264423
891.795 .0264288
892.456 .0264166
893.117 .0264062
893.778 .0263978
894.439 .0263912
895.099 .0263855
895.758 .0263811
896.417 .0263768
897.076 .0263721
897.735 .0263667
898.393 .0263607
899.051 .0263539
899.708 .0263468
900.365 .0263392
901.022 .0263310
901.678 .0263224
902.334 .0263132
902.990 .0263028
903.645 .0262919
904.300 .0262800
904.954 .0262674
905.608 .0262539
906.262 .0262405
906.915 .0262267
907.568 .0262130
908.221 .0261999
908.873 .0261872
909.525 .0261748
910.176 .0261627
910.828 .0261510
911.478 .0261400
912.129 .0261297
912.778 .0261198
913.428 .0261102
914.077 .0261009
914.726 .0260915
915.375 .0260818
916.023 .0260721
916.670 .0260626
917.318 .0260528
917.964 .0260428
918.611 .0260328
919.257 .0260228
919.903 .0260129
920.548 .0260030
921.193 .0259933
921.838 .0259836
922.482 .0259734
923.126 .0259634
923.770 .0259539
924.413 .0259450
925.056 .0259369
925.698 .0259298
926.340 .0259234
926.982 .0259180
927.623 .0259132
928.264 .0259089
928.904 .0259047
929.544 .0259000
930.184 .0258943
930.823 .0258878
931.462 .0258809
932.101 .0258729
932.739 .0258647
933.377 .0258565
934.014 .0258475
934.651 .0258382
935.288 .0258288
935.924 .0258191
936.560 .0258093
937.196 .0257998
937.831 .0257898
938.466 .0257792
939.100 .0257685
939.734 .0257573
940.368 .0257464
941.001 .0257358
941.634 .0257254
942.266 .0257156
942.899 .0257063
943.530 .0256972
944.162 .0256878
944.793 .0256784
945.423 .0256685
946.053 .0256580
946.683 .0256467
947.313 .0256352
947.942 .0256235
948.571 .0256123
949.199 .0256018
949.827 .0255923
950.455 .0255836
951.082 .0255757
951.709 .0255684
952.335 .0255612
952.961 .0255538
953.587 .0255466
954.212 .0255390
954.837 .0255319
955.462 .0255252
956.086 .0255194
956.710 .0255149
957.334 .0255117
957.957 .0255092
958.579 .0255070
959.202 .0255049
959.824 .0255017
960.445 .0254972
961.067 .0254919
961.688 .0254860
962.308 .0254796
962.928 .0254736
963.548 .0254678
964.168 .0254626
964.787 .0254578
965.406 .0254532
966.024 .0254483
966.642 .0254428
967.260 .0254361
967.877 .0254290
968.494 .0254211
969.110 .0254137
969.727 .0254062
970.342 .0253999
970.958 .0253949
971.573 .0253910
972.188 .0253880
972.802 .0253858
973.416 .0253841
974.030 .0253827
974.643 .0253807
975.256 .0253791
975.869 .0253778
976.481 .0253775
977.093 .0253785
977.705 .0253809
978.316 .0253843
978.927 .0253890
979.538 .0253941
980.148 .0253993
980.758 .0254044
981.367 .0254094
981.977 .0254146
982.586 .0254197
983.194 .0254251
983.802 .0254308
984.410 .0254364
985.018 .0254421
985.625 .0254468
986.232 .0254503
986.838 .0254523
987.445 .0254526
988.050 .0254516
988.656 .0254501
989.261 .0254480
989.866 .0254450
990.471 .0254414
991.075 .0254377
991.679 .0254330
992.282 .0254277
992.886 .0254220
993.489 .0254163
994.091 .0254104
994.694 .0254051
995.296 .0253997
995.897 .0253947
996.499 .0253900
997.100 .0253848
997.701 .0253794
998.301 .0253737
998.901 .0253680
999.501 .0253625
1000.101 .0253582
1000.700 .0253554
1001.299 .0253539
1001.898 .0253539
1002.496 .0253548
1003.094 .0253561
1003.692 .0253573
1004.289 .0253580
1004.887 .0253587
1005.484 .0253596
1006.080 .0253607
1006.677 .0253616
1007.273 .0253627
1007.868 .0253645
1008.464 .0253671
1009.059 .0253699
1009.654 .0253730
1010.249 .0253764
1010.843 .0253798
1011.437 .0253833
1012.031 .0253864
1012.625 .0253890
1013.218 .0253912
1013.811 .0253930
1014.404 .0253938
1014.997 .0253942
1015.589 .0253950
1016.181 .0253964
1016.773 .0253984
1017.365 .0254017
1017.956 .0254047
1018.547 .0254072
1019.138 .0254085
1019.728 .0254077
1020.319 .0254046
1020.909 .0253994
1021.499 .0253916
1022.088 .0253818
1022.678 .0253709
1023.267 .0253596
1023.856 .0253471
1024.445 .0253348
1025.033 .0253221
1025.621 .0253088
1026.209 .0252952
1026.797 .0252815
1027.385 .0252669
1027.972 .0252535
1028.560 .0252410
1029.147 .0252290
1029.734 .0252185
1030.320 .0252091
1030.907 .0251999
1031.493 .0251910
1032.079 .0251820
1032.665 .0251722
1033.250 .0251614
1033.836 .0251508
1034.421 .0251393
1035.006 .0251277
1035.591 .0251167
1036.176 .0251062
1036.761 .0250965
1037.345 .0250881
1037.929 .0250798
1038.514 .0250714
1039.097 .0250643
1039.681 .0250574
1040.265 .0250519
1040.848 .0250478
1041.432 .0250447
1042.015 .0250431
1042.598 .0250422
1043.181 .0250419
1043.764 .0250412
1044.346 .0250405
1044.929 .0250387
1045.511 .0250348
1046.094 .0250289
1046.676 .0250210
1047.258 .0250105
1047.840 .0249976
1048.422 .0249816
1049.003 .0249633
1049.585 .0249416
1050.166 .0249167
1050.748 .0248902
1051.329 .0248637
1051.910 .0248364
1052.491 .0248105
1053.072 .0247859
1053.653 .0247641
1054.234 .0247439
1054.815 .0247250
1055.396 .0247067
1055.976 .0246896
1056.557 .0246715
1057.138 .0246536
1057.718 .0246356
1058.298 .0246194
1058.879 .0246041
1059.459 .0245907
1060.039 .0245784
1060.620 .0245658
1061.200 .0245528
1061.780 .0245396
1062.360 .0245253
1062.940 .0245112
1063.520 .0244952
1064.101 .0244806
1064.681 .0244674
1065.261 .0244551
1065.841 .0244431
1066.421 .0244335
1067.001 .0244252
1067.581 .0244174
1068.161 .0244099
1068.741 .0244030
1069.321 .0243974
1069.901 .0243934
1070.482 .0243895
1071.062 .0243855
1071.642 .0243804
1072.222 .0243733
1072.803 .0243629
1073.383 .0243514
1073.963 .0243362
1074.544 .0243194
1075.124 .0243034
1075.705 .0242871
1076.286 .0242726
1076.866 .0242600
1077.447 .0242493
1078.028 .0242404
1078.609 .0242320
1079.190 .0242233
1079.771 .0242139
1080.352 .0242058
1080.934 .0241971
1081.515 .0241890
1082.097 .0241831
1082.679 .0241774
1083.260 .0241724
1083.842 .0241684
1084.424 .0241640
1085.007 .0241596
1085.589 .0241545
1086.172 .0241471
1086.754 .0241387
1087.337 .0241297
1087.920 .0241189
1088.503 .0241084
1089.087 .0240982
1089.670 .0240876
1090.254 .0240767
1090.838 .0240664
1091.422 .0240547
1092.006 .0240410
1092.590 .0240252
1093.175 .0240053
1093.760 .0239825
1094.345 .0239586
1094.930 .0239323
1095.516 .0239072
1096.102 .0238842
1096.688 .0238634
1097.274 .0238447
1097.860 .0238290
1098.447 .0238142
1099.034 .0237982
1099.622 .0237811
1100.209 .0237618
1100.797 .0237402
1101.385 .0237202
1101.973 .0237036
1102.562 .0236927
1103.151 .0236893
1103.740 .0236925
1104.330 .0237024
1104.920 .0237171
1105.510 .0237349
1106.101 .0237532
1106.691 .0237690
1107.283 .0237839
1107.874 .0237964
1108.466 .0238063
1109.058 .0238168
1109.651 .0238292
1110.244 .0238438
1110.837 .0238606
1111.431 .0238775
1112.025 .0238938
1112.620 .0239093
1113.215 .0239249
1113.810 .0239372
1114.406 .0239471
1115.002 .0239560
1115.599 .0239636
1116.196 .0239692
1116.793 .0239742
1117.391 .0239763
1117.989 .0239770
1118.588 .0239772
1119.187 .0239757
1119.787 .0239728
1120.387 .0239721
1120.988 .0239723
1121.589 .0239763
1122.190 .0239815
1122.793 .0239895
1123.395 .0239996
1123.998 .0240149
1124.602 .0240319
1125.206 .0240509
1125.811 .0240750
1126.416 .0241053
1127.022 .0241401
1127.628 .0241785
1128.235 .0242182
1128.843 .0242595
1129.451 .0243029
1130.059 .0243468
1130.669 .0243898
1131.278 .0244375
1131.889 .0244864
1132.500 .0245384
1133.112 .0245900
1133.724 .0246406
1134.337 .0246936
1134.950 .0247430
1135.564 .0247890
1136.179 .0248295
1136.795 .0248675
1137.411 .0249084
1138.028 .0249514
1138.645 .0250047
1139.263 .0250631
1139.882 .0251281
1140.502 .0251991
1141.122 .0252763
1141.743 .0253607
1142.365 .0254491
1142.987 .0254232
1143.611 .0255463
1144.235 .0257801
1144.859 .0258994
1145.485 .0259423
