Measurement Sequence started on: 10-20-44-796
Integration time: 35
Scans to Average: 2 
>>>>>Begin Spectral Data<<<<<
432.953 .0453772
433.882 .0394392
434.810 .0405761
435.737 .0397919
436.662 .0401545
437.586 .0400195
438.509 .0397139
439.431 .0395880
440.351 .0394240
441.269 .0392967
442.187 .0391768
443.103 .0390869
444.018 .0390258
444.932 .0389737
445.844 .0389403
446.756 .0389052
447.666 .0388681
448.575 .0388218
449.482 .0387769
450.388 .0387404
451.294 .0386989
452.198 .0386675
453.100 .0386380
454.002 .0386121
454.902 .0385856
455.801 .0385586
456.699 .0385281
457.596 .0384961
458.492 .0384623
459.387 .0384223
460.280 .0383720
461.172 .0383105
462.064 .0382344
462.954 .0381454
463.843 .0380407
464.730 .0379352
465.617 .0378306
466.503 .0377336
467.387 .0376399
468.271 .0375565
469.153 .0374826
470.035 .0374138
470.915 .0373568
471.794 .0373033
472.673 .0372535
473.550 .0372153
474.426 .0371837
475.301 .0371601
476.175 .0371453
477.048 .0371371
477.920 .0371286
478.791 .0371209
479.661 .0371059
480.530 .0370830
481.398 .0370531
482.266 .0370270
483.132 .0370049
483.997 .0369872
484.861 .0369793
485.724 .0369769
486.587 .0369805
487.448 .0369847
488.308 .0369772
489.168 .0369595
490.026 .0369273
490.884 .0368853
491.741 .0368327
492.597 .0367770
493.452 .0367266
494.306 .0366816
495.159 .0366437
496.011 .0366146
496.862 .0365856
497.713 .0365506
498.562 .0365069
499.411 .0364491
500.259 .0363741
501.106 .0362853
501.952 .0361850
502.798 .0360793
503.642 .0359742
504.486 .0358740
505.329 .0357769
506.171 .0356885
507.012 .0356086
507.852 .0355270
508.692 .0354433
509.531 .0353521
510.369 .0352459
511.206 .0351268
512.043 .0349959
512.878 .0348526
513.713 .0347034
514.547 .0345552
515.381 .0344069
516.213 .0342644
517.045 .0341302
517.876 .0340004
518.706 .0338757
519.536 .0337581
520.365 .0336362
521.193 .0335089
522.020 .0333788
522.847 .0332473
523.673 .0331155
524.498 .0329919
525.323 .0328715
526.146 .0327606
526.969 .0326605
527.792 .0325600
528.614 .0324596
529.435 .0323698
530.255 .0322770
531.075 .0321829
531.894 .0320896
532.712 .0319990
533.530 .0319130
534.347 .0318372
535.163 .0317615
535.979 .0316900
536.794 .0316267
537.608 .0315645
538.422 .0315009
539.235 .0314420
540.048 .0313819
540.860 .0313194
541.671 .0312608
542.481 .0312003
543.292 .0311294
544.101 .0310643
544.910 .0309966
545.718 .0309270
546.526 .0308639
547.333 .0308073
548.139 .0307628
548.945 .0307337
549.750 .0307153
550.555 .0307069
551.359 .0307116
552.162 .0307261
552.965 .0307427
553.768 .0307639
554.569 .0307884
555.371 .0308086
556.171 .0308310
556.972 .0308579
557.771 .0308851
558.570 .0309221
559.369 .0309656
560.167 .0310137
560.964 .0310706
561.761 .0311315
562.558 .0312001
563.354 .0312748
564.149 .0313529
564.944 .0314333
565.738 .0315167
566.532 .0316025
567.325 .0316874
568.118 .0317729
568.910 .0318617
569.702 .0319525
570.494 .0320435
571.285 .0321354
572.075 .0322261
572.865 .0323141
573.654 .0323945
574.443 .0324637
575.232 .0325235
576.020 .0325707
576.807 .0326101
577.594 .0326416
578.381 .0326710
579.167 .0327019
579.952 .0327360
580.738 .0327749
581.522 .0328176
582.307 .0328600
583.091 .0329000
583.874 .0329361
584.657 .0329675
585.440 .0329926
586.222 .0330133
587.004 .0330301
587.785 .0330456
588.566 .0330600
589.346 .0330734
590.126 .0330857
590.906 .0330974
591.685 .0331066
592.464 .0331114
593.242 .0331117
594.020 .0331076
594.797 .0330996
595.575 .0330890
596.351 .0330778
597.128 .0330670
597.904 .0330578
598.679 .0330504
599.454 .0330445
600.229 .0330403
601.004 .0330358
601.778 .0330290
602.551 .0330202
603.325 .0330085
604.097 .0329941
604.870 .0329769
605.642 .0329590
606.414 .0329405
607.185 .0329214
607.956 .0329024
608.727 .0328840
609.497 .0328652
610.267 .0328455
611.037 .0328234
611.806 .0328001
612.575 .0327752
613.344 .0327483
614.112 .0327200
614.880 .0326919
615.647 .0326644
616.414 .0326375
617.181 .0326117
617.948 .0325869
618.714 .0325629
619.480 .0325406
620.245 .0325190
621.011 .0324988
621.775 .0324798
622.540 .0324617
623.304 .0324445
624.068 .0324282
624.832 .0324114
625.595 .0323940
626.358 .0323759
627.120 .0323572
627.883 .0323368
628.645 .0323156
629.406 .0322939
630.168 .0322722
630.929 .0322514
631.689 .0322303
632.450 .0322085
633.210 .0321867
633.970 .0321633
634.729 .0321379
635.489 .0321098
636.248 .0320797
637.006 .0320485
637.765 .0320162
638.523 .0319832
639.280 .0319507
640.038 .0319192
640.795 .0318895
641.552 .0318610
642.309 .0318335
643.065 .0318073
643.821 .0317817
644.577 .0317567
645.332 .0317318
646.088 .0317073
646.843 .0316828
647.597 .0316583
648.352 .0316349
649.106 .0316117
649.860 .0315888
650.613 .0315669
651.367 .0315460
652.120 .0315260
652.872 .0315064
653.625 .0314878
654.377 .0314700
655.129 .0314538
655.881 .0314384
656.632 .0314231
657.384 .0314082
658.135 .0313938
658.885 .0313786
659.636 .0313625
660.386 .0313462
661.136 .0313296
661.885 .0313136
662.635 .0312987
663.384 .0312849
664.133 .0312726
664.881 .0312618
665.630 .0312519
666.378 .0312415
667.126 .0312305
667.874 .0312171
668.621 .0312013
669.368 .0311838
670.115 .0311641
670.862 .0311431
671.608 .0311221
672.354 .0311027
673.100 .0310845
673.846 .0310685
674.591 .0310542
675.337 .0310411
676.082 .0310289
676.826 .0310164
677.571 .0310028
678.315 .0309886
679.059 .0309736
679.803 .0309581
680.547 .0309429
681.290 .0309286
682.033 .0309143
682.776 .0309012
683.518 .0308887
684.261 .0308763
685.003 .0308634
685.745 .0308500
686.487 .0308350
687.228 .0308191
687.969 .0308016
688.710 .0307823
689.451 .0307619
690.192 .0307409
690.932 .0307186
691.672 .0306959
692.412 .0306729
693.152 .0306496
693.891 .0306260
694.630 .0306025
695.369 .0305784
696.108 .0305535
696.846 .0305278
697.585 .0305009
698.323 .0304733
699.061 .0304448
699.798 .0304154
700.536 .0303862
701.273 .0303576
702.010 .0303298
702.746 .0303031
703.483 .0302779
704.219 .0302543
704.955 .0302321
705.691 .0302107
706.427 .0301895
707.162 .0301687
707.897 .0301478
708.632 .0301268
709.367 .0301058
710.101 .0300851
710.835 .0300642
711.569 .0300439
712.303 .0300240
713.037 .0300044
713.770 .0299858
714.503 .0299677
715.236 .0299499
715.969 .0299329
716.702 .0299159
717.434 .0298990
718.166 .0298818
718.898 .0298643
719.629 .0298458
720.361 .0298266
721.092 .0298067
721.823 .0297866
722.554 .0297667
723.284 .0297474
724.014 .0297278
724.744 .0297083
725.474 .0296879
726.204 .0296668
726.933 .0296445
727.662 .0296203
728.391 .0295945
729.120 .0295681
729.849 .0295412
730.577 .0295151
731.305 .0294904
732.033 .0294679
732.760 .0294477
733.488 .0294300
734.215 .0294139
734.942 .0293995
735.669 .0293857
736.395 .0293726
737.122 .0293593
737.848 .0293455
738.573 .0293314
739.299 .0293169
740.024 .0293028
740.750 .0292889
741.474 .0292748
742.199 .0292607
742.924 .0292467
743.648 .0292327
744.372 .0292183
745.096 .0292034
745.819 .0291883
746.543 .0291724
747.266 .0291555
747.989 .0291381
748.711 .0291208
749.434 .0291039
750.156 .0290883
750.878 .0290737
751.599 .0290612
752.321 .0290501
753.042 .0290407
753.763 .0290327
754.484 .0290256
755.205 .0290188
755.925 .0290118
756.645 .0290045
757.365 .0289972
758.085 .0289892
758.804 .0289810
759.523 .0289720
760.242 .0289626
760.961 .0289523
761.679 .0289412
762.397 .0289287
763.115 .0289157
763.833 .0289015
764.551 .0288861
765.268 .0288692
765.985 .0288509
766.702 .0288315
767.418 .0288114
768.134 .0287907
768.850 .0287703
769.566 .0287499
770.282 .0287308
770.997 .0287126
771.712 .0286959
772.427 .0286802
773.142 .0286654
773.856 .0286510
774.570 .0286368
775.284 .0286220
775.998 .0286071
776.711 .0285926
777.424 .0285788
778.137 .0285657
778.849 .0285532
779.562 .0285411
780.274 .0285293
780.986 .0285173
781.697 .0285050
782.409 .0284919
783.120 .0284785
783.831 .0284653
784.541 .0284532
785.252 .0284428
785.962 .0284339
786.671 .0284267
787.381 .0284206
788.090 .0284145
788.799 .0284076
789.508 .0283992
790.217 .0283896
790.925 .0283787
791.633 .0283670
792.341 .0283549
793.048 .0283425
793.755 .0283307
794.462 .0283187
795.169 .0283068
795.875 .0282944
796.581 .0282812
797.287 .0282677
797.993 .0282539
798.698 .0282408
799.403 .0282281
800.108 .0282164
800.812 .0282063
801.517 .0281972
802.221 .0281892
802.924 .0281818
803.628 .0281750
804.331 .0281690
805.034 .0281639
805.736 .0281595
806.439 .0281559
807.141 .0281531
807.843 .0281504
808.544 .0281470
809.245 .0281418
809.946 .0281350
810.647 .0281260
811.347 .0281156
812.047 .0281045
812.747 .0280931
813.447 .0280819
814.146 .0280715
814.845 .0280621
815.543 .0280536
816.242 .0280450
816.940 .0280364
817.638 .0280270
818.335 .0280172
819.032 .0280065
819.729 .0279952
820.426 .0279840
821.122 .0279733
821.818 .0279621
822.514 .0279505
823.209 .0279387
823.905 .0279264
824.599 .0279136
825.294 .0279003
825.988 .0278865
826.682 .0278719
827.376 .0278564
828.069 .0278403
828.762 .0278230
829.455 .0278053
830.147 .0277869
830.840 .0277680
831.531 .0277495
832.223 .0277316
832.914 .0277144
833.605 .0276987
834.296 .0276850
834.986 .0276722
835.676 .0276602
836.366 .0276485
837.055 .0276369
837.744 .0276250
838.433 .0276128
839.121 .0276004
839.809 .0275880
840.497 .0275767
841.185 .0275655
841.872 .0275552
842.559 .0275457
843.245 .0275369
843.932 .0275285
844.617 .0275198
845.303 .0275110
845.988 .0275019
846.673 .0274924
847.358 .0274823
848.042 .0274725
848.726 .0274630
849.410 .0274534
850.093 .0274439
850.776 .0274347
851.459 .0274255
852.141 .0274155
852.823 .0274047
853.505 .0273933
854.186 .0273810
854.867 .0273684
855.548 .0273550
856.228 .0273421
856.908 .0273294
857.588 .0273170
858.267 .0273046
858.946 .0272931
859.625 .0272819
860.303 .0272709
860.981 .0272608
861.659 .0272515
862.336 .0272429
863.013 .0272345
863.690 .0272268
864.366 .0272193
865.042 .0272114
865.718 .0272031
866.393 .0271937
867.068 .0271838
867.743 .0271731
868.417 .0271618
869.091 .0271504
869.765 .0271392
870.438 .0271278
871.111 .0271162
871.783 .0271048
872.456 .0270929
873.127 .0270801
873.799 .0270667
874.470 .0270524
875.141 .0270368
875.811 .0270206
876.481 .0270041
877.151 .0269878
877.820 .0269721
878.489 .0269571
879.158 .0269428
879.826 .0269297
880.494 .0269170
881.162 .0269044
881.829 .0268919
882.496 .0268794
883.163 .0268658
883.829 .0268518
884.495 .0268379
885.160 .0268243
885.825 .0268118
886.490 .0268009
887.154 .0267921
887.818 .0267854
888.482 .0267801
889.145 .0267756
889.808 .0267715
890.471 .0267674
891.133 .0267623
891.795 .0267566
892.456 .0267508
893.117 .0267451
893.778 .0267398
894.439 .0267354
895.099 .0267318
895.758 .0267285
896.417 .0267254
897.076 .0267221
897.735 .0267184
898.393 .0267143
899.051 .0267100
899.708 .0267056
900.365 .0267014
901.022 .0266973
901.678 .0266933
902.334 .0266897
902.990 .0266865
903.645 .0266829
904.300 .0266784
904.954 .0266729
905.608 .0266660
906.262 .0266579
906.915 .0266487
907.568 .0266381
908.221 .0266267
908.873 .0266146
909.525 .0266019
910.176 .0265883
910.828 .0265745
911.478 .0265608
912.129 .0265468
912.778 .0265328
913.428 .0265182
914.077 .0265033
914.726 .0264891
915.375 .0264751
916.023 .0264618
916.670 .0264496
917.318 .0264383
917.964 .0264279
918.611 .0264186
919.257 .0264100
919.903 .0264022
920.548 .0263949
921.193 .0263881
921.838 .0263814
922.482 .0263751
923.126 .0263690
923.770 .0263632
924.413 .0263577
925.056 .0263520
925.698 .0263455
926.340 .0263383
926.982 .0263300
927.623 .0263208
928.264 .0263107
928.904 .0263003
929.544 .0262895
930.184 .0262788
930.823 .0262678
931.462 .0262568
932.101 .0262453
932.739 .0262332
933.377 .0262198
934.014 .0262053
934.651 .0261898
935.288 .0261728
935.924 .0261548
936.560 .0261367
937.196 .0261187
937.831 .0261015
938.466 .0260843
939.100 .0260683
939.734 .0260531
940.368 .0260393
941.001 .0260258
941.634 .0260127
942.266 .0259997
942.899 .0259860
943.530 .0259709
944.162 .0259542
944.793 .0259358
945.423 .0259162
946.053 .0258958
946.683 .0258752
947.313 .0258548
947.942 .0258349
948.571 .0258155
949.199 .0257969
949.827 .0257780
950.455 .0257588
951.082 .0257391
951.709 .0257188
952.335 .0256981
952.961 .0256777
953.587 .0256583
954.212 .0256404
954.837 .0256244
955.462 .0256100
956.086 .0255971
956.710 .0255858
957.334 .0255755
957.957 .0255658
958.579 .0255568
959.202 .0255485
959.824 .0255403
960.445 .0255322
961.067 .0255238
961.688 .0255146
962.308 .0255045
962.928 .0254934
963.548 .0254807
964.168 .0254665
964.787 .0254514
965.406 .0254360
966.024 .0254205
966.642 .0254054
967.260 .0253905
967.877 .0253756
968.494 .0253601
969.110 .0253439
969.727 .0253265
970.342 .0253088
970.958 .0252911
971.573 .0252738
972.188 .0252575
972.802 .0252432
973.416 .0252312
974.030 .0252211
974.643 .0252135
975.256 .0252078
975.869 .0252031
976.481 .0251997
977.093 .0251969
977.705 .0251948
978.316 .0251938
978.927 .0251935
979.538 .0251932
980.148 .0251927
980.758 .0251917
981.367 .0251897
981.977 .0251864
982.586 .0251822
983.194 .0251771
983.802 .0251722
984.410 .0251670
985.018 .0251616
985.625 .0251559
986.232 .0251502
986.838 .0251438
987.445 .0251363
988.050 .0251276
988.656 .0251184
989.261 .0251084
989.866 .0250979
990.471 .0250875
991.075 .0250775
991.679 .0250681
992.282 .0250594
992.886 .0250505
993.489 .0250417
994.091 .0250325
994.694 .0250233
995.296 .0250141
995.897 .0250052
996.499 .0249970
997.100 .0249897
997.701 .0249839
998.301 .0249794
998.901 .0249761
999.501 .0249743
1000.101 .0249744
1000.700 .0249762
1001.299 .0249786
1001.898 .0249821
1002.496 .0249872
1003.094 .0249934
1003.692 .0249998
1004.289 .0250064
1004.887 .0250134
1005.484 .0250200
1006.080 .0250264
1006.677 .0250314
1007.273 .0250353
1007.868 .0250388
1008.464 .0250411
1009.059 .0250418
1009.654 .0250412
1010.249 .0250396
1010.843 .0250366
1011.437 .0250332
1012.031 .0250287
1012.625 .0250232
1013.218 .0250171
1013.811 .0250111
1014.404 .0250044
1014.997 .0249972
1015.589 .0249905
1016.181 .0249839
1016.773 .0249783
1017.365 .0249729
1017.956 .0249669
1018.547 .0249612
1019.138 .0249553
1019.728 .0249496
1020.319 .0249432
1020.909 .0249370
1021.499 .0249317
1022.088 .0249277
1022.678 .0249242
1023.267 .0249222
1023.856 .0249212
1024.445 .0249209
1025.033 .0249202
1025.621 .0249187
1026.209 .0249164
1026.797 .0249130
1027.385 .0249093
1027.972 .0249061
1028.560 .0249039
1029.147 .0249040
1029.734 .0249058
1030.320 .0249098
1030.907 .0249151
1031.493 .0249211
1032.079 .0249269
1032.665 .0249325
1033.250 .0249369
1033.836 .0249400
1034.421 .0249422
1035.006 .0249440
1035.591 .0249452
1036.176 .0249451
1036.761 .0249445
1037.345 .0249436
1037.929 .0249417
1038.514 .0249390
1039.097 .0249355
1039.681 .0249330
1040.265 .0249317
1040.848 .0249313
1041.432 .0249323
1042.015 .0249345
1042.598 .0249373
1043.181 .0249403
1043.764 .0249427
1044.346 .0249452
1044.929 .0249475
1045.511 .0249501
1046.094 .0249538
1046.676 .0249585
1047.258 .0249643
1047.840 .0249720
1048.422 .0249812
1049.003 .0249904
1049.585 .0249981
1050.166 .0250041
1050.748 .0250078
1051.329 .0250089
1051.910 .0250084
1052.491 .0250059
1053.072 .0250025
1053.653 .0249990
1054.234 .0249940
1054.815 .0249888
1055.396 .0249838
1055.976 .0249782
1056.557 .0249717
1057.138 .0249648
1057.718 .0249568
1058.298 .0249474
1058.879 .0249379
1059.459 .0249276
1060.039 .0249162
1060.620 .0249038
1061.200 .0248892
1061.780 .0248713
1062.360 .0248508
1062.940 .0248287
1063.520 .0248043
1064.101 .0247804
1064.681 .0247568
1065.261 .0247344
1065.841 .0247143
1066.421 .0246969
1067.001 .0246816
1067.581 .0246682
1068.161 .0246558
1068.741 .0246444
1069.321 .0246330
1069.901 .0246226
1070.482 .0246127
1071.062 .0246055
1071.642 .0246020
1072.222 .0246032
1072.803 .0246085
1073.383 .0246177
1073.963 .0246301
1074.544 .0246455
1075.124 .0246602
1075.705 .0246733
1076.286 .0246843
1076.866 .0246933
1077.447 .0246999
1078.028 .0247053
1078.609 .0247097
1079.190 .0247145
1079.771 .0247207
1080.352 .0247274
1080.934 .0247330
1081.515 .0247380
1082.097 .0247408
1082.679 .0247405
1083.260 .0247385
1083.842 .0247356
1084.424 .0247313
1085.007 .0247283
1085.589 .0247279
1086.172 .0247290
1086.754 .0247327
1087.337 .0247381
1087.920 .0247445
1088.503 .0247508
1089.087 .0247560
1089.670 .0247574
1090.254 .0247569
1090.838 .0247537
1091.422 .0247484
1092.006 .0247404
1092.590 .0247306
1093.175 .0247183
1093.760 .0247044
1094.345 .0246885
1094.930 .0246699
1095.516 .0246486
1096.102 .0246276
1096.688 .0246048
1097.274 .0245849
1097.860 .0245674
1098.447 .0245545
1099.034 .0245464
1099.622 .0245432
1100.209 .0245438
1100.797 .0245476
1101.385 .0245510
1101.973 .0245553
1102.562 .0245590
1103.151 .0245626
1103.740 .0245652
1104.330 .0245685
1104.920 .0245738
1105.510 .0245825
1106.101 .0245935
1106.691 .0246064
1107.283 .0246193
1107.874 .0246330
1108.466 .0246433
1109.058 .0246518
1109.651 .0246586
1110.244 .0246618
1110.837 .0246632
1111.431 .0246646
1112.025 .0246660
1112.620 .0246699
1113.215 .0246791
1113.810 .0246950
1114.406 .0247163
1115.002 .0247408
1115.599 .0247639
1116.196 .0247842
1116.793 .0247987
1117.391 .0248023
1117.989 .0247927
1118.588 .0247717
1119.187 .0247409
1119.787 .0247029
1120.387 .0246633
1120.988 .0246268
1121.589 .0246001
1122.190 .0245846
1122.793 .0245800
1123.395 .0245869
1123.998 .0246010
1124.602 .0246203
1125.206 .0246449
1125.811 .0246716
1126.416 .0247024
1127.022 .0247375
1127.628 .0247799
1128.235 .0248269
1128.843 .0248832
1129.451 .0249460
1130.059 .0250116
1130.669 .0250784
1131.278 .0251454
1131.889 .0252058
1132.500 .0252596
1133.112 .0253044
1133.724 .0253401
1134.337 .0253674
1134.950 .0253855
1135.564 .0253943
1136.179 .0254019
1136.795 .0254088
1137.411 .0254227
1138.028 .0254422
1138.645 .0254739
1139.263 .0255172
1139.882 .0255687
1140.502 .0256326
1141.122 .0257016
1141.743 .0258031
1142.365 .0259299
1142.987 .0258678
1143.611 .0260957
1144.235 .0261122
1144.859 .0269040
1145.485 .0271116
