Measurement Sequence started on: 10-20-44-796
Integration time: 35
Scans to Average: 2 
>>>>>Begin Spectral Data<<<<<
432.953 .0544497
433.882 .0391485
434.810 .0379792
435.737 .0396224
436.662 .0387226
437.586 .0403444
438.509 .0400332
439.431 .0402410
440.351 .0404363
441.269 .0405308
442.187 .0406079
443.103 .0406133
444.018 .0405792
444.932 .0405342
445.844 .0404734
446.756 .0403995
447.666 .0403117
448.575 .0402151
449.482 .0401268
450.388 .0400394
451.294 .0399585
452.198 .0398775
453.100 .0398052
454.002 .0397409
454.902 .0396895
455.801 .0396478
456.699 .0396203
457.596 .0396036
458.492 .0395932
459.387 .0395844
460.280 .0395735
461.172 .0395599
462.064 .0395342
462.954 .0394964
463.843 .0394493
464.730 .0393913
465.617 .0393276
466.503 .0392636
467.387 .0391951
468.271 .0391203
469.153 .0390483
470.035 .0389695
470.915 .0388859
471.794 .0387988
472.673 .0387090
473.550 .0386224
474.426 .0385427
475.301 .0384699
476.175 .0384043
477.048 .0383499
477.920 .0383018
478.791 .0382534
479.661 .0382092
480.530 .0381648
481.398 .0381158
482.266 .0380685
483.132 .0380223
483.997 .0379738
484.861 .0379302
485.724 .0378908
486.587 .0378539
487.448 .0378210
488.308 .0377878
489.168 .0377510
490.026 .0377140
490.884 .0376733
491.741 .0376237
492.597 .0375695
493.452 .0375141
494.306 .0374537
495.159 .0373905
496.011 .0373301
496.862 .0372695
497.713 .0372104
498.562 .0371497
499.411 .0370819
500.259 .0370075
501.106 .0369265
501.952 .0368362
502.798 .0367385
503.642 .0366398
504.486 .0365364
505.329 .0364331
506.171 .0363359
507.012 .0362436
507.852 .0361597
508.692 .0360804
509.531 .0360026
510.369 .0359223
511.206 .0358398
512.043 .0357551
512.878 .0356653
513.713 .0355765
514.547 .0354878
515.381 .0354003
516.213 .0353141
517.045 .0352301
517.876 .0351417
518.706 .0350526
519.536 .0349539
520.365 .0348422
521.193 .0347171
522.020 .0345768
522.847 .0344312
523.673 .0342821
524.498 .0341351
525.323 .0339907
526.146 .0338449
526.969 .0337108
527.792 .0335760
528.614 .0334410
529.435 .0333034
530.255 .0331572
531.075 .0329952
531.894 .0328221
532.712 .0326379
533.530 .0324455
534.347 .0322605
535.163 .0320852
535.979 .0319219
536.794 .0317796
537.608 .0316645
538.422 .0315675
539.235 .0314871
540.048 .0314188
540.860 .0313458
541.671 .0312772
542.481 .0312165
543.292 .0311542
544.101 .0311015
544.910 .0310665
545.718 .0310487
546.526 .0310506
547.333 .0310802
548.139 .0311238
548.945 .0311826
549.750 .0312481
550.555 .0313151
551.359 .0313795
552.162 .0314482
552.965 .0315170
553.768 .0315866
554.569 .0316636
555.371 .0317487
556.171 .0318395
556.972 .0319438
557.771 .0320527
558.570 .0321603
559.369 .0322656
560.167 .0323674
560.964 .0324641
561.761 .0325578
562.558 .0326442
563.354 .0327276
564.149 .0328016
564.944 .0328656
565.738 .0329189
566.532 .0329617
567.325 .0329979
568.118 .0330258
568.910 .0330499
569.702 .0330742
570.494 .0331008
571.285 .0331310
572.075 .0331644
572.865 .0332008
573.654 .0332373
574.443 .0332677
575.232 .0332929
576.020 .0333152
576.807 .0333354
577.594 .0333541
578.381 .0333747
579.167 .0333986
579.952 .0334280
580.738 .0334595
581.522 .0334938
582.307 .0335284
583.091 .0335616
583.874 .0335913
584.657 .0336170
585.440 .0336408
586.222 .0336649
587.004 .0336895
587.785 .0337161
588.566 .0337447
589.346 .0337729
590.126 .0337966
590.906 .0338155
591.685 .0338294
592.464 .0338353
593.242 .0338363
594.020 .0338341
594.797 .0338314
595.575 .0338288
596.351 .0338277
597.128 .0338270
597.904 .0338271
598.679 .0338269
599.454 .0338229
600.229 .0338158
601.004 .0338071
601.778 .0337949
602.551 .0337816
603.325 .0337674
604.097 .0337535
604.870 .0337386
605.642 .0337249
606.414 .0337102
607.185 .0336944
607.956 .0336786
608.727 .0336628
609.497 .0336460
610.267 .0336302
611.037 .0336147
611.806 .0335997
612.575 .0335850
613.344 .0335701
614.112 .0335531
614.880 .0335358
615.647 .0335164
616.414 .0334958
617.181 .0334742
617.948 .0334531
618.714 .0334311
619.480 .0334097
620.245 .0333879
621.011 .0333651
621.775 .0333409
622.540 .0333162
623.304 .0332899
624.068 .0332633
624.832 .0332357
625.595 .0332085
626.358 .0331816
627.120 .0331562
627.883 .0331303
628.645 .0331052
629.406 .0330809
630.168 .0330566
630.929 .0330319
631.689 .0330079
632.450 .0329835
633.210 .0329597
633.970 .0329363
634.729 .0329134
635.489 .0328908
636.248 .0328689
637.006 .0328468
637.765 .0328246
638.523 .0328022
639.280 .0327793
640.038 .0327549
640.795 .0327309
641.552 .0327065
642.309 .0326823
643.065 .0326598
643.821 .0326394
644.577 .0326211
645.332 .0326049
646.088 .0325898
646.843 .0325748
647.597 .0325596
648.352 .0325433
649.106 .0325256
649.860 .0325066
650.613 .0324860
651.367 .0324653
652.120 .0324450
652.872 .0324256
653.625 .0324066
654.377 .0323888
655.129 .0323717
655.881 .0323540
656.632 .0323356
657.384 .0323169
658.135 .0322984
658.885 .0322802
659.636 .0322621
660.386 .0322446
661.136 .0322278
661.885 .0322119
662.635 .0321963
663.384 .0321811
664.133 .0321654
664.881 .0321490
665.630 .0321314
666.378 .0321133
667.126 .0320939
667.874 .0320734
668.621 .0320519
669.368 .0320292
670.115 .0320051
670.862 .0319796
671.608 .0319533
672.354 .0319275
673.100 .0319021
673.846 .0318770
674.591 .0318525
675.337 .0318295
676.082 .0318079
676.826 .0317876
677.571 .0317684
678.315 .0317507
679.059 .0317339
679.803 .0317183
680.547 .0317035
681.290 .0316890
682.033 .0316747
682.776 .0316600
683.518 .0316442
684.261 .0316268
685.003 .0316079
685.745 .0315870
686.487 .0315649
687.228 .0315421
687.969 .0315179
688.710 .0314923
689.451 .0314661
690.192 .0314395
690.932 .0314117
691.672 .0313831
692.412 .0313540
693.152 .0313246
693.891 .0312960
694.630 .0312679
695.369 .0312411
696.108 .0312160
696.846 .0311924
697.585 .0311696
698.323 .0311476
699.061 .0311261
699.798 .0311044
700.536 .0310830
701.273 .0310618
702.010 .0310404
702.746 .0310184
703.483 .0309963
704.219 .0309744
704.955 .0309523
705.691 .0309298
706.427 .0309062
707.162 .0308823
707.897 .0308578
708.632 .0308326
709.367 .0308069
710.101 .0307815
710.835 .0307565
711.569 .0307318
712.303 .0307077
713.037 .0306846
713.770 .0306625
714.503 .0306415
715.236 .0306218
715.969 .0306028
716.702 .0305843
717.434 .0305663
718.166 .0305487
718.898 .0305311
719.629 .0305131
720.361 .0304950
721.092 .0304767
721.823 .0304587
722.554 .0304404
723.284 .0304222
724.014 .0304040
724.744 .0303856
725.474 .0303662
726.204 .0303460
726.933 .0303247
727.662 .0303020
728.391 .0302781
729.120 .0302537
729.849 .0302292
730.577 .0302060
731.305 .0301837
732.033 .0301636
732.760 .0301447
733.488 .0301273
734.215 .0301103
734.942 .0300938
735.669 .0300768
736.395 .0300592
737.122 .0300413
737.848 .0300233
738.573 .0300049
739.299 .0299872
740.024 .0299703
740.750 .0299544
741.474 .0299391
742.199 .0299240
742.924 .0299090
743.648 .0298942
744.372 .0298793
745.096 .0298649
745.819 .0298508
746.543 .0298376
747.266 .0298257
747.989 .0298144
748.711 .0298046
749.434 .0297953
750.156 .0297866
750.878 .0297787
751.599 .0297715
752.321 .0297649
753.042 .0297596
753.763 .0297555
754.484 .0297528
755.205 .0297509
755.925 .0297500
756.645 .0297494
757.365 .0297483
758.085 .0297463
758.804 .0297428
759.523 .0297367
760.242 .0297286
760.961 .0297177
761.679 .0297048
762.397 .0296897
763.115 .0296728
763.833 .0296541
764.551 .0296342
765.268 .0296134
765.985 .0295922
766.702 .0295708
767.418 .0295500
768.134 .0295290
768.850 .0295080
769.566 .0294872
770.282 .0294667
770.997 .0294466
771.712 .0294273
772.427 .0294088
773.142 .0293911
773.856 .0293743
774.570 .0293585
775.284 .0293436
775.998 .0293297
776.711 .0293162
777.424 .0293029
778.137 .0292894
778.849 .0292752
779.562 .0292603
780.274 .0292449
780.986 .0292289
781.697 .0292127
782.409 .0291965
783.120 .0291808
783.831 .0291660
784.541 .0291530
785.252 .0291417
785.962 .0291320
786.671 .0291232
787.381 .0291151
788.090 .0291068
788.799 .0290981
789.508 .0290883
790.217 .0290776
790.925 .0290660
791.633 .0290533
792.341 .0290398
793.048 .0290257
793.755 .0290109
794.462 .0289959
795.169 .0289801
795.875 .0289642
796.581 .0289479
797.287 .0289318
797.993 .0289160
798.698 .0289011
799.403 .0288868
800.108 .0288733
800.812 .0288605
801.517 .0288485
802.221 .0288369
802.924 .0288257
803.628 .0288149
804.331 .0288048
805.034 .0287950
805.736 .0287849
806.439 .0287740
807.141 .0287625
807.843 .0287497
808.544 .0287349
809.245 .0287180
809.946 .0286994
810.647 .0286796
811.347 .0286593
812.047 .0286390
812.747 .0286189
813.447 .0285994
814.146 .0285802
814.845 .0285612
815.543 .0285421
816.242 .0285232
816.940 .0285047
817.638 .0284866
818.335 .0284696
819.032 .0284531
819.729 .0284376
820.426 .0284229
821.122 .0284086
821.818 .0283938
822.514 .0283784
823.209 .0283626
823.905 .0283464
824.599 .0283300
825.294 .0283137
825.988 .0282977
826.682 .0282825
827.376 .0282673
828.069 .0282521
828.762 .0282365
829.455 .0282208
830.147 .0282044
830.840 .0281881
831.531 .0281721
832.223 .0281570
832.914 .0281432
833.605 .0281305
834.296 .0281190
834.986 .0281081
835.676 .0280971
836.366 .0280859
837.055 .0280736
837.744 .0280603
838.433 .0280453
839.121 .0280297
839.809 .0280134
840.497 .0279971
841.185 .0279806
841.872 .0279645
842.559 .0279492
843.245 .0279342
843.932 .0279193
844.617 .0279041
845.303 .0278887
845.988 .0278727
846.673 .0278561
847.358 .0278394
848.042 .0278228
848.726 .0278071
849.410 .0277921
850.093 .0277780
850.776 .0277651
851.459 .0277524
852.141 .0277398
852.823 .0277268
853.505 .0277134
854.186 .0276987
854.867 .0276833
855.548 .0276678
856.228 .0276529
856.908 .0276390
857.588 .0276262
858.267 .0276148
858.946 .0276047
859.625 .0275957
860.303 .0275870
860.981 .0275787
861.659 .0275705
862.336 .0275620
863.013 .0275536
863.690 .0275450
864.366 .0275366
865.042 .0275279
865.718 .0275193
866.393 .0275102
867.068 .0274999
867.743 .0274886
868.417 .0274760
869.091 .0274626
869.765 .0274482
870.438 .0274328
871.111 .0274167
871.783 .0274008
872.456 .0273846
873.127 .0273682
873.799 .0273516
874.470 .0273348
875.141 .0273176
875.811 .0273005
876.481 .0272837
877.151 .0272679
877.820 .0272534
878.489 .0272408
879.158 .0272302
879.826 .0272224
880.494 .0272163
881.162 .0272119
881.829 .0272088
882.496 .0272055
883.163 .0272013
883.829 .0271957
884.495 .0271890
885.160 .0271812
885.825 .0271731
886.490 .0271652
887.154 .0271582
887.818 .0271524
888.482 .0271472
889.145 .0271425
889.808 .0271383
890.471 .0271334
891.133 .0271272
891.795 .0271200
892.456 .0271119
893.117 .0271034
893.778 .0270955
894.439 .0270885
895.099 .0270832
895.758 .0270794
896.417 .0270768
897.076 .0270750
897.735 .0270738
898.393 .0270725
899.051 .0270711
899.708 .0270694
900.365 .0270666
901.022 .0270632
901.678 .0270595
902.334 .0270549
902.990 .0270498
903.645 .0270442
904.300 .0270378
904.954 .0270309
905.608 .0270234
906.262 .0270150
906.915 .0270062
907.568 .0269974
908.221 .0269875
908.873 .0269775
909.525 .0269675
910.176 .0269576
910.828 .0269482
911.478 .0269398
912.129 .0269318
912.778 .0269237
913.428 .0269158
914.077 .0269075
914.726 .0268985
915.375 .0268892
916.023 .0268792
916.670 .0268694
917.318 .0268597
917.964 .0268508
918.611 .0268423
919.257 .0268351
919.903 .0268284
920.548 .0268214
921.193 .0268144
921.838 .0268070
922.482 .0267991
923.126 .0267910
923.770 .0267832
924.413 .0267755
925.056 .0267677
925.698 .0267603
926.340 .0267528
926.982 .0267457
927.623 .0267382
928.264 .0267307
928.904 .0267225
929.544 .0267140
930.184 .0267047
930.823 .0266947
931.462 .0266842
932.101 .0266732
932.739 .0266613
933.377 .0266484
934.014 .0266347
934.651 .0266207
935.288 .0266060
935.924 .0265921
936.560 .0265789
937.196 .0265667
937.831 .0265551
938.466 .0265445
939.100 .0265342
939.734 .0265241
940.368 .0265135
941.001 .0265026
941.634 .0264910
942.266 .0264791
942.899 .0264660
943.530 .0264525
944.162 .0264385
944.793 .0264238
945.423 .0264075
946.053 .0263900
946.683 .0263709
947.313 .0263503
947.942 .0263282
948.571 .0263056
949.199 .0262824
949.827 .0262598
950.455 .0262375
951.082 .0262163
951.709 .0261961
952.335 .0261769
952.961 .0261584
953.587 .0261411
954.212 .0261245
954.837 .0261088
955.462 .0260943
956.086 .0260813
956.710 .0260703
957.334 .0260609
957.957 .0260531
958.579 .0260468
959.202 .0260409
959.824 .0260347
960.445 .0260277
961.067 .0260200
961.688 .0260113
962.308 .0260016
962.928 .0259914
963.548 .0259804
964.168 .0259692
964.787 .0259575
965.406 .0259455
966.024 .0259335
966.642 .0259210
967.260 .0259079
967.877 .0258942
968.494 .0258793
969.110 .0258632
969.727 .0258456
970.342 .0258265
970.958 .0258068
971.573 .0257872
972.188 .0257678
972.802 .0257498
973.416 .0257342
974.030 .0257206
974.643 .0257088
975.256 .0256987
975.869 .0256896
976.481 .0256805
977.093 .0256718
977.705 .0256628
978.316 .0256541
978.927 .0256465
979.538 .0256400
980.148 .0256341
980.758 .0256302
981.367 .0256270
981.977 .0256241
982.586 .0256217
983.194 .0256193
983.802 .0256159
984.410 .0256115
985.018 .0256064
985.625 .0256005
986.232 .0255942
986.838 .0255880
987.445 .0255812
988.050 .0255744
988.656 .0255674
989.261 .0255595
989.866 .0255507
990.471 .0255425
991.075 .0255341
991.679 .0255254
992.282 .0255175
992.886 .0255103
993.489 .0255042
994.091 .0254987
994.694 .0254943
995.296 .0254896
995.897 .0254852
996.499 .0254800
997.100 .0254736
997.701 .0254671
998.301 .0254604
998.901 .0254539
999.501 .0254484
1000.101 .0254437
1000.700 .0254400
1001.299 .0254372
1001.898 .0254355
1002.496 .0254343
1003.094 .0254326
1003.692 .0254298
1004.289 .0254261
1004.887 .0254214
1005.484 .0254159
1006.080 .0254096
1006.677 .0254038
1007.273 .0253985
1007.868 .0253930
1008.464 .0253885
1009.059 .0253833
1009.654 .0253788
1010.249 .0253741
1010.843 .0253688
1011.437 .0253628
1012.031 .0253560
1012.625 .0253483
1013.218 .0253401
1013.811 .0253317
1014.404 .0253240
1014.997 .0253165
1015.589 .0253107
1016.181 .0253065
1016.773 .0253041
1017.365 .0253037
1017.956 .0253054
1018.547 .0253083
1019.138 .0253125
1019.728 .0253166
1020.319 .0253206
1020.909 .0253242
1021.499 .0253265
1022.088 .0253276
1022.678 .0253268
1023.267 .0253247
1023.856 .0253219
1024.445 .0253181
1025.033 .0253145
1025.621 .0253110
1026.209 .0253080
1026.797 .0253044
1027.385 .0253003
1027.972 .0252961
1028.560 .0252910
1029.147 .0252853
1029.734 .0252796
1030.320 .0252736
1030.907 .0252685
1031.493 .0252645
1032.079 .0252620
1032.665 .0252608
1033.250 .0252609
1033.836 .0252611
1034.421 .0252609
1035.006 .0252603
1035.591 .0252591
1036.176 .0252564
1036.761 .0252538
1037.345 .0252505
1037.929 .0252474
1038.514 .0252449
1039.097 .0252436
1039.681 .0252437
1040.265 .0252453
1040.848 .0252469
1041.432 .0252491
1042.015 .0252500
1042.598 .0252501
1043.181 .0252483
1043.764 .0252459
1044.346 .0252420
1044.929 .0252370
1045.511 .0252314
1046.094 .0252263
1046.676 .0252220
1047.258 .0252190
1047.840 .0252155
1048.422 .0252132
1049.003 .0252106
1049.585 .0252067
1050.166 .0252018
1050.748 .0251969
1051.329 .0251912
1051.910 .0251861
1052.491 .0251816
1053.072 .0251791
1053.653 .0251788
1054.234 .0251811
1054.815 .0251838
1055.396 .0251863
1055.976 .0251881
1056.557 .0251867
1057.138 .0251826
1057.718 .0251762
1058.298 .0251668
1058.879 .0251556
1059.459 .0251432
1060.039 .0251309
1060.620 .0251183
1061.200 .0251058
1061.780 .0250930
1062.360 .0250786
1062.940 .0250626
1063.520 .0250446
1064.101 .0250256
1064.681 .0250082
1065.261 .0249922
1065.841 .0249784
1066.421 .0249671
1067.001 .0249587
1067.581 .0249531
1068.161 .0249491
1068.741 .0249467
1069.321 .0249457
1069.901 .0249458
1070.482 .0249473
1071.062 .0249494
1071.642 .0249548
1072.222 .0249618
1072.803 .0249701
1073.383 .0249795
1073.963 .0249888
1074.544 .0249969
1075.124 .0250049
1075.705 .0250109
1076.286 .0250169
1076.866 .0250230
1077.447 .0250286
1078.028 .0250334
1078.609 .0250399
1079.190 .0250460
1079.771 .0250509
1080.352 .0250553
1080.934 .0250600
1081.515 .0250633
1082.097 .0250690
1082.679 .0250763
1083.260 .0250858
1083.842 .0250985
1084.424 .0251124
1085.007 .0251244
1085.589 .0251356
1086.172 .0251430
1086.754 .0251449
1087.337 .0251425
1087.920 .0251383
1088.503 .0251299
1089.087 .0251194
1089.670 .0251086
1090.254 .0250962
1090.838 .0250818
1091.422 .0250670
1092.006 .0250479
1092.590 .0250264
1093.175 .0250013
1093.760 .0249712
1094.345 .0249385
1094.930 .0249066
1095.516 .0248761
1096.102 .0248486
1096.688 .0248281
1097.274 .0248137
1097.860 .0248021
1098.447 .0247957
1099.034 .0247925
1099.622 .0247913
1100.209 .0247917
1100.797 .0247935
1101.385 .0247968
1101.973 .0248043
1102.562 .0248153
1103.151 .0248294
1103.740 .0248468
1104.330 .0248663
1104.920 .0248864
1105.510 .0249048
1106.101 .0249241
1106.691 .0249422
1107.283 .0249597
1107.874 .0249777
1108.466 .0249944
1109.058 .0250119
1109.651 .0250280
1110.244 .0250449
1110.837 .0250618
1111.431 .0250760
1112.025 .0250890
1112.620 .0250993
1113.215 .0251063
1113.810 .0251113
1114.406 .0251158
1115.002 .0251191
1115.599 .0251200
1116.196 .0251188
1116.793 .0251129
1117.391 .0251037
1117.989 .0250910
1118.588 .0250770
1119.187 .0250622
1119.787 .0250501
1120.387 .0250398
1120.988 .0250334
1121.589 .0250333
1122.190 .0250378
1122.793 .0250443
1123.395 .0250563
1123.998 .0250735
1124.602 .0250931
1125.206 .0251157
1125.811 .0251456
1126.416 .0251796
1127.022 .0252179
1127.628 .0252595
1128.235 .0253067
1128.843 .0253594
1129.451 .0254178
1130.059 .0254756
1130.669 .0255352
1131.278 .0255956
1131.889 .0256529
1132.500 .0257052
1133.112 .0257564
1133.724 .0258011
1134.337 .0258417
1134.950 .0258766
1135.564 .0259091
1136.179 .0259368
1136.795 .0259643
1137.411 .0259930
1138.028 .0260257
1138.645 .0260583
1139.263 .0260948
1139.882 .0261357
1140.502 .0261790
1141.122 .0262317
1141.743 .0262965
1142.365 .0263937
1142.987 .0263763
1143.611 .0263540
1144.235 .0266938
1144.859 .0269369
1145.485 .0276069
