Measurement Sequence started on: 10-20-44-796
Integration time: 35
Scans to Average: 2 
>>>>>Begin Spectral Data<<<<<
432.953 .0303007
433.882 .0345767
434.810 .0369448
435.737 .0343652
436.662 .0335469
437.586 .0331678
438.509 .0329313
439.431 .0325823
440.351 .0322391
441.269 .0320244
442.187 .0318635
443.103 .0317484
444.018 .0316668
444.932 .0316137
445.844 .0315964
446.756 .0316104
447.666 .0316560
448.575 .0317087
449.482 .0317692
450.388 .0318232
451.294 .0318626
452.198 .0318865
453.100 .0319082
454.002 .0319347
454.902 .0319645
455.801 .0320009
456.699 .0320483
457.596 .0321002
458.492 .0321490
459.387 .0321815
460.280 .0322000
461.172 .0322028
462.064 .0321971
462.954 .0321792
463.843 .0321647
464.730 .0321583
465.617 .0321637
466.503 .0321782
467.387 .0321984
468.271 .0322208
469.153 .0322377
470.035 .0322484
470.915 .0322500
471.794 .0322410
472.673 .0322311
473.550 .0322232
474.426 .0322246
475.301 .0322337
476.175 .0322498
477.048 .0322683
477.920 .0322885
478.791 .0323029
479.661 .0323079
480.530 .0323027
481.398 .0322884
482.266 .0322700
483.132 .0322502
483.997 .0322307
484.861 .0322142
485.724 .0322021
486.587 .0321920
487.448 .0321779
488.308 .0321590
489.168 .0321329
490.026 .0321003
490.884 .0320607
491.741 .0320154
492.597 .0319713
493.452 .0319326
494.306 .0319007
495.159 .0318751
496.011 .0318598
496.862 .0318497
497.713 .0318372
498.562 .0318226
499.411 .0318011
500.259 .0317735
501.106 .0317398
501.952 .0316992
502.798 .0316552
503.642 .0316098
504.486 .0315624
505.329 .0315089
506.171 .0314502
507.012 .0313807
507.852 .0312925
508.692 .0311878
509.531 .0310676
510.369 .0309307
511.206 .0307876
512.043 .0306431
512.878 .0304964
513.713 .0303529
514.547 .0302102
515.381 .0300653
516.213 .0299201
517.045 .0297691
517.876 .0296061
518.706 .0294362
519.536 .0292677
520.365 .0291020
521.193 .0289451
522.020 .0288074
522.847 .0286786
523.673 .0285569
524.498 .0284415
525.323 .0283138
526.146 .0281773
526.969 .0280331
527.792 .0278763
528.614 .0277111
529.435 .0275458
530.255 .0273830
531.075 .0272196
531.894 .0270714
532.712 .0269303
533.530 .0267910
534.347 .0266656
535.163 .0265420
535.979 .0264275
536.794 .0263281
537.608 .0262440
538.422 .0261717
539.235 .0261191
540.048 .0260848
540.860 .0260606
541.671 .0260498
542.481 .0260520
543.292 .0260592
544.101 .0260748
544.910 .0260973
545.718 .0261226
546.526 .0261596
547.333 .0262112
548.139 .0262642
548.945 .0263234
549.750 .0263817
550.555 .0264357
551.359 .0264804
552.162 .0265181
552.965 .0265464
553.768 .0265685
554.569 .0265894
555.371 .0266087
556.171 .0266294
556.972 .0266596
557.771 .0266922
558.570 .0267306
559.369 .0267774
560.167 .0268323
560.964 .0268948
561.761 .0269707
562.558 .0270553
563.354 .0271535
564.149 .0272579
564.944 .0273670
565.738 .0274760
566.532 .0275830
567.325 .0276854
568.118 .0277835
568.910 .0278784
569.702 .0279708
570.494 .0280616
571.285 .0281539
572.075 .0282477
572.865 .0283436
573.654 .0284374
574.443 .0285272
575.232 .0286114
576.020 .0286905
576.807 .0287607
577.594 .0288259
578.381 .0288876
579.167 .0289456
579.952 .0290028
580.738 .0290595
581.522 .0291167
582.307 .0291752
583.091 .0292356
583.874 .0292951
584.657 .0293526
585.440 .0294084
586.222 .0294588
587.004 .0295036
587.785 .0295423
588.566 .0295759
589.346 .0296046
590.126 .0296294
590.906 .0296511
591.685 .0296708
592.464 .0296888
593.242 .0297043
594.020 .0297168
594.797 .0297275
595.575 .0297357
596.351 .0297410
597.128 .0297437
597.904 .0297454
598.679 .0297455
599.454 .0297439
600.229 .0297414
601.004 .0297379
601.778 .0297321
602.551 .0297248
603.325 .0297160
604.097 .0297054
604.870 .0296939
605.642 .0296820
606.414 .0296703
607.185 .0296591
607.956 .0296485
608.727 .0296375
609.497 .0296273
610.267 .0296168
611.037 .0296053
611.806 .0295932
612.575 .0295809
613.344 .0295677
614.112 .0295541
614.880 .0295408
615.647 .0295284
616.414 .0295162
617.181 .0295051
617.948 .0294942
618.714 .0294845
619.480 .0294754
620.245 .0294666
621.011 .0294579
621.775 .0294496
622.540 .0294409
623.304 .0294317
624.068 .0294219
624.832 .0294118
625.595 .0294017
626.358 .0293922
627.120 .0293831
627.883 .0293743
628.645 .0293661
629.406 .0293586
630.168 .0293516
630.929 .0293445
631.689 .0293371
632.450 .0293286
633.210 .0293193
633.970 .0293079
634.729 .0292945
635.489 .0292789
636.248 .0292614
637.006 .0292424
637.765 .0292224
638.523 .0292015
639.280 .0291806
640.038 .0291604
640.795 .0291411
641.552 .0291221
642.309 .0291040
643.065 .0290862
643.821 .0290684
644.577 .0290499
645.332 .0290319
646.088 .0290141
646.843 .0289967
647.597 .0289803
648.352 .0289654
649.106 .0289531
649.860 .0289428
650.613 .0289345
651.367 .0289285
652.120 .0289241
652.872 .0289207
653.625 .0289167
654.377 .0289125
655.129 .0289078
655.881 .0289022
656.632 .0288952
657.384 .0288872
658.135 .0288775
658.885 .0288661
659.636 .0288536
660.386 .0288402
661.136 .0288255
661.885 .0288104
662.635 .0287950
663.384 .0287794
664.133 .0287629
664.881 .0287456
665.630 .0287270
666.378 .0287082
667.126 .0286880
667.874 .0286661
668.621 .0286439
669.368 .0286225
670.115 .0286013
670.862 .0285812
671.608 .0285626
672.354 .0285458
673.100 .0285302
673.846 .0285161
674.591 .0285023
675.337 .0284891
676.082 .0284760
676.826 .0284631
677.571 .0284500
678.315 .0284373
679.059 .0284249
679.803 .0284136
680.547 .0284030
681.290 .0283921
682.033 .0283805
682.776 .0283682
683.518 .0283550
684.261 .0283404
685.003 .0283245
685.745 .0283079
686.487 .0282909
687.228 .0282739
687.969 .0282569
688.710 .0282403
689.451 .0282243
690.192 .0282086
690.932 .0281930
691.672 .0281775
692.412 .0281622
693.152 .0281474
693.891 .0281335
694.630 .0281204
695.369 .0281081
696.108 .0280964
696.846 .0280848
697.585 .0280731
698.323 .0280611
699.061 .0280483
699.798 .0280347
700.536 .0280202
701.273 .0280054
702.010 .0279902
702.746 .0279750
703.483 .0279600
704.219 .0279453
704.955 .0279307
705.691 .0279159
706.427 .0279006
707.162 .0278853
707.897 .0278700
708.632 .0278552
709.367 .0278410
710.101 .0278277
710.835 .0278149
711.569 .0278029
712.303 .0277911
713.037 .0277796
713.770 .0277678
714.503 .0277556
715.236 .0277429
715.969 .0277298
716.702 .0277162
717.434 .0277028
718.166 .0276894
718.898 .0276764
719.629 .0276633
720.361 .0276504
721.092 .0276371
721.823 .0276235
722.554 .0276096
723.284 .0275955
724.014 .0275807
724.744 .0275652
725.474 .0275488
726.204 .0275313
726.933 .0275123
727.662 .0274924
728.391 .0274713
729.120 .0274494
729.849 .0274267
730.577 .0274038
731.305 .0273813
732.033 .0273594
732.760 .0273378
733.488 .0273169
734.215 .0272966
734.942 .0272767
735.669 .0272567
736.395 .0272370
737.122 .0272179
737.848 .0271992
738.573 .0271812
739.299 .0271640
740.024 .0271474
740.750 .0271312
741.474 .0271146
742.199 .0270977
742.924 .0270800
743.648 .0270613
744.372 .0270419
745.096 .0270223
745.819 .0270027
746.543 .0269835
747.266 .0269651
747.989 .0269480
748.711 .0269319
749.434 .0269168
750.156 .0269027
750.878 .0268891
751.599 .0268766
752.321 .0268649
753.042 .0268547
753.763 .0268462
754.484 .0268392
755.205 .0268335
755.925 .0268291
756.645 .0268251
757.365 .0268207
758.085 .0268155
758.804 .0268089
759.523 .0268000
760.242 .0267890
760.961 .0267759
761.679 .0267612
762.397 .0267452
763.115 .0267286
763.833 .0267107
764.551 .0266921
765.268 .0266728
765.985 .0266527
766.702 .0266315
767.418 .0266097
768.134 .0265866
768.850 .0265630
769.566 .0265393
770.282 .0265158
770.997 .0264927
771.712 .0264712
772.427 .0264508
773.142 .0264319
773.856 .0264140
774.570 .0263972
775.284 .0263809
775.998 .0263652
776.711 .0263494
777.424 .0263332
778.137 .0263169
778.849 .0263004
779.562 .0262839
780.274 .0262683
780.986 .0262539
781.697 .0262407
782.409 .0262290
783.120 .0262192
783.831 .0262103
784.541 .0262025
785.252 .0261953
785.962 .0261879
786.671 .0261800
787.381 .0261713
788.090 .0261619
788.799 .0261528
789.508 .0261439
790.217 .0261355
790.925 .0261275
791.633 .0261199
792.341 .0261116
793.048 .0261020
793.755 .0260909
794.462 .0260776
795.169 .0260626
795.875 .0260464
796.581 .0260297
797.287 .0260133
797.993 .0259982
798.698 .0259846
799.403 .0259723
800.108 .0259612
800.812 .0259501
801.517 .0259385
802.221 .0259265
802.924 .0259137
803.628 .0259006
804.331 .0258880
805.034 .0258765
805.736 .0258659
806.439 .0258568
807.141 .0258493
807.843 .0258425
808.544 .0258359
809.245 .0258291
809.946 .0258213
810.647 .0258126
811.347 .0258032
812.047 .0257935
812.747 .0257842
813.447 .0257750
814.146 .0257663
814.845 .0257582
815.543 .0257503
816.242 .0257424
816.940 .0257340
817.638 .0257252
818.335 .0257155
819.032 .0257046
819.729 .0256930
820.426 .0256809
821.122 .0256687
821.818 .0256554
822.514 .0256419
823.209 .0256287
823.905 .0256155
824.599 .0256019
825.294 .0255887
825.988 .0255754
826.682 .0255622
827.376 .0255489
828.069 .0255354
828.762 .0255219
829.455 .0255085
830.147 .0254949
830.840 .0254814
831.531 .0254684
832.223 .0254560
832.914 .0254436
833.605 .0254322
834.296 .0254211
834.986 .0254101
835.676 .0253986
836.366 .0253869
837.055 .0253748
837.744 .0253617
838.433 .0253477
839.121 .0253335
839.809 .0253196
840.497 .0253066
841.185 .0252945
841.872 .0252837
842.559 .0252742
843.245 .0252652
843.932 .0252563
844.617 .0252472
845.303 .0252377
845.988 .0252274
846.673 .0252161
847.358 .0252044
848.042 .0251927
848.726 .0251817
849.410 .0251715
850.093 .0251626
850.776 .0251544
851.459 .0251464
852.141 .0251377
852.823 .0251280
853.505 .0251172
854.186 .0251051
854.867 .0250917
855.548 .0250774
856.228 .0250627
856.908 .0250486
857.588 .0250349
858.267 .0250222
858.946 .0250104
859.625 .0249990
860.303 .0249873
860.981 .0249754
861.659 .0249626
862.336 .0249487
863.013 .0249340
863.690 .0249190
864.366 .0249036
865.042 .0248882
865.718 .0248733
866.393 .0248591
867.068 .0248459
867.743 .0248338
868.417 .0248219
869.091 .0248104
869.765 .0247987
870.438 .0247864
871.111 .0247737
871.783 .0247605
872.456 .0247470
873.127 .0247333
873.799 .0247195
874.470 .0247056
875.141 .0246915
875.811 .0246775
876.481 .0246631
877.151 .0246486
877.820 .0246337
878.489 .0246180
879.158 .0246019
879.826 .0245854
880.494 .0245685
881.162 .0245521
881.829 .0245361
882.496 .0245205
883.163 .0245056
883.829 .0244915
884.495 .0244781
885.160 .0244654
885.825 .0244536
886.490 .0244429
887.154 .0244334
887.818 .0244249
888.482 .0244172
889.145 .0244099
889.808 .0244034
890.471 .0243965
891.133 .0243891
891.795 .0243811
892.456 .0243729
893.117 .0243643
893.778 .0243558
894.439 .0243474
895.099 .0243388
895.758 .0243304
896.417 .0243220
897.076 .0243131
897.735 .0243035
898.393 .0242935
899.051 .0242832
899.708 .0242728
900.365 .0242630
901.022 .0242537
901.678 .0242454
902.334 .0242382
902.990 .0242313
903.645 .0242243
904.300 .0242170
904.954 .0242092
905.608 .0242007
906.262 .0241916
906.915 .0241827
907.568 .0241742
908.221 .0241667
908.873 .0241603
909.525 .0241546
910.176 .0241490
910.828 .0241429
911.478 .0241358
912.129 .0241272
912.778 .0241170
913.428 .0241063
914.077 .0240952
914.726 .0240850
915.375 .0240758
916.023 .0240682
916.670 .0240622
917.318 .0240580
917.964 .0240544
918.611 .0240513
919.257 .0240480
919.903 .0240446
920.548 .0240402
921.193 .0240357
921.838 .0240313
922.482 .0240275
923.126 .0240240
923.770 .0240214
924.413 .0240189
925.056 .0240165
925.698 .0240134
926.340 .0240102
926.982 .0240059
927.623 .0240006
928.264 .0239940
928.904 .0239862
929.544 .0239772
930.184 .0239674
930.823 .0239566
931.462 .0239453
932.101 .0239335
932.739 .0239213
933.377 .0239081
934.014 .0238946
934.651 .0238809
935.288 .0238664
935.924 .0238521
936.560 .0238379
937.196 .0238237
937.831 .0238101
938.466 .0237975
939.100 .0237856
939.734 .0237743
940.368 .0237637
941.001 .0237533
941.634 .0237427
942.266 .0237328
942.899 .0237221
943.530 .0237112
944.162 .0236998
944.793 .0236882
945.423 .0236756
946.053 .0236630
946.683 .0236496
947.313 .0236360
947.942 .0236220
948.571 .0236079
949.199 .0235933
949.827 .0235784
950.455 .0235629
951.082 .0235474
951.709 .0235313
952.335 .0235152
952.961 .0234986
953.587 .0234824
954.212 .0234664
954.837 .0234508
955.462 .0234357
956.086 .0234215
956.710 .0234081
957.334 .0233959
957.957 .0233842
958.579 .0233730
959.202 .0233620
959.824 .0233514
960.445 .0233406
961.067 .0233299
961.688 .0233191
962.308 .0233090
962.928 .0232993
963.548 .0232905
964.168 .0232819
964.787 .0232736
965.406 .0232658
966.024 .0232579
966.642 .0232500
967.260 .0232417
967.877 .0232333
968.494 .0232247
969.110 .0232156
969.727 .0232060
970.342 .0231959
970.958 .0231861
971.573 .0231768
972.188 .0231675
972.802 .0231584
973.416 .0231498
974.030 .0231419
974.643 .0231345
975.256 .0231286
975.869 .0231238
976.481 .0231207
977.093 .0231190
977.705 .0231190
978.316 .0231205
978.927 .0231234
979.538 .0231269
980.148 .0231306
980.758 .0231335
981.367 .0231356
981.977 .0231370
982.586 .0231379
983.194 .0231389
983.802 .0231402
984.410 .0231416
985.018 .0231435
985.625 .0231456
986.232 .0231472
986.838 .0231477
987.445 .0231474
988.050 .0231454
988.656 .0231416
989.261 .0231367
989.866 .0231308
990.471 .0231246
991.075 .0231191
991.679 .0231142
992.282 .0231100
992.886 .0231073
993.489 .0231057
994.091 .0231048
994.694 .0231045
995.296 .0231043
995.897 .0231035
996.499 .0231021
997.100 .0231000
997.701 .0230968
998.301 .0230937
998.901 .0230908
999.501 .0230886
1000.101 .0230874
1000.700 .0230876
1001.299 .0230884
1001.898 .0230897
1002.496 .0230909
1003.094 .0230904
1003.692 .0230884
1004.289 .0230849
1004.887 .0230802
1005.484 .0230749
1006.080 .0230697
1006.677 .0230647
1007.273 .0230604
1007.868 .0230575
1008.464 .0230551
1009.059 .0230531
1009.654 .0230523
1010.249 .0230519
1010.843 .0230519
1011.437 .0230524
1012.031 .0230529
1012.625 .0230533
1013.218 .0230537
1013.811 .0230533
1014.404 .0230513
1014.997 .0230484
1015.589 .0230448
1016.181 .0230403
1016.773 .0230364
1017.365 .0230337
1017.956 .0230319
1018.547 .0230312
1019.138 .0230314
1019.728 .0230312
1020.319 .0230311
1020.909 .0230306
1021.499 .0230292
1022.088 .0230276
1022.678 .0230261
1023.267 .0230247
1023.856 .0230229
1024.445 .0230219
1025.033 .0230212
1025.621 .0230194
1026.209 .0230173
1026.797 .0230138
1027.385 .0230093
1027.972 .0230044
1028.560 .0229988
1029.147 .0229925
1029.734 .0229863
1030.320 .0229803
1030.907 .0229733
1031.493 .0229664
1032.079 .0229595
1032.665 .0229532
1033.250 .0229475
1033.836 .0229438
1034.421 .0229416
1035.006 .0229412
1035.591 .0229431
1036.176 .0229460
1036.761 .0229493
1037.345 .0229522
1037.929 .0229533
1038.514 .0229530
1039.097 .0229512
1039.681 .0229482
1040.265 .0229437
1040.848 .0229398
1041.432 .0229361
1042.015 .0229326
1042.598 .0229293
1043.181 .0229266
1043.764 .0229238
1044.346 .0229202
1044.929 .0229147
1045.511 .0229071
1046.094 .0228983
1046.676 .0228896
1047.258 .0228803
1047.840 .0228726
1048.422 .0228667
1049.003 .0228624
1049.585 .0228592
1050.166 .0228573
1050.748 .0228558
1051.329 .0228542
1051.910 .0228514
1052.491 .0228482
1053.072 .0228449
1053.653 .0228419
1054.234 .0228404
1054.815 .0228407
1055.396 .0228424
1055.976 .0228452
1056.557 .0228473
1057.138 .0228496
1057.718 .0228502
1058.298 .0228494
1058.879 .0228473
1059.459 .0228442
1060.039 .0228410
1060.620 .0228351
1061.200 .0228277
1061.780 .0228196
1062.360 .0228097
1062.940 .0227987
1063.520 .0227874
1064.101 .0227762
1064.681 .0227662
1065.261 .0227574
1065.841 .0227510
1066.421 .0227459
1067.001 .0227420
1067.581 .0227367
1068.161 .0227297
1068.741 .0227197
1069.321 .0227070
1069.901 .0226905
1070.482 .0226742
1071.062 .0226567
1071.642 .0226394
1072.222 .0226227
1072.803 .0226057
1073.383 .0225897
1073.963 .0225745
1074.544 .0225595
1075.124 .0225452
1075.705 .0225318
1076.286 .0225201
1076.866 .0225090
1077.447 .0225003
1078.028 .0224926
1078.609 .0224867
1079.190 .0224835
1079.771 .0224808
1080.352 .0224791
1080.934 .0224789
1081.515 .0224822
1082.097 .0224866
1082.679 .0224942
1083.260 .0225024
1083.842 .0225114
1084.424 .0225203
1085.007 .0225283
1085.589 .0225348
1086.172 .0225398
1086.754 .0225441
1087.337 .0225462
1087.920 .0225463
1088.503 .0225460
1089.087 .0225437
1089.670 .0225412
1090.254 .0225366
1090.838 .0225309
1091.422 .0225227
1092.006 .0225134
1092.590 .0225028
1093.175 .0224904
1093.760 .0224763
1094.345 .0224610
1094.930 .0224435
1095.516 .0224231
1096.102 .0224019
1096.688 .0223808
1097.274 .0223606
1097.860 .0223434
1098.447 .0223298
1099.034 .0223205
1099.622 .0223150
1100.209 .0223131
1100.797 .0223123
1101.385 .0223109
1101.973 .0223078
1102.562 .0223001
1103.151 .0222875
1103.740 .0222716
1104.330 .0222514
1104.920 .0222312
1105.510 .0222131
1106.101 .0221979
1106.691 .0221862
1107.283 .0221800
1107.874 .0221780
1108.466 .0221766
1109.058 .0221767
1109.651 .0221773
1110.244 .0221771
1110.837 .0221783
1111.431 .0221803
1112.025 .0221865
1112.620 .0221968
1113.215 .0222116
1113.810 .0222274
1114.406 .0222470
1115.002 .0222652
1115.599 .0222787
1116.196 .0222849
1116.793 .0222830
1117.391 .0222723
1117.989 .0222554
1118.588 .0222356
1119.187 .0222134
1119.787 .0221910
1120.387 .0221726
1120.988 .0221557
1121.589 .0221455
1122.190 .0221362
1122.793 .0221318
1123.395 .0221312
1123.998 .0221353
1124.602 .0221409
1125.206 .0221504
1125.811 .0221681
1126.416 .0221924
1127.022 .0222198
1127.628 .0222542
1128.235 .0222899
1128.843 .0223283
1129.451 .0223647
1130.059 .0223985
1130.669 .0224295
1131.278 .0224596
1131.889 .0224845
1132.500 .0225063
1133.112 .0225254
1133.724 .0225446
1134.337 .0225649
1134.950 .0225876
1135.564 .0226152
1136.179 .0226441
1136.795 .0226770
1137.411 .0227130
1138.028 .0227485
1138.645 .0227878
1139.263 .0228286
1139.882 .0228644
1140.502 .0229022
1141.122 .0229365
1141.743 .0229695
1142.365 .0229851
1142.987 .0229558
1143.611 .0231286
1144.235 .0231074
1144.859 .0230849
1145.485 .0227100
