Measurement Sequence started on: 10-20-44-796
Integration time: 35
Scans to Average: 2 
>>>>>Begin Spectral Data<<<<<
432.953 .0320321
433.882 .0368467
434.810 .0374436
435.737 .0373799
436.662 .0369222
437.586 .0371528
438.509 .0373162
439.431 .0372781
440.351 .0372063
441.269 .0371273
442.187 .0370541
443.103 .0369724
444.018 .0368940
444.932 .0368489
445.844 .0368060
446.756 .0367560
447.666 .0367210
448.575 .0367005
449.482 .0366988
450.388 .0367126
451.294 .0367442
452.198 .0367896
453.100 .0368370
454.002 .0368984
454.902 .0369682
455.801 .0370282
456.699 .0370943
457.596 .0371599
458.492 .0372230
459.387 .0372838
460.280 .0373482
461.172 .0374040
462.064 .0374538
462.954 .0374925
463.843 .0375178
464.730 .0375317
465.617 .0375371
466.503 .0375256
467.387 .0375046
468.271 .0374727
469.153 .0374308
470.035 .0373793
470.915 .0373224
471.794 .0372572
472.673 .0371914
473.550 .0371254
474.426 .0370616
475.301 .0369981
476.175 .0369398
477.048 .0368793
477.920 .0368184
478.791 .0367561
479.661 .0366956
480.530 .0366379
481.398 .0365841
482.266 .0365340
483.132 .0364910
483.997 .0364520
484.861 .0364188
485.724 .0363930
486.587 .0363692
487.448 .0363458
488.308 .0363211
489.168 .0362921
490.026 .0362620
490.884 .0362291
491.741 .0361950
492.597 .0361585
493.452 .0361213
494.306 .0360801
495.159 .0360366
496.011 .0359962
496.862 .0359541
497.713 .0359111
498.562 .0358684
499.411 .0358267
500.259 .0357820
501.106 .0357393
501.952 .0356941
502.798 .0356454
503.642 .0355918
504.486 .0355306
505.329 .0354599
506.171 .0353822
507.012 .0352982
507.852 .0352082
508.692 .0351147
509.531 .0350188
510.369 .0349188
511.206 .0348185
512.043 .0347145
512.878 .0346045
513.713 .0344776
514.547 .0343385
515.381 .0341827
516.213 .0340132
517.045 .0338333
517.876 .0336482
518.706 .0334644
519.536 .0332853
520.365 .0331152
521.193 .0329569
522.020 .0328091
522.847 .0326713
523.673 .0325337
524.498 .0323876
525.323 .0322353
526.146 .0320773
526.969 .0319176
527.792 .0317657
528.614 .0316203
529.435 .0314909
530.255 .0313776
531.075 .0312816
531.894 .0312074
532.712 .0311435
533.530 .0310922
534.347 .0310402
535.163 .0309803
535.979 .0309216
536.794 .0308621
537.608 .0308103
538.422 .0307673
539.235 .0307386
540.048 .0307218
540.860 .0307137
541.671 .0307113
542.481 .0307127
543.292 .0307049
544.101 .0306886
544.910 .0306569
545.718 .0306162
546.526 .0305719
547.333 .0305336
548.139 .0305026
548.945 .0304897
549.750 .0304850
550.555 .0304916
551.359 .0304974
552.162 .0305097
552.965 .0305186
553.768 .0305226
554.569 .0305238
555.371 .0305261
556.171 .0305291
556.972 .0305413
557.771 .0305618
558.570 .0305931
559.369 .0306319
560.167 .0306781
560.964 .0307246
561.761 .0307774
562.558 .0308320
563.354 .0308934
564.149 .0309539
564.944 .0310181
565.738 .0310838
566.532 .0311491
567.325 .0312173
568.118 .0312868
568.910 .0313567
569.702 .0314293
570.494 .0315066
571.285 .0315887
572.075 .0316743
572.865 .0317652
573.654 .0318576
574.443 .0319462
575.232 .0320293
576.020 .0321058
576.807 .0321733
577.594 .0322345
578.381 .0322925
579.167 .0323453
579.952 .0323968
580.738 .0324478
581.522 .0324975
582.307 .0325429
583.091 .0325871
583.874 .0326263
584.657 .0326601
585.440 .0326901
586.222 .0327155
587.004 .0327361
587.785 .0327539
588.566 .0327699
589.346 .0327832
590.126 .0327940
590.906 .0328030
591.685 .0328073
592.464 .0328080
593.242 .0328062
594.020 .0328008
594.797 .0327931
595.575 .0327847
596.351 .0327747
597.128 .0327642
597.904 .0327528
598.679 .0327417
599.454 .0327301
600.229 .0327184
601.004 .0327074
601.778 .0326949
602.551 .0326810
603.325 .0326666
604.097 .0326507
604.870 .0326344
605.642 .0326180
606.414 .0326012
607.185 .0325845
607.956 .0325685
608.727 .0325533
609.497 .0325378
610.267 .0325223
611.037 .0325075
611.806 .0324913
612.575 .0324743
613.344 .0324558
614.112 .0324356
614.880 .0324154
615.647 .0323951
616.414 .0323752
617.181 .0323566
617.948 .0323398
618.714 .0323248
619.480 .0323114
620.245 .0322991
621.011 .0322878
621.775 .0322762
622.540 .0322647
623.304 .0322518
624.068 .0322379
624.832 .0322232
625.595 .0322076
626.358 .0321914
627.120 .0321744
627.883 .0321563
628.645 .0321374
629.406 .0321167
630.168 .0320950
630.929 .0320717
631.689 .0320470
632.450 .0320198
633.210 .0319916
633.970 .0319615
634.729 .0319303
635.489 .0318979
636.248 .0318656
637.006 .0318331
637.765 .0318006
638.523 .0317680
639.280 .0317361
640.038 .0317053
640.795 .0316757
641.552 .0316467
642.309 .0316193
643.065 .0315930
643.821 .0315683
644.577 .0315436
645.332 .0315204
646.088 .0314971
646.843 .0314741
647.597 .0314515
648.352 .0314295
649.106 .0314094
649.860 .0313903
650.613 .0313724
651.367 .0313560
652.120 .0313398
652.872 .0313243
653.625 .0313087
654.377 .0312932
655.129 .0312777
655.881 .0312616
656.632 .0312449
657.384 .0312280
658.135 .0312108
658.885 .0311931
659.636 .0311746
660.386 .0311560
661.136 .0311369
661.885 .0311173
662.635 .0310982
663.384 .0310794
664.133 .0310611
664.881 .0310436
665.630 .0310263
666.378 .0310097
667.126 .0309932
667.874 .0309769
668.621 .0309604
669.368 .0309441
670.115 .0309277
670.862 .0309114
671.608 .0308955
672.354 .0308799
673.100 .0308638
673.846 .0308475
674.591 .0308299
675.337 .0308109
676.082 .0307906
676.826 .0307690
677.571 .0307474
678.315 .0307259
679.059 .0307047
679.803 .0306847
680.547 .0306656
681.290 .0306472
682.033 .0306285
682.776 .0306100
683.518 .0305912
684.261 .0305719
685.003 .0305534
685.745 .0305349
686.487 .0305177
687.228 .0305020
687.969 .0304866
688.710 .0304715
689.451 .0304571
690.192 .0304411
690.932 .0304238
691.672 .0304051
692.412 .0303853
693.152 .0303643
693.891 .0303430
694.630 .0303219
695.369 .0303008
696.108 .0302802
696.846 .0302600
697.585 .0302389
698.323 .0302182
699.061 .0301968
699.798 .0301746
700.536 .0301523
701.273 .0301302
702.010 .0301087
702.746 .0300884
703.483 .0300698
704.219 .0300527
704.955 .0300369
705.691 .0300223
706.427 .0300081
707.162 .0299932
707.897 .0299778
708.632 .0299610
709.367 .0299432
710.101 .0299243
710.835 .0299045
711.569 .0298847
712.303 .0298649
713.037 .0298460
713.770 .0298279
714.503 .0298101
715.236 .0297926
715.969 .0297744
716.702 .0297551
717.434 .0297340
718.166 .0297113
718.898 .0296875
719.629 .0296637
720.361 .0296403
721.092 .0296178
721.823 .0295966
722.554 .0295771
723.284 .0295585
724.014 .0295400
724.744 .0295207
725.474 .0295001
726.204 .0294779
726.933 .0294538
727.662 .0294283
728.391 .0294021
729.120 .0293761
729.849 .0293508
730.577 .0293264
731.305 .0293026
732.033 .0292797
732.760 .0292574
733.488 .0292357
734.215 .0292145
734.942 .0291938
735.669 .0291735
736.395 .0291544
737.122 .0291362
737.848 .0291193
738.573 .0291036
739.299 .0290891
740.024 .0290756
740.750 .0290626
741.474 .0290499
742.199 .0290370
742.924 .0290242
743.648 .0290109
744.372 .0289973
745.096 .0289835
745.819 .0289692
746.543 .0289546
747.266 .0289401
747.989 .0289258
748.711 .0289120
749.434 .0288992
750.156 .0288871
750.878 .0288760
751.599 .0288661
752.321 .0288568
753.042 .0288487
753.763 .0288413
754.484 .0288347
755.205 .0288281
755.925 .0288218
756.645 .0288153
757.365 .0288079
758.085 .0288000
758.804 .0287904
759.523 .0287787
760.242 .0287650
760.961 .0287484
761.679 .0287298
762.397 .0287091
763.115 .0286865
763.833 .0286623
764.551 .0286373
765.268 .0286117
765.985 .0285860
766.702 .0285606
767.418 .0285357
768.134 .0285117
768.850 .0284887
769.566 .0284666
770.282 .0284456
770.997 .0284259
771.712 .0284075
772.427 .0283901
773.142 .0283743
773.856 .0283590
774.570 .0283440
775.284 .0283295
775.998 .0283144
776.711 .0282988
777.424 .0282825
778.137 .0282651
778.849 .0282467
779.562 .0282279
780.274 .0282092
780.986 .0281909
781.697 .0281737
782.409 .0281575
783.120 .0281421
783.831 .0281280
784.541 .0281148
785.252 .0281024
785.962 .0280911
786.671 .0280810
787.381 .0280716
788.090 .0280633
788.799 .0280555
789.508 .0280480
790.217 .0280408
790.925 .0280328
791.633 .0280237
792.341 .0280135
793.048 .0280021
793.755 .0279896
794.462 .0279763
795.169 .0279628
795.875 .0279488
796.581 .0279350
797.287 .0279210
797.993 .0279068
798.698 .0278926
799.403 .0278783
800.108 .0278638
800.812 .0278494
801.517 .0278356
802.221 .0278225
802.924 .0278108
803.628 .0278005
804.331 .0277915
805.034 .0277833
805.736 .0277754
806.439 .0277675
807.141 .0277591
807.843 .0277495
808.544 .0277389
809.245 .0277269
809.946 .0277141
810.647 .0277006
811.347 .0276874
812.047 .0276744
812.747 .0276621
813.447 .0276502
814.146 .0276386
814.845 .0276274
815.543 .0276165
816.242 .0276051
816.940 .0275934
817.638 .0275815
818.335 .0275691
819.032 .0275563
819.729 .0275434
820.426 .0275303
821.122 .0275174
821.818 .0275042
822.514 .0274905
823.209 .0274764
823.905 .0274618
824.599 .0274464
825.294 .0274296
825.988 .0274118
826.682 .0273928
827.376 .0273731
828.069 .0273529
828.762 .0273326
829.455 .0273125
830.147 .0272934
830.840 .0272755
831.531 .0272593
832.223 .0272446
832.914 .0272309
833.605 .0272183
834.296 .0272067
834.986 .0271951
835.676 .0271837
836.366 .0271724
837.055 .0271616
837.744 .0271506
838.433 .0271398
839.121 .0271291
839.809 .0271188
840.497 .0271091
841.185 .0270996
841.872 .0270897
842.559 .0270800
843.245 .0270699
843.932 .0270590
844.617 .0270477
845.303 .0270359
845.988 .0270232
846.673 .0270106
847.358 .0269981
848.042 .0269860
848.726 .0269749
849.410 .0269651
850.093 .0269561
850.776 .0269480
851.459 .0269400
852.141 .0269314
852.823 .0269224
853.505 .0269129
854.186 .0269025
854.867 .0268919
855.548 .0268819
856.228 .0268724
856.908 .0268639
857.588 .0268563
858.267 .0268493
858.946 .0268424
859.625 .0268349
860.303 .0268263
860.981 .0268163
861.659 .0268051
862.336 .0267926
863.013 .0267792
863.690 .0267653
864.366 .0267515
865.042 .0267380
865.718 .0267251
866.393 .0267128
867.068 .0267009
867.743 .0266889
868.417 .0266766
869.091 .0266638
869.765 .0266503
870.438 .0266362
871.111 .0266219
871.783 .0266071
872.456 .0265923
873.127 .0265779
873.799 .0265639
874.470 .0265505
875.141 .0265378
875.811 .0265252
876.481 .0265127
877.151 .0265004
877.820 .0264883
878.489 .0264766
879.158 .0264657
879.826 .0264561
880.494 .0264471
881.162 .0264398
881.829 .0264337
882.496 .0264283
883.163 .0264235
883.829 .0264191
884.495 .0264144
885.160 .0264099
885.825 .0264052
886.490 .0264008
887.154 .0263965
887.818 .0263927
888.482 .0263885
889.145 .0263838
889.808 .0263786
890.471 .0263724
891.133 .0263652
891.795 .0263577
892.456 .0263498
893.117 .0263424
893.778 .0263361
894.439 .0263313
895.099 .0263278
895.758 .0263256
896.417 .0263240
897.076 .0263225
897.735 .0263204
898.393 .0263176
899.051 .0263138
899.708 .0263094
900.365 .0263042
901.022 .0262985
901.678 .0262932
902.334 .0262877
902.990 .0262823
903.645 .0262768
904.300 .0262705
904.954 .0262630
905.608 .0262539
906.262 .0262434
906.915 .0262314
907.568 .0262181
908.221 .0262039
908.873 .0261888
909.525 .0261730
910.176 .0261571
910.828 .0261414
911.478 .0261263
912.129 .0261119
912.778 .0260981
913.428 .0260849
914.077 .0260725
914.726 .0260605
915.375 .0260487
916.023 .0260379
916.670 .0260284
917.318 .0260194
917.964 .0260110
918.611 .0260038
919.257 .0259971
919.903 .0259911
920.548 .0259853
921.193 .0259788
921.838 .0259720
922.482 .0259647
923.126 .0259565
923.770 .0259474
924.413 .0259375
925.056 .0259268
925.698 .0259151
926.340 .0259028
926.982 .0258888
927.623 .0258738
928.264 .0258583
928.904 .0258423
929.544 .0258260
930.184 .0258099
930.823 .0257947
931.462 .0257805
932.101 .0257674
932.739 .0257547
933.377 .0257423
934.014 .0257301
934.651 .0257174
935.288 .0257041
935.924 .0256902
936.560 .0256764
937.196 .0256634
937.831 .0256511
938.466 .0256396
939.100 .0256287
939.734 .0256182
940.368 .0256078
941.001 .0255973
941.634 .0255860
942.266 .0255740
942.899 .0255617
943.530 .0255485
944.162 .0255347
944.793 .0255208
945.423 .0255065
946.053 .0254920
946.683 .0254775
947.313 .0254624
947.942 .0254460
948.571 .0254288
949.199 .0254100
949.827 .0253898
950.455 .0253682
951.082 .0253456
951.709 .0253224
952.335 .0252996
952.961 .0252776
953.587 .0252569
954.212 .0252382
954.837 .0252213
955.462 .0252058
956.086 .0251912
956.710 .0251772
957.334 .0251634
957.957 .0251497
958.579 .0251362
959.202 .0251227
959.824 .0251097
960.445 .0250974
961.067 .0250862
961.688 .0250762
962.308 .0250669
962.928 .0250581
963.548 .0250489
964.168 .0250386
964.787 .0250266
965.406 .0250128
966.024 .0249974
966.642 .0249808
967.260 .0249637
967.877 .0249464
968.494 .0249293
969.110 .0249132
969.727 .0248984
970.342 .0248850
970.958 .0248727
971.573 .0248618
972.188 .0248516
972.802 .0248421
973.416 .0248330
974.030 .0248244
974.643 .0248162
975.256 .0248087
975.869 .0248011
976.481 .0247938
977.093 .0247875
977.705 .0247818
978.316 .0247766
978.927 .0247723
979.538 .0247682
980.148 .0247640
980.758 .0247592
981.367 .0247540
981.977 .0247482
982.586 .0247420
983.194 .0247357
983.802 .0247294
984.410 .0247229
985.018 .0247168
985.625 .0247111
986.232 .0247059
986.838 .0247011
987.445 .0246963
988.050 .0246916
988.656 .0246873
989.261 .0246830
989.866 .0246781
990.471 .0246732
991.075 .0246684
991.679 .0246628
992.282 .0246565
992.886 .0246501
993.489 .0246434
994.091 .0246368
994.694 .0246310
995.296 .0246258
995.897 .0246213
996.499 .0246174
997.100 .0246135
997.701 .0246095
998.301 .0246052
998.901 .0246006
999.501 .0245953
1000.101 .0245903
1000.700 .0245857
1001.299 .0245812
1001.898 .0245775
1002.496 .0245747
1003.094 .0245722
1003.692 .0245698
1004.289 .0245673
1004.887 .0245646
1005.484 .0245614
1006.080 .0245579
1006.677 .0245543
1007.273 .0245503
1007.868 .0245461
1008.464 .0245420
1009.059 .0245379
1009.654 .0245342
1010.249 .0245308
1010.843 .0245272
1011.437 .0245245
1012.031 .0245222
1012.625 .0245200
1013.218 .0245179
1013.811 .0245159
1014.404 .0245140
1014.997 .0245120
1015.589 .0245102
1016.181 .0245088
1016.773 .0245080
1017.365 .0245090
1017.956 .0245106
1018.547 .0245134
1019.138 .0245168
1019.728 .0245202
1020.319 .0245233
1020.909 .0245257
1021.499 .0245267
1022.088 .0245272
1022.678 .0245269
1023.267 .0245260
1023.856 .0245252
1024.445 .0245249
1025.033 .0245245
1025.621 .0245245
1026.209 .0245241
1026.797 .0245227
1027.385 .0245196
1027.972 .0245157
1028.560 .0245104
1029.147 .0245048
1029.734 .0244999
1030.320 .0244947
1030.907 .0244903
1031.493 .0244875
1032.079 .0244848
1032.665 .0244827
1033.250 .0244810
1033.836 .0244793
1034.421 .0244768
1035.006 .0244736
1035.591 .0244693
1036.176 .0244647
1036.761 .0244611
1037.345 .0244579
1037.929 .0244547
1038.514 .0244526
1039.097 .0244508
1039.681 .0244493
1040.265 .0244488
1040.848 .0244488
1041.432 .0244488
1042.015 .0244498
1042.598 .0244505
1043.181 .0244512
1043.764 .0244524
1044.346 .0244544
1044.929 .0244576
1045.511 .0244634
1046.094 .0244714
1046.676 .0244804
1047.258 .0244921
1047.840 .0245063
1048.422 .0245200
1049.003 .0245322
1049.585 .0245421
1050.166 .0245485
1050.748 .0245513
1051.329 .0245499
1051.910 .0245447
1052.491 .0245379
1053.072 .0245309
1053.653 .0245226
1054.234 .0245137
1054.815 .0245050
1055.396 .0244954
1055.976 .0244836
1056.557 .0244704
1057.138 .0244547
1057.718 .0244361
1058.298 .0244170
1058.879 .0243983
1059.459 .0243807
1060.039 .0243661
1060.620 .0243539
1061.200 .0243442
1061.780 .0243359
1062.360 .0243281
1062.940 .0243187
1063.520 .0243091
1064.101 .0242993
1064.681 .0242895
1065.261 .0242805
1065.841 .0242736
1066.421 .0242681
1067.001 .0242646
1067.581 .0242635
1068.161 .0242625
1068.741 .0242611
1069.321 .0242589
1069.901 .0242568
1070.482 .0242548
1071.062 .0242525
1071.642 .0242516
1072.222 .0242528
1072.803 .0242566
1073.383 .0242627
1073.963 .0242696
1074.544 .0242773
1075.124 .0242846
1075.705 .0242901
1076.286 .0242930
1076.866 .0242939
1077.447 .0242915
1078.028 .0242870
1078.609 .0242821
1079.190 .0242770
1079.771 .0242729
1080.352 .0242704
1080.934 .0242703
1081.515 .0242719
1082.097 .0242755
1082.679 .0242783
1083.260 .0242786
1083.842 .0242771
1084.424 .0242702
1085.007 .0242584
1085.589 .0242425
1086.172 .0242234
1086.754 .0242031
1087.337 .0241858
1087.920 .0241725
1088.503 .0241635
1089.087 .0241607
1089.670 .0241619
1090.254 .0241637
1090.838 .0241651
1091.422 .0241653
1092.006 .0241626
1092.590 .0241589
1093.175 .0241558
1093.760 .0241509
1094.345 .0241487
1094.930 .0241483
1095.516 .0241494
1096.102 .0241528
1096.688 .0241589
1097.274 .0241634
1097.860 .0241653
1098.447 .0241670
1099.034 .0241667
1099.622 .0241623
1100.209 .0241594
1100.797 .0241559
1101.385 .0241515
1101.973 .0241487
1102.562 .0241459
1103.151 .0241424
1103.740 .0241426
1104.330 .0241451
1104.920 .0241479
1105.510 .0241535
1106.101 .0241635
1106.691 .0241721
1107.283 .0241819
1107.874 .0241933
1108.466 .0242022
1109.058 .0242097
1109.651 .0242175
1110.244 .0242225
1110.837 .0242281
1111.431 .0242357
1112.025 .0242428
1112.620 .0242516
1113.215 .0242638
1113.810 .0242764
1114.406 .0242890
1115.002 .0243029
1115.599 .0243157
1116.196 .0243270
1116.793 .0243365
1117.391 .0243437
1117.989 .0243479
1118.588 .0243494
1119.187 .0243449
1119.787 .0243359
1120.387 .0243263
1120.988 .0243168
1121.589 .0243080
1122.190 .0243052
1122.793 .0243076
1123.395 .0243163
1123.998 .0243306
1124.602 .0243484
1125.206 .0243704
1125.811 .0243955
1126.416 .0244186
1127.022 .0244430
1127.628 .0244665
1128.235 .0244929
1128.843 .0245224
1129.451 .0245559
1130.059 .0245920
1130.669 .0246275
1131.278 .0246642
1131.889 .0246968
1132.500 .0247225
1133.112 .0247423
1133.724 .0247520
1134.337 .0247554
1134.950 .0247514
1135.564 .0247420
1136.179 .0247337
1136.795 .0247315
1137.411 .0247381
1138.028 .0247557
1138.645 .0247817
1139.263 .0248216
1139.882 .0248656
1140.502 .0249172
1141.122 .0249816
1141.743 .0250672
1142.365 .0251687
1142.987 .0250552
1143.611 .0252512
1144.235 .0255475
1144.859 .0259837
1145.485 .0259710
