Measurement Sequence started on: 09-46-08-630
Integration time: 30
Scans to Average: 2 
>>>>>Begin Spectral Data<<<<<
434.745 .1178222
435.665 .1134775
436.585 .1050479
437.503 .0953405
438.420 .0888032
439.335 .0871036
440.249 .0826857
441.162 .0790199
442.074 .0761502
442.984 .0739822
443.894 .0723015
444.802 .0709634
445.708 .0698767
446.614 .0689546
447.518 .0681599
448.422 .0674579
449.324 .0668540
450.224 .0663313
451.124 .0658827
452.022 .0654933
452.920 .0651293
453.816 .0647792
454.711 .0644505
455.605 .0641361
456.497 .0638440
457.389 .0635808
458.279 .0633481
459.169 .0631507
460.057 .0629979
460.944 .0628663
461.830 .0627530
462.715 .0626552
463.599 .0625643
464.482 .0624726
465.363 .0623863
466.244 .0623050
467.124 .0622359
468.002 .0621846
468.880 .0621497
469.756 .0621263
470.632 .0621136
471.506 .0621017
472.379 .0620835
473.252 .0620558
474.123 .0620182
474.994 .0619698
475.863 .0619216
476.731 .0618784
477.599 .0618472
478.465 .0618323
479.331 .0618378
480.195 .0618645
481.059 .0619074
481.921 .0619550
482.783 .0620142
483.643 .0620781
484.503 .0621420
485.362 .0622051
486.220 .0622685
487.077 .0623323
487.933 .0623964
488.788 .0624599
489.642 .0625221
490.496 .0625844
491.348 .0626517
492.200 .0627190
493.050 .0627935
493.900 .0628727
494.749 .0629547
495.597 .0630340
496.445 .0631142
497.291 .0631841
498.136 .0632411
498.981 .0632897
499.825 .0633245
500.668 .0633488
501.510 .0633700
502.352 .0633942
503.192 .0634265
504.032 .0634684
504.871 .0635213
505.709 .0635729
506.546 .0636214
507.383 .0636589
508.219 .0636880
509.054 .0637057
509.888 .0637318
510.722 .0637732
511.554 .0638449
512.386 .0639625
513.217 .0641277
514.048 .0643482
514.877 .0646224
515.706 .0649343
516.535 .0652763
517.362 .0656439
518.189 .0660325
519.015 .0664261
519.840 .0668386
520.665 .0672654
521.489 .0677075
522.312 .0681587
523.134 .0686219
523.956 .0690844
524.777 .0695513
525.598 .0700152
526.417 .0704504
527.236 .0708630
528.055 .0712423
528.872 .0715869
529.690 .0719028
530.506 .0721885
531.322 .0724428
532.137 .0726637
532.951 .0728730
533.765 .0730460
534.578 .0731775
535.391 .0732746
536.203 .0733178
537.014 .0733071
537.824 .0732359
538.634 .0730953
539.444 .0728890
540.253 .0726312
541.061 .0723232
541.868 .0719700
542.675 .0715941
543.482 .0712072
544.288 .0708248
545.093 .0704471
545.897 .0700715
546.702 .0696923
547.505 .0693167
548.308 .0689329
549.110 .0685227
549.912 .0680862
550.713 .0676332
551.514 .0671744
552.314 .0667268
553.114 .0662993
553.913 .0659189
554.711 .0655712
555.509 .0652600
556.306 .0649732
557.103 .0646959
557.900 .0644180
558.695 .0641297
559.491 .0638249
560.285 .0635200
561.080 .0632162
561.873 .0629270
562.667 .0626618
563.459 .0624380
564.252 .0622351
565.043 .0620404
565.835 .0618393
566.625 .0616254
567.416 .0613888
568.205 .0611337
568.995 .0608606
569.783 .0605805
570.572 .0603123
571.360 .0600588
572.147 .0598219
572.934 .0596127
573.720 .0594151
574.506 .0592290
575.292 .0590432
576.077 .0588515
576.862 .0586526
577.646 .0584521
578.429 .0582531
579.213 .0580588
579.996 .0578697
580.778 .0576896
581.560 .0575170
582.341 .0573528
583.123 .0571885
583.903 .0570239
584.684 .0568605
585.463 .0567000
586.243 .0565403
587.022 .0563889
587.800 .0562443
588.578 .0561136
589.356 .0559935
590.134 .0558848
590.911 .0557878
591.687 .0557015
592.463 .0556220
593.239 .0555498
594.014 .0554821
594.789 .0554204
595.564 .0553628
596.338 .0553109
597.112 .0552621
597.885 .0552174
598.658 .0551759
599.431 .0551381
600.203 .0551031
600.975 .0550722
601.747 .0550446
602.518 .0550222
603.289 .0550031
604.059 .0549868
604.829 .0549723
605.599 .0549592
606.369 .0549454
607.138 .0549309
607.906 .0549143
608.675 .0548958
609.443 .0548753
610.210 .0548540
610.977 .0548312
611.744 .0548080
612.511 .0547836
613.277 .0547577
614.043 .0547296
614.809 .0546985
615.574 .0546631
616.339 .0546239
617.104 .0545811
617.868 .0545352
618.632 .0544878
619.395 .0544398
620.159 .0543923
620.922 .0543474
621.684 .0543046
622.447 .0542638
623.209 .0542244
623.970 .0541860
624.732 .0541474
625.493 .0541084
626.254 .0540691
627.014 .0540294
627.774 .0539903
628.534 .0539527
629.294 .0539153
630.053 .0538797
630.812 .0538451
631.571 .0538108
632.329 .0537780
633.087 .0537456
633.845 .0537130
634.602 .0536812
635.359 .0536502
636.116 .0536205
636.873 .0535913
637.629 .0535631
638.385 .0535355
639.141 .0535079
639.897 .0534810
640.652 .0534539
641.407 .0534270
642.161 .0534015
642.916 .0533763
643.670 .0533531
644.424 .0533313
645.177 .0533101
645.931 .0532901
646.684 .0532702
647.436 .0532499
648.189 .0532282
648.941 .0532052
649.693 .0531828
650.445 .0531600
651.196 .0531378
651.947 .0531149
652.698 .0530918
653.449 .0530685
654.199 .0530444
654.949 .0530183
655.699 .0529907
656.449 .0529607
657.198 .0529284
657.947 .0528935
658.696 .0528565
659.445 .0528179
660.193 .0527776
660.941 .0527367
661.689 .0526952
662.436 .0526518
663.184 .0526087
663.931 .0525646
664.678 .0525207
665.424 .0524756
666.171 .0524297
666.917 .0523833
667.663 .0523370
668.408 .0522915
669.154 .0522461
669.899 .0522011
670.644 .0521568
671.388 .0521112
672.133 .0520650
672.877 .0520181
673.621 .0519703
674.365 .0519218
675.108 .0518728
675.851 .0518238
676.594 .0517751
677.337 .0517263
678.080 .0516782
678.822 .0516306
679.564 .0515831
680.306 .0515359
681.047 .0514882
681.789 .0514407
682.530 .0513938
683.271 .0513482
684.012 .0513042
684.752 .0512620
685.492 .0512227
686.232 .0511855
686.972 .0511506
687.712 .0511184
688.451 .0510878
689.190 .0510588
689.929 .0510321
690.667 .0510068
691.406 .0509827
692.144 .0509596
692.882 .0509375
693.620 .0509163
694.357 .0508961
695.095 .0508763
695.832 .0508567
696.569 .0508379
697.305 .0508195
698.042 .0508008
698.778 .0507821
699.514 .0507631
700.249 .0507431
700.985 .0507220
701.720 .0506997
702.455 .0506764
703.190 .0506531
703.925 .0506299
704.659 .0506071
705.393 .0505854
706.127 .0505635
706.861 .0505418
707.595 .0505200
708.328 .0504983
709.061 .0504758
709.794 .0504528
710.527 .0504293
711.259 .0504052
711.991 .0503808
712.723 .0503561
713.455 .0503303
714.186 .0503043
714.918 .0502765
715.649 .0502470
716.380 .0502153
717.110 .0501819
717.841 .0501467
718.571 .0501105
719.301 .0500731
720.031 .0500351
720.760 .0499961
721.490 .0499568
722.219 .0499167
722.948 .0498757
723.676 .0498340
724.405 .0497919
725.133 .0497494
725.861 .0497067
726.589 .0496641
727.317 .0496222
728.044 .0495805
728.771 .0495395
729.498 .0494987
730.225 .0494584
730.951 .0494183
731.677 .0493784
732.403 .0493385
733.129 .0492986
733.855 .0492587
734.580 .0492185
735.305 .0491780
736.030 .0491374
736.755 .0490964
737.479 .0490555
738.203 .0490148
738.927 .0489743
739.651 .0489342
740.375 .0488943
741.098 .0488541
741.821 .0488142
742.544 .0487743
743.267 .0487343
743.989 .0486943
744.711 .0486553
745.433 .0486174
746.155 .0485810
746.877 .0485466
747.598 .0485139
748.319 .0484832
749.040 .0484538
749.760 .0484254
750.481 .0483977
751.201 .0483708
751.921 .0483440
752.640 .0483175
753.360 .0482919
754.079 .0482670
754.798 .0482426
755.517 .0482194
756.235 .0481970
756.953 .0481750
757.671 .0481532
758.389 .0481314
759.107 .0481094
759.824 .0480873
760.541 .0480645
761.258 .0480411
761.974 .0480176
762.691 .0479944
763.407 .0479713
764.123 .0479495
764.838 .0479288
765.554 .0479092
766.269 .0478902
766.984 .0478716
767.699 .0478533
768.413 .0478347
769.127 .0478155
769.841 .0477955
770.555 .0477747
771.268 .0477538
771.982 .0477331
772.694 .0477128
773.407 .0476934
774.120 .0476744
774.832 .0476559
775.544 .0476375
776.256 .0476192
776.967 .0476010
777.678 .0475832
778.389 .0475658
779.100 .0475490
779.810 .0475324
780.521 .0475166
781.231 .0475009
781.940 .0474852
782.650 .0474686
783.359 .0474507
784.068 .0474311
784.776 .0474104
785.485 .0473879
786.193 .0473641
786.901 .0473387
787.609 .0473127
788.316 .0472853
789.023 .0472573
789.730 .0472281
790.436 .0471987
791.143 .0471682
791.849 .0471373
792.555 .0471051
793.260 .0470724
793.965 .0470391
794.670 .0470053
795.375 .0469708
796.080 .0469364
796.784 .0469012
797.488 .0468665
798.191 .0468323
798.895 .0467990
799.598 .0467661
800.301 .0467338
801.003 .0467016
801.705 .0466692
802.408 .0466360
803.109 .0466023
803.811 .0465679
804.512 .0465332
805.213 .0464974
805.913 .0464615
806.614 .0464254
807.314 .0463894
808.014 .0463528
808.713 .0463167
809.412 .0462797
810.111 .0462422
810.810 .0462036
811.508 .0461637
812.206 .0461236
812.904 .0460824
813.602 .0460403
814.299 .0459984
814.996 .0459564
815.692 .0459152
816.389 .0458748
817.085 .0458359
817.781 .0457981
818.476 .0457618
819.171 .0457266
819.866 .0456920
820.561 .0456578
821.255 .0456239
821.949 .0455899
822.643 .0455559
823.336 .0455218
824.029 .0454872
824.722 .0454528
825.415 .0454186
826.107 .0453843
826.799 .0453509
827.490 .0453180
828.182 .0452865
828.873 .0452557
829.563 .0452255
830.254 .0451960
830.944 .0451668
831.634 .0451386
832.323 .0451109
833.012 .0450845
833.701 .0450596
834.390 .0450365
835.078 .0450161
835.766 .0449982
836.453 .0449832
837.141 .0449707
837.828 .0449603
838.514 .0449509
839.201 .0449421
839.887 .0449337
840.572 .0449253
841.258 .0449171
841.943 .0449089
842.628 .0449007
843.312 .0448928
843.996 .0448856
844.680 .0448783
845.363 .0448707
846.046 .0448635
846.729 .0448551
847.412 .0448459
848.094 .0448358
848.776 .0448246
849.457 .0448123
850.139 .0447991
850.819 .0447856
851.500 .0447716
852.180 .0447582
852.860 .0447451
853.540 .0447324
854.219 .0447210
854.898 .0447100
855.576 .0446991
856.254 .0446885
856.932 .0446778
857.610 .0446665
858.287 .0446544
858.964 .0446421
859.640 .0446292
860.317 .0446164
860.993 .0446034
861.668 .0445903
862.343 .0445770
863.018 .0445636
863.693 .0445498
864.367 .0445355
865.041 .0445211
865.714 .0445065
866.387 .0444915
867.060 .0444765
867.732 .0444611
868.404 .0444450
869.076 .0444285
869.748 .0444114
870.419 .0443933
871.089 .0443737
871.760 .0443531
872.430 .0443312
873.099 .0443086
873.769 .0442853
874.438 .0442611
875.106 .0442366
875.774 .0442125
876.442 .0441885
877.110 .0441647
877.777 .0441415
878.444 .0441183
879.110 .0440951
879.776 .0440720
880.442 .0440489
881.108 .0440262
881.773 .0440040
882.437 .0439827
883.102 .0439618
883.766 .0439417
884.429 .0439220
885.093 .0439021
885.755 .0438821
886.418 .0438607
887.080 .0438373
887.742 .0438122
888.403 .0437851
889.064 .0437562
889.725 .0437258
890.385 .0436942
891.045 .0436615
891.705 .0436280
892.364 .0435932
893.023 .0435578
893.682 .0435219
894.340 .0434853
894.998 .0434483
895.655 .0434118
896.312 .0433756
896.969 .0433399
897.625 .0433051
898.281 .0432712
898.937 .0432383
899.592 .0432065
900.247 .0431755
900.901 .0431458
901.555 .0431177
902.209 .0430907
902.862 .0430644
903.515 .0430399
904.168 .0430161
904.820 .0429924
905.472 .0429688
906.123 .0429446
906.774 .0429200
907.425 .0428947
908.076 .0428683
908.726 .0428405
909.375 .0428117
910.024 .0427814
910.673 .0427491
911.322 .0427155
911.970 .0426802
912.618 .0426434
913.265 .0426058
913.912 .0425675
914.558 .0425282
915.205 .0424887
915.850 .0424496
916.496 .0424100
917.141 .0423708
917.786 .0423312
918.430 .0422911
919.074 .0422514
919.718 .0422121
920.361 .0421733
921.004 .0421354
921.646 .0420989
922.288 .0420638
922.930 .0420298
923.571 .0419964
924.212 .0419637
924.853 .0419314
925.493 .0418992
926.133 .0418669
926.772 .0418344
927.411 .0418029
928.050 .0417718
928.688 .0417412
929.326 .0417111
929.963 .0416815
930.600 .0416529
931.237 .0416247
931.874 .0415974
932.510 .0415716
933.145 .0415464
933.780 .0415223
934.415 .0414995
935.050 .0414778
935.684 .0414575
936.318 .0414388
936.951 .0414215
937.584 .0414053
938.217 .0413907
938.849 .0413771
939.481 .0413642
940.112 .0413522
940.743 .0413403
941.374 .0413282
942.004 .0413165
942.634 .0413053
943.264 .0412940
943.893 .0412837
944.522 .0412745
945.150 .0412656
945.778 .0412573
946.406 .0412486
947.033 .0412391
947.660 .0412284
948.287 .0412170
948.913 .0412041
949.539 .0411903
950.165 .0411769
950.790 .0411635
951.414 .0411515
952.039 .0411411
952.663 .0411319
953.286 .0411233
953.910 .0411156
954.533 .0411076
955.155 .0410989
955.777 .0410898
956.399 .0410803
957.020 .0410706
957.641 .0410617
958.262 .0410529
958.882 .0410445
959.502 .0410370
960.122 .0410308
960.741 .0410250
961.360 .0410205
961.979 .0410163
962.597 .0410120
963.214 .0410071
963.832 .0410020
964.449 .0409959
965.066 .0409900
965.682 .0409848
966.298 .0409807
966.914 .0409784
967.529 .0409785
968.144 .0409809
968.758 .0409859
969.373 .0409921
969.986 .0409982
970.600 .0410031
971.213 .0410067
971.826 .0410084
972.438 .0410085
973.050 .0410079
973.662 .0410070
974.274 .0410052
974.885 .0410033
975.495 .0410004
976.106 .0409964
976.716 .0409907
977.325 .0409826
977.935 .0409722
978.544 .0409589
979.152 .0409433
979.761 .0409258
980.369 .0409072
980.976 .0408883
981.584 .0408688
982.191 .0408498
982.797 .0408314
983.404 .0408136
984.010 .0407964
984.615 .0407797
985.221 .0407628
985.826 .0407453
986.430 .0407263
987.035 .0407061
987.639 .0406858
988.243 .0406658
988.846 .0406472
989.449 .0406310
990.052 .0406176
990.654 .0406068
991.256 .0405985
991.858 .0405914
992.460 .0405844
993.061 .0405771
993.662 .0405682
994.262 .0405578
994.863 .0405463
995.463 .0405341
996.062 .0405213
996.662 .0405093
997.261 .0404971
997.860 .0404844
998.458 .0404714
999.056 .0404572
999.654 .0404413
1000.252 .0404241
1000.849 .0404055
1001.446 .0403853
1002.043 .0403650
1002.639 .0403441
1003.235 .0403227
1003.831 .0403025
1004.427 .0402830
1005.022 .0402642
1005.617 .0402466
1006.212 .0402303
1006.806 .0402144
1007.401 .0401995
1007.995 .0401858
1008.588 .0401711
1009.182 .0401566
1009.775 .0401411
1010.368 .0401238
1010.960 .0401052
1011.553 .0400855
1012.145 .0400642
1012.737 .0400416
1013.328 .0400184
1013.920 .0399931
1014.511 .0399669
1015.102 .0399405
1015.692 .0399133
1016.283 .0398857
1016.873 .0398581
1017.463 .0398300
1018.052 .0398006
1018.642 .0397716
1019.231 .0397410
1019.820 .0397098
1020.409 .0396785
1020.997 .0396464
1021.585 .0396140
1022.173 .0395819
1022.761 .0395508
1023.349 .0395208
1023.936 .0394922
1024.524 .0394642
1025.111 .0394358
1025.697 .0394075
1026.284 .0393782
1026.870 .0393487
1027.457 .0393196
1028.043 .0392913
1028.628 .0392640
1029.214 .0392387
1029.800 .0392148
1030.385 .0391929
1030.970 .0391724
1031.555 .0391528
1032.139 .0391336
1032.724 .0391132
1033.308 .0390912
1033.893 .0390677
1034.477 .0390424
1035.060 .0390161
1035.644 .0389881
1036.228 .0389602
1036.811 .0389316
1037.394 .0389038
1037.977 .0388762
1038.560 .0388490
1039.143 .0388227
1039.726 .0387962
1040.308 .0387688
1040.891 .0387411
1041.473 .0387122
1042.055 .0386837
1042.637 .0386558
1043.219 .0386292
1043.801 .0386044
1044.382 .0385826
1044.964 .0385623
1045.545 .0385436
1046.127 .0385261
1046.708 .0385092
1047.289 .0384922
1047.870 .0384749
1048.451 .0384572
1049.032 .0384401
1049.612 .0384255
1050.193 .0384128
1050.774 .0384020
1051.354 .0383951
1051.935 .0383896
1052.515 .0383860
1053.095 .0383839
1053.675 .0383826
1054.256 .0383820
1054.836 .0383829
1055.416 .0383845
1055.996 .0383874
1056.576 .0383915
1057.156 .0383971
1057.735 .0384029
1058.315 .0384096
1058.895 .0384157
1059.475 .0384204
1060.055 .0384248
1060.634 .0384285
1061.214 .0384300
1061.794 .0384314
1062.373 .0384314
1062.953 .0384317
1063.533 .0384314
1064.113 .0384314
1064.692 .0384307
1065.272 .0384306
1065.852 .0384303
1066.431 .0384294
1067.011 .0384283
1067.591 .0384281
1068.171 .0384272
1068.751 .0384268
1069.331 .0384251
1069.910 .0384216
1070.490 .0384156
1071.071 .0384091
1071.651 .0384012
1072.231 .0383943
1072.811 .0383883
1073.391 .0383857
1073.972 .0383864
1074.552 .0383922
1075.133 .0384005
1075.713 .0384106
1076.294 .0384209
1076.875 .0384296
1077.456 .0384355
1078.037 .0384390
1078.618 .0384407
1079.199 .0384447
1079.780 .0384516
1080.362 .0384628
1080.943 .0384780
1081.525 .0384968
1082.107 .0385176
1082.689 .0385365
1083.271 .0385514
1083.853 .0385608
1084.436 .0385634
1085.018 .0385614
1085.601 .0385556
1086.184 .0385489
1086.767 .0385435
1087.351 .0385406
1087.934 .0385426
1088.518 .0385477
1089.102 .0385549
1089.686 .0385630
1090.270 .0385715
1090.855 .0385807
1091.439 .0385879
1092.024 .0385934
1092.609 .0385991
1093.195 .0386058
1093.780 .0386140
1094.366 .0386230
1094.952 .0386356
1095.539 .0386532
1096.125 .0386729
1096.712 .0386952
1097.299 .0387189
1097.887 .0387434
1098.475 .0387683
1099.063 .0387924
1099.651 .0388170
1100.239 .0388409
1100.828 .0388648
1101.417 .0388895
1102.007 .0389158
1102.597 .0389437
1103.187 .0389713
1103.777 .0389969
1104.368 .0390238
1104.959 .0390486
1105.551 .0390696
1106.143 .0390890
1106.735 .0391069
1107.328 .0391240
1107.921 .0391391
1108.514 .0391530
1109.108 .0391692
1109.702 .0391831
1110.296 .0391962
1110.891 .0392053
1111.486 .0392132
1112.082 .0392215
1112.678 .0392299
1113.275 .0392433
1113.872 .0392628
1114.469 .0392892
1115.067 .0393201
1115.665 .0393562
1116.264 .0393989
1116.864 .0394436
1117.463 .0394886
1118.063 .0395343
1118.664 .0395800
1119.265 .0396247
1119.867 .0396718
1120.469 .0397230
1121.072 .0397798
1121.675 .0398426
1122.279 .0399068
1122.883 .0399721
1123.488 .0400355
1124.093 .0400976
1124.699 .0401558
1125.305 .0402105
1125.912 .0402601
1126.520 .0403044
1127.128 .0403465
1127.737 .0403898
1128.346 .0404356
1128.956 .0404846
1129.567 .0405374
1130.178 .0405957
1130.790 .0406558
1131.402 .0407166
1132.015 .0407793
1132.629 .0408473
1133.243 .0409228
1133.858 .0410057
1134.474 .0410966
1135.090 .0411965
1135.707 .0413096
1136.325 .0414332
1136.943 .0415643
1137.562 .0417001
1138.182 .0418382
1138.802 .0419750
1139.423 .0421128
1140.045 .0422534
1140.668 .0423931
1141.291 .0425397
1141.916 .0426846
1142.540 .0428474
1143.166 .0431041
1143.793 .0430808
1144.420 .0433289
1145.048 .0433003
