Measurement Sequence started on: 14-45-04-498
Integration time: 36
Scans to Average: 2 
>>>>>Begin Spectral Data<<<<<
433.946 .0702259
434.870 .0513947
435.793 .0483135
436.715 .0445450
437.635 .0418042
438.555 .0438891
439.473 .0420945
440.389 .0411457
441.305 .0404288
442.219 .0399035
443.132 .0395093
444.044 .0391548
444.954 .0389162
445.863 .0387516
446.771 .0386465
447.678 .0385877
448.584 .0385480
449.488 .0385005
450.391 .0384453
451.293 .0383799
452.194 .0383072
453.094 .0382382
453.992 .0381791
454.890 .0381221
455.786 .0380691
456.681 .0380313
457.575 .0379906
458.468 .0379433
459.360 .0379035
460.250 .0378607
461.140 .0378111
462.028 .0377705
462.915 .0377275
463.801 .0376805
464.687 .0376264
465.571 .0375692
466.454 .0375021
467.335 .0374321
468.216 .0373606
469.096 .0372835
469.975 .0372103
470.853 .0371424
471.729 .0370689
472.605 .0369948
473.479 .0369202
474.353 .0368419
475.226 .0367555
476.097 .0366680
476.968 .0365753
477.838 .0364840
478.706 .0363998
479.574 .0363241
480.441 .0362570
481.306 .0362039
482.171 .0361585
483.035 .0361199
483.898 .0360947
484.760 .0360783
485.621 .0360687
486.481 .0360666
487.340 .0360701
488.198 .0360749
489.055 .0360788
489.912 .0360802
490.767 .0360745
491.622 .0360642
492.476 .0360451
493.329 .0360145
494.180 .0359785
495.032 .0359383
495.882 .0358909
496.731 .0358388
497.580 .0357831
498.427 .0357175
499.274 .0356440
500.120 .0355602
500.965 .0354705
501.809 .0353774
502.653 .0352860
503.495 .0351989
504.337 .0351214
505.178 .0350558
506.018 .0349971
506.858 .0349476
507.696 .0349057
508.534 .0348676
509.371 .0348333
510.208 .0348041
511.043 .0347884
511.878 .0347840
512.712 .0347952
513.545 .0348227
514.377 .0348705
515.209 .0349279
516.040 .0349868
516.870 .0350438
517.699 .0350956
518.528 .0351389
519.356 .0351741
520.183 .0352042
521.010 .0352362
521.836 .0352772
522.661 .0353210
523.485 .0353622
524.309 .0354026
525.132 .0354232
525.954 .0354256
526.776 .0354036
527.597 .0353599
528.417 .0352954
529.237 .0352197
530.056 .0351441
530.874 .0350628
531.692 .0349783
532.508 .0348906
533.325 .0347935
534.140 .0346944
534.955 .0345790
535.770 .0344482
536.583 .0343131
537.397 .0341843
538.209 .0340609
539.021 .0339484
539.832 .0338479
540.643 .0337580
541.453 .0336672
542.262 .0335759
543.071 .0334802
543.879 .0333818
544.687 .0332892
545.494 .0332024
546.300 .0331282
547.106 .0330797
547.911 .0330525
548.716 .0330537
549.520 .0330739
550.323 .0331048
551.126 .0331297
551.929 .0331436
552.731 .0331463
553.532 .0331332
554.332 .0331114
555.133 .0330889
555.932 .0330691
556.731 .0330587
557.530 .0330583
558.328 .0330647
559.125 .0330770
559.922 .0330896
560.719 .0330945
561.515 .0330881
562.310 .0330734
563.105 .0330490
563.899 .0330161
564.693 .0329828
565.487 .0329501
566.280 .0329185
567.072 .0328897
567.864 .0328606
568.655 .0328291
569.446 .0327916
570.236 .0327459
571.026 .0326894
571.816 .0326256
572.605 .0325568
573.393 .0324870
574.181 .0324191
574.969 .0323562
575.756 .0322992
576.543 .0322466
577.329 .0321990
578.115 .0321547
578.900 .0321111
579.685 .0320689
580.469 .0320280
581.253 .0319915
582.036 .0319583
582.820 .0319321
583.602 .0319106
584.384 .0318943
585.166 .0318812
585.947 .0318685
586.728 .0318544
587.509 .0318392
588.289 .0318221
589.069 .0318030
589.848 .0317850
590.627 .0317690
591.405 .0317552
592.183 .0317456
592.961 .0317397
593.738 .0317366
594.515 .0317337
595.291 .0317302
596.067 .0317250
596.843 .0317178
597.618 .0317080
598.393 .0316968
599.167 .0316859
599.941 .0316746
600.715 .0316631
601.488 .0316517
602.261 .0316411
603.034 .0316299
603.806 .0316162
604.578 .0316002
605.349 .0315816
606.121 .0315608
606.891 .0315370
607.662 .0315120
608.432 .0314862
609.201 .0314591
609.971 .0314317
610.740 .0314039
611.508 .0313755
612.277 .0313467
613.045 .0313178
613.812 .0312886
614.579 .0312589
615.346 .0312281
616.113 .0311969
616.879 .0311660
617.645 .0311359
618.411 .0311057
619.176 .0310757
619.941 .0310468
620.705 .0310175
621.470 .0309889
622.233 .0309611
622.997 .0309340
623.760 .0309075
624.523 .0308814
625.286 .0308560
626.048 .0308311
626.810 .0308070
627.572 .0307839
628.333 .0307615
629.095 .0307398
629.855 .0307184
630.616 .0306974
631.376 .0306775
632.136 .0306591
632.895 .0306416
633.655 .0306267
634.414 .0306132
635.172 .0306017
635.931 .0305911
636.689 .0305819
637.447 .0305746
638.204 .0305679
638.962 .0305618
639.718 .0305569
640.475 .0305527
641.231 .0305486
641.988 .0305439
642.743 .0305387
643.499 .0305322
644.254 .0305240
645.009 .0305137
645.764 .0305018
646.518 .0304892
647.272 .0304761
648.026 .0304623
648.780 .0304489
649.533 .0304363
650.286 .0304236
651.039 .0304108
651.792 .0303975
652.544 .0303834
653.296 .0303684
654.048 .0303519
654.799 .0303345
655.550 .0303162
656.301 .0302972
657.052 .0302779
657.802 .0302586
658.552 .0302398
659.302 .0302213
660.052 .0302037
660.801 .0301865
661.550 .0301696
662.299 .0301530
663.048 .0301362
663.796 .0301191
664.544 .0301014
665.292 .0300824
666.040 .0300626
666.787 .0300433
667.534 .0300240
668.281 .0300053
669.028 .0299880
669.774 .0299721
670.521 .0299570
671.266 .0299425
672.012 .0299284
672.758 .0299133
673.503 .0298976
674.248 .0298801
674.992 .0298607
675.737 .0298403
676.481 .0298189
677.225 .0297981
677.969 .0297786
678.712 .0297608
679.455 .0297446
680.199 .0297306
680.941 .0297190
681.684 .0297086
682.426 .0296988
683.168 .0296893
683.910 .0296801
684.652 .0296704
685.393 .0296604
686.134 .0296504
686.875 .0296418
687.616 .0296341
688.356 .0296273
689.097 .0296213
689.837 .0296150
690.576 .0296081
691.316 .0295996
692.055 .0295891
692.794 .0295766
693.533 .0295619
694.272 .0295450
695.010 .0295270
695.748 .0295092
696.486 .0294910
697.224 .0294734
697.962 .0294564
698.699 .0294401
699.436 .0294243
700.173 .0294091
700.909 .0293943
701.646 .0293810
702.382 .0293694
703.118 .0293594
703.853 .0293515
704.589 .0293458
705.324 .0293418
706.059 .0293387
706.794 .0293361
707.529 .0293332
708.263 .0293290
708.997 .0293241
709.731 .0293173
710.465 .0293097
711.198 .0293011
711.931 .0292917
712.664 .0292817
713.397 .0292705
714.130 .0292576
714.862 .0292424
715.594 .0292250
716.326 .0292061
717.058 .0291857
717.789 .0291652
718.520 .0291449
719.251 .0291260
719.982 .0291087
720.713 .0290936
721.443 .0290795
722.173 .0290665
722.903 .0290531
723.633 .0290395
724.362 .0290250
725.091 .0290096
725.820 .0289940
726.549 .0289789
727.278 .0289646
728.006 .0289510
728.734 .0289378
729.462 .0289252
730.190 .0289126
730.917 .0289002
731.644 .0288875
732.371 .0288745
733.098 .0288608
733.825 .0288474
734.551 .0288335
735.277 .0288199
736.003 .0288064
736.728 .0287929
737.454 .0287799
738.179 .0287670
738.904 .0287537
739.629 .0287406
740.353 .0287281
741.077 .0287165
741.801 .0287047
742.525 .0286935
743.249 .0286827
743.972 .0286719
744.695 .0286612
745.418 .0286504
746.141 .0286390
746.863 .0286281
747.585 .0286171
748.307 .0286061
749.029 .0285960
749.750 .0285863
750.472 .0285774
751.193 .0285691
751.913 .0285611
752.634 .0285529
753.354 .0285445
754.074 .0285372
754.794 .0285299
755.514 .0285228
756.233 .0285162
756.952 .0285099
757.671 .0285044
758.390 .0284990
759.108 .0284940
759.826 .0284893
760.544 .0284854
761.262 .0284812
761.979 .0284768
762.697 .0284726
763.414 .0284686
764.130 .0284641
764.847 .0284594
765.563 .0284542
766.279 .0284486
766.995 .0284430
767.710 .0284377
768.426 .0284325
769.141 .0284277
769.855 .0284231
770.570 .0284187
771.284 .0284140
771.998 .0284098
772.712 .0284054
773.426 .0284015
774.139 .0283980
774.852 .0283948
775.565 .0283922
776.277 .0283903
776.990 .0283886
777.702 .0283870
778.414 .0283848
779.125 .0283815
779.836 .0283764
780.547 .0283698
781.258 .0283615
781.969 .0283523
782.679 .0283427
783.389 .0283329
784.099 .0283231
784.808 .0283137
785.517 .0283049
786.226 .0282964
786.935 .0282886
787.643 .0282811
788.352 .0282744
789.060 .0282684
789.767 .0282624
790.475 .0282561
791.182 .0282496
791.889 .0282425
792.595 .0282347
793.301 .0282257
794.008 .0282155
794.713 .0282041
795.419 .0281919
796.124 .0281786
796.829 .0281644
797.534 .0281490
798.238 .0281329
798.942 .0281158
799.646 .0280976
800.350 .0280786
801.053 .0280591
801.756 .0280395
802.459 .0280198
803.162 .0280001
803.864 .0279810
804.566 .0279624
805.267 .0279448
805.969 .0279276
806.670 .0279116
807.371 .0278969
808.071 .0278836
808.772 .0278712
809.472 .0278598
810.171 .0278490
810.871 .0278382
811.570 .0278277
812.269 .0278170
812.967 .0278056
813.666 .0277939
814.364 .0277819
815.061 .0277695
815.759 .0277572
816.456 .0277448
817.153 .0277321
817.849 .0277196
818.545 .0277070
819.241 .0276939
819.937 .0276810
820.632 .0276687
821.327 .0276565
822.022 .0276443
822.717 .0276323
823.411 .0276199
824.105 .0276077
824.798 .0275950
825.491 .0275816
826.184 .0275683
826.877 .0275553
827.569 .0275423
828.261 .0275302
828.953 .0275188
829.645 .0275077
830.336 .0274977
831.027 .0274890
831.717 .0274809
832.407 .0274738
833.097 .0274680
833.787 .0274635
834.476 .0274604
835.165 .0274588
835.854 .0274578
836.542 .0274583
837.230 .0274599
837.918 .0274614
838.605 .0274627
839.292 .0274644
839.979 .0274658
840.665 .0274666
841.352 .0274669
842.037 .0274658
842.723 .0274629
843.408 .0274580
844.093 .0274503
844.777 .0274398
845.462 .0274266
846.145 .0274107
846.829 .0273925
847.512 .0273734
848.195 .0273543
848.878 .0273356
849.560 .0273186
850.242 .0273040
850.923 .0272915
851.605 .0272807
852.286 .0272720
852.966 .0272645
853.646 .0272583
854.326 .0272526
855.006 .0272470
855.685 .0272415
856.364 .0272362
857.043 .0272306
857.721 .0272252
858.399 .0272201
859.077 .0272147
859.754 .0272083
860.431 .0272015
861.107 .0271936
861.784 .0271842
862.459 .0271740
863.135 .0271629
863.810 .0271514
864.485 .0271400
865.160 .0271289
865.834 .0271187
866.508 .0271102
867.181 .0271031
867.854 .0270971
868.527 .0270927
869.199 .0270893
869.872 .0270860
870.543 .0270831
871.215 .0270798
871.886 .0270758
872.557 .0270705
873.227 .0270636
873.897 .0270543
874.567 .0270427
875.236 .0270291
875.905 .0270135
876.573 .0269962
877.242 .0269774
877.909 .0269578
878.577 .0269380
879.244 .0269180
879.911 .0268982
880.577 .0268786
881.243 .0268591
881.909 .0268396
882.575 .0268201
883.240 .0268008
883.904 .0267820
884.569 .0267645
885.232 .0267482
885.896 .0267338
886.559 .0267211
887.222 .0267100
887.885 .0267003
888.547 .0266919
889.208 .0266832
889.870 .0266742
890.531 .0266642
891.192 .0266531
891.852 .0266407
892.512 .0266276
893.171 .0266136
893.830 .0265992
894.489 .0265842
895.148 .0265692
895.806 .0265536
896.464 .0265386
897.121 .0265238
897.778 .0265102
898.434 .0264972
899.091 .0264850
899.747 .0264735
900.402 .0264633
901.057 .0264541
901.712 .0264456
902.366 .0264372
903.020 .0264294
903.674 .0264217
904.327 .0264145
904.980 .0264079
905.633 .0264019
906.285 .0263967
906.936 .0263922
907.588 .0263879
908.239 .0263834
908.889 .0263785
909.540 .0263734
910.190 .0263678
910.839 .0263615
911.488 .0263544
912.137 .0263466
912.785 .0263392
913.433 .0263319
914.081 .0263249
914.728 .0263191
915.375 .0263139
916.021 .0263094
916.668 .0263047
917.313 .0263002
917.959 .0262954
918.604 .0262899
919.248 .0262833
919.892 .0262756
920.536 .0262662
921.180 .0262555
921.823 .0262433
922.465 .0262305
923.108 .0262168
923.750 .0262022
924.391 .0261868
925.032 .0261710
925.673 .0261547
926.313 .0261386
926.953 .0261223
927.593 .0261067
928.232 .0260916
928.871 .0260771
929.510 .0260633
930.148 .0260502
930.786 .0260377
931.423 .0260261
932.060 .0260155
932.697 .0260059
933.333 .0259968
933.969 .0259887
934.604 .0259811
935.239 .0259743
935.874 .0259674
936.508 .0259607
937.142 .0259540
937.776 .0259476
938.409 .0259408
939.042 .0259331
939.674 .0259248
940.306 .0259156
940.938 .0259053
941.569 .0258938
942.200 .0258808
942.830 .0258669
943.460 .0258519
944.090 .0258368
944.720 .0258215
945.349 .0258065
945.977 .0257922
946.606 .0257784
947.233 .0257639
947.861 .0257487
948.488 .0257325
949.115 .0257155
949.741 .0256979
950.367 .0256799
950.993 .0256620
951.618 .0256453
952.243 .0256298
952.868 .0256158
953.492 .0256029
954.115 .0255910
954.739 .0255783
955.362 .0255650
955.984 .0255503
956.607 .0255344
957.229 .0255183
957.850 .0255024
958.471 .0254870
959.092 .0254726
959.713 .0254590
960.333 .0254458
960.952 .0254331
961.572 .0254204
962.191 .0254070
962.809 .0253929
963.428 .0253781
964.045 .0253623
964.663 .0253464
965.280 .0253311
965.897 .0253164
966.513 .0253034
967.129 .0252921
967.745 .0252818
968.361 .0252727
968.976 .0252643
969.590 .0252558
970.205 .0252473
970.818 .0252391
971.432 .0252305
972.045 .0252222
972.658 .0252151
973.271 .0252090
973.883 .0252042
974.495 .0252004
975.106 .0251972
975.717 .0251943
976.328 .0251910
976.938 .0251861
977.548 .0251801
978.158 .0251734
978.768 .0251658
979.377 .0251575
979.985 .0251495
980.594 .0251419
981.202 .0251341
981.809 .0251266
982.417 .0251182
983.024 .0251088
983.631 .0250981
984.237 .0250854
984.843 .0250713
985.449 .0250569
986.054 .0250420
986.659 .0250280
987.264 .0250155
987.868 .0250041
988.472 .0249936
989.076 .0249839
989.679 .0249749
990.282 .0249651
990.885 .0249547
991.487 .0249444
992.090 .0249331
992.691 .0249222
993.293 .0249108
993.894 .0249003
994.495 .0248916
995.095 .0248838
995.696 .0248767
996.296 .0248706
996.895 .0248651
997.494 .0248600
998.093 .0248543
998.692 .0248490
999.291 .0248437
999.889 .0248381
1000.487 .0248330
1001.084 .0248290
1001.681 .0248258
1002.278 .0248242
1002.875 .0248236
1003.471 .0248245
1004.067 .0248261
1004.663 .0248279
1005.258 .0248294
1005.854 .0248301
1006.449 .0248293
1007.043 .0248258
1007.638 .0248196
1008.232 .0248123
1008.826 .0248033
1009.419 .0247936
1010.012 .0247840
1010.605 .0247753
1011.198 .0247666
1011.791 .0247586
1012.383 .0247505
1012.975 .0247429
1013.566 .0247348
1014.158 .0247264
1014.749 .0247177
1015.340 .0247101
1015.931 .0247033
1016.521 .0246981
1017.111 .0246949
1017.701 .0246935
1018.291 .0246935
1018.880 .0246938
1019.470 .0246938
1020.059 .0246933
1020.647 .0246917
1021.236 .0246891
1021.824 .0246858
1022.412 .0246832
1023.000 .0246811
1023.588 .0246806
1024.175 .0246821
1024.762 .0246853
1025.349 .0246901
1025.936 .0246963
1026.523 .0247029
1027.109 .0247098
1027.695 .0247167
1028.281 .0247233
1028.867 .0247300
1029.452 .0247375
1030.038 .0247459
1030.623 .0247560
1031.208 .0247672
1031.792 .0247798
1032.377 .0247927
1032.961 .0248060
1033.546 .0248179
1034.130 .0248281
1034.714 .0248355
1035.297 .0248400
1035.881 .0248419
1036.464 .0248426
1037.047 .0248423
1037.630 .0248422
1038.213 .0248429
1038.796 .0248451
1039.378 .0248482
1039.961 .0248522
1040.543 .0248552
1041.125 .0248577
1041.707 .0248587
1042.289 .0248579
1042.871 .0248551
1043.452 .0248530
1044.034 .0248514
1044.615 .0248517
1045.196 .0248536
1045.777 .0248575
1046.358 .0248619
1046.939 .0248670
1047.520 .0248720
1048.101 .0248757
1048.681 .0248774
1049.262 .0248783
1049.842 .0248765
1050.422 .0248751
1051.002 .0248734
1051.582 .0248717
1052.162 .0248708
1052.742 .0248712
1053.322 .0248714
1053.902 .0248709
1054.482 .0248708
1055.061 .0248711
1055.641 .0248706
1056.220 .0248708
1056.800 .0248699
1057.379 .0248688
1057.958 .0248684
1058.538 .0248680
1059.117 .0248690
1059.696 .0248717
1060.275 .0248755
1060.854 .0248797
1061.433 .0248851
1062.012 .0248907
1062.592 .0248964
1063.171 .0249016
1063.750 .0249065
1064.329 .0249096
1064.908 .0249116
1065.487 .0249121
1066.066 .0249127
1066.645 .0249137
1067.224 .0249154
1067.803 .0249173
1068.382 .0249195
1068.961 .0249209
1069.540 .0249217
1070.119 .0249213
1070.698 .0249215
1071.278 .0249213
1071.857 .0249207
1072.436 .0249195
1073.016 .0249193
1073.595 .0249185
1074.175 .0249166
1074.754 .0249140
1075.334 .0249097
1075.913 .0249029
1076.493 .0248951
1077.073 .0248867
1077.653 .0248784
1078.233 .0248725
1078.813 .0248671
1079.393 .0248635
1079.974 .0248613
1080.554 .0248589
1081.135 .0248546
1081.716 .0248490
1082.296 .0248421
1082.877 .0248317
1083.458 .0248194
1084.040 .0248076
1084.621 .0247944
1085.202 .0247834
1085.784 .0247738
1086.366 .0247668
1086.948 .0247629
1087.530 .0247626
1088.112 .0247655
1088.695 .0247694
1089.277 .0247754
1089.860 .0247805
1090.443 .0247831
1091.026 .0247854
1091.610 .0247851
1092.193 .0247829
1092.777 .0247805
1093.361 .0247782
1093.946 .0247762
1094.530 .0247758
1095.115 .0247759
1095.700 .0247735
1096.285 .0247681
1096.871 .0247571
1097.456 .0247402
1098.042 .0247163
1098.628 .0246892
1099.215 .0246599
1099.802 .0246320
1100.389 .0246064
1100.976 .0245828
1101.564 .0245630
1102.152 .0245451
1102.740 .0245290
1103.329 .0245129
1103.917 .0244948
1104.507 .0244768
1105.096 .0244587
1105.686 .0244451
1106.276 .0244356
1106.867 .0244321
1107.457 .0244321
1108.049 .0244349
1108.640 .0244389
1109.232 .0244408
1109.825 .0244406
1110.417 .0244376
1111.010 .0244316
1111.604 .0244241
1112.198 .0244163
1112.792 .0244079
1113.387 .0244009
1113.982 .0243981
1114.577 .0243968
1115.173 .0243962
1115.769 .0243948
1116.366 .0243906
1116.963 .0243851
1117.561 .0243784
1118.159 .0243710
1118.758 .0243653
1119.357 .0243602
1119.957 .0243562
1120.557 .0243544
1121.157 .0243554
1121.758 .0243619
1122.360 .0243739
1122.962 .0243927
1123.564 .0244192
1124.167 .0244535
1124.771 .0244936
1125.375 .0245421
1125.980 .0245968
1126.585 .0246552
1127.191 .0247128
1127.797 .0247700
1128.404 .0248260
1129.012 .0248810
1129.620 .0249383
1130.229 .0249925
1130.838 .0250514
1131.448 .0251114
1132.058 .0251677
1132.669 .0252243
1133.281 .0252767
1133.894 .0253267
1134.507 .0253704
1135.120 .0254087
1135.735 .0254393
1136.350 .0254654
1136.965 .0254909
1137.582 .0255122
1138.199 .0255361
1138.816 .0255631
1139.435 .0255889
1140.054 .0256201
1140.674 .0256520
1141.294 .0256789
1141.916 .0257142
1142.538 .0256858
1143.160 .0258568
1143.784 .0258357
1144.408 .0256436
1145.033 .0260500
