Measurement Sequence started on: 14-45-04-498
Integration time: 36
Scans to Average: 2 
>>>>>Begin Spectral Data<<<<<
433.946 .0566973
434.870 .0403705
435.793 .0356653
436.715 .0334971
437.635 .0319281
438.555 .0356856
439.473 .0349906
440.389 .0350696
441.305 .0353700
442.219 .0357259
443.132 .0360897
444.044 .0363641
444.954 .0366291
445.863 .0368704
446.771 .0370927
447.678 .0372750
448.584 .0374059
449.488 .0374958
450.391 .0375399
451.293 .0375500
452.194 .0375403
453.094 .0375159
453.992 .0374813
454.890 .0374369
455.786 .0373963
456.681 .0373591
457.575 .0373194
458.468 .0372807
459.360 .0372449
460.250 .0372214
461.140 .0372025
462.028 .0371919
462.915 .0371839
463.801 .0371736
464.687 .0371509
465.571 .0371153
466.454 .0370675
467.335 .0370095
468.216 .0369419
469.096 .0368733
469.975 .0368118
470.853 .0367532
471.729 .0366992
472.605 .0366478
473.479 .0365952
474.353 .0365369
475.226 .0364677
476.097 .0363911
476.968 .0363111
477.838 .0362319
478.706 .0361548
479.574 .0360876
480.441 .0360401
481.306 .0360059
482.171 .0359870
483.035 .0359786
483.898 .0359773
484.760 .0359748
485.621 .0359674
486.481 .0359523
487.340 .0359268
488.198 .0358950
489.055 .0358550
489.912 .0358110
490.767 .0357688
491.622 .0357235
492.476 .0356838
493.329 .0356485
494.180 .0356145
495.032 .0355773
495.882 .0355362
496.731 .0354889
497.580 .0354355
498.427 .0353735
499.274 .0353041
500.120 .0352301
500.965 .0351597
501.809 .0350940
502.653 .0350344
503.495 .0349865
504.337 .0349499
505.178 .0349220
506.018 .0349033
506.858 .0348870
507.696 .0348716
508.534 .0348549
509.371 .0348328
510.208 .0348068
511.043 .0347792
511.878 .0347523
512.712 .0347262
513.545 .0347005
514.377 .0346787
515.209 .0346510
516.040 .0346196
516.870 .0345883
517.699 .0345539
518.528 .0345171
519.356 .0344747
520.183 .0344331
521.010 .0343937
521.836 .0343588
522.661 .0343234
523.485 .0342876
524.309 .0342560
525.132 .0342172
525.954 .0341723
526.776 .0341267
527.597 .0340877
528.417 .0340516
529.237 .0340161
530.056 .0339835
530.874 .0339459
531.692 .0339059
532.508 .0338530
533.325 .0337914
534.140 .0337233
534.955 .0336437
535.770 .0335607
536.583 .0334811
537.397 .0334117
538.209 .0333589
539.021 .0333212
539.832 .0332971
540.643 .0332836
541.453 .0332772
542.262 .0332738
543.071 .0332769
543.879 .0332829
544.687 .0332825
545.494 .0332739
546.300 .0332619
547.106 .0332333
547.911 .0331886
548.716 .0331315
549.520 .0330558
550.323 .0329653
551.126 .0328643
551.929 .0327529
552.731 .0326433
553.532 .0325380
554.332 .0324367
555.133 .0323394
555.932 .0322485
556.731 .0321631
557.530 .0320839
558.328 .0320203
559.125 .0319708
559.922 .0319383
560.719 .0319283
561.515 .0319345
562.310 .0319567
563.105 .0319980
563.899 .0320477
564.693 .0321033
565.487 .0321588
566.280 .0322095
567.072 .0322543
567.864 .0322938
568.655 .0323244
569.446 .0323479
570.236 .0323652
571.026 .0323747
571.816 .0323727
572.605 .0323680
573.393 .0323588
574.181 .0323459
574.969 .0323296
575.756 .0323068
576.543 .0322763
577.329 .0322393
578.115 .0321943
578.900 .0321432
579.685 .0320882
580.469 .0320296
581.253 .0319705
582.036 .0319150
582.820 .0318645
583.602 .0318189
584.384 .0317789
585.166 .0317453
585.947 .0317117
586.728 .0316793
587.509 .0316473
588.289 .0316174
589.069 .0315897
589.848 .0315638
590.627 .0315417
591.405 .0315233
592.183 .0315089
592.961 .0314981
593.738 .0314889
594.515 .0314814
595.291 .0314736
596.067 .0314650
596.843 .0314558
597.618 .0314461
598.393 .0314360
599.167 .0314275
599.941 .0314200
600.715 .0314139
601.488 .0314076
602.261 .0314021
603.034 .0313969
603.806 .0313899
604.578 .0313812
605.349 .0313699
606.121 .0313573
606.891 .0313444
607.662 .0313297
608.432 .0313151
609.201 .0313000
609.971 .0312836
610.740 .0312659
611.508 .0312469
612.277 .0312260
613.045 .0312029
613.812 .0311779
614.579 .0311510
615.346 .0311213
616.113 .0310906
616.879 .0310590
617.645 .0310283
618.411 .0309991
619.176 .0309710
619.941 .0309441
620.705 .0309201
621.470 .0308977
622.233 .0308769
622.997 .0308577
623.760 .0308398
624.523 .0308226
625.286 .0308059
626.048 .0307896
626.810 .0307744
627.572 .0307591
628.333 .0307449
629.095 .0307308
629.855 .0307174
630.616 .0307041
631.376 .0306918
632.136 .0306807
632.895 .0306713
633.655 .0306634
634.414 .0306565
635.172 .0306502
635.931 .0306445
636.689 .0306377
637.447 .0306289
638.204 .0306183
638.962 .0306057
639.718 .0305914
640.475 .0305771
641.231 .0305631
641.988 .0305497
642.743 .0305377
643.499 .0305260
644.254 .0305139
645.009 .0305003
645.764 .0304847
646.518 .0304666
647.272 .0304459
648.026 .0304236
648.780 .0304009
649.533 .0303788
650.286 .0303587
651.039 .0303402
651.792 .0303235
652.544 .0303074
653.296 .0302918
654.048 .0302761
654.799 .0302599
655.550 .0302430
656.301 .0302258
657.052 .0302082
657.802 .0301916
658.552 .0301757
659.302 .0301606
660.052 .0301466
660.801 .0301336
661.550 .0301199
662.299 .0301064
663.048 .0300930
663.796 .0300803
664.544 .0300681
665.292 .0300570
666.040 .0300467
666.787 .0300374
667.534 .0300285
668.281 .0300191
669.028 .0300090
669.774 .0299985
670.521 .0299860
671.266 .0299727
672.012 .0299597
672.758 .0299472
673.503 .0299360
674.248 .0299270
674.992 .0299198
675.737 .0299144
676.481 .0299098
677.225 .0299059
677.969 .0299016
678.712 .0298974
679.455 .0298919
680.199 .0298853
680.941 .0298783
681.684 .0298713
682.426 .0298638
683.168 .0298567
683.910 .0298498
684.652 .0298423
685.393 .0298344
686.134 .0298260
686.875 .0298161
687.616 .0298049
688.356 .0297912
689.097 .0297760
689.837 .0297589
690.576 .0297409
691.316 .0297222
692.055 .0297043
692.794 .0296882
693.533 .0296738
694.272 .0296615
695.010 .0296518
695.748 .0296436
696.486 .0296360
697.224 .0296284
697.962 .0296197
698.699 .0296097
699.436 .0295992
700.173 .0295875
700.909 .0295762
701.646 .0295652
702.382 .0295550
703.118 .0295453
703.853 .0295362
704.589 .0295275
705.324 .0295183
706.059 .0295091
706.794 .0294995
707.529 .0294889
708.263 .0294782
708.997 .0294673
709.731 .0294565
710.465 .0294463
711.198 .0294366
711.931 .0294268
712.664 .0294174
713.397 .0294079
714.130 .0293979
714.862 .0293873
715.594 .0293762
716.326 .0293645
717.058 .0293518
717.789 .0293387
718.520 .0293246
719.251 .0293102
719.982 .0292957
720.713 .0292806
721.443 .0292651
722.173 .0292489
722.903 .0292322
723.633 .0292148
724.362 .0291975
725.091 .0291806
725.820 .0291642
726.549 .0291489
727.278 .0291343
728.006 .0291208
728.734 .0291076
729.462 .0290944
730.190 .0290811
730.917 .0290668
731.644 .0290518
732.371 .0290360
733.098 .0290201
733.825 .0290045
734.551 .0289895
735.277 .0289752
736.003 .0289615
736.728 .0289486
737.454 .0289357
738.179 .0289231
738.904 .0289108
739.629 .0288989
740.353 .0288870
741.077 .0288759
741.801 .0288655
742.525 .0288555
743.249 .0288460
743.972 .0288363
744.695 .0288264
745.418 .0288159
746.141 .0288048
746.863 .0287937
747.585 .0287822
748.307 .0287715
749.029 .0287611
749.750 .0287517
750.472 .0287431
751.193 .0287351
751.913 .0287271
752.634 .0287190
753.354 .0287103
754.074 .0287012
754.794 .0286918
755.514 .0286824
756.233 .0286733
756.952 .0286649
757.671 .0286575
758.390 .0286508
759.108 .0286444
759.826 .0286383
760.544 .0286315
761.262 .0286243
761.979 .0286160
762.697 .0286069
763.414 .0285973
764.130 .0285877
764.847 .0285781
765.563 .0285694
766.279 .0285617
766.995 .0285553
767.710 .0285503
768.426 .0285467
769.141 .0285432
769.855 .0285403
770.570 .0285372
771.284 .0285343
771.998 .0285310
772.712 .0285283
773.426 .0285248
774.139 .0285213
774.852 .0285177
775.565 .0285130
776.277 .0285080
776.990 .0285028
777.702 .0284963
778.414 .0284889
779.125 .0284803
779.836 .0284705
780.547 .0284591
781.258 .0284474
781.969 .0284345
782.679 .0284214
783.389 .0284079
784.099 .0283940
784.808 .0283800
785.517 .0283670
786.226 .0283545
786.935 .0283423
787.643 .0283311
788.352 .0283207
789.060 .0283105
789.767 .0283012
790.475 .0282925
791.182 .0282846
791.889 .0282773
792.595 .0282705
793.301 .0282633
794.008 .0282562
794.713 .0282487
795.419 .0282405
796.124 .0282317
796.829 .0282222
797.534 .0282113
798.238 .0281987
798.942 .0281849
799.646 .0281697
800.350 .0281530
801.053 .0281351
801.756 .0281164
802.459 .0280973
803.162 .0280777
803.864 .0280582
804.566 .0280392
805.267 .0280208
805.969 .0280027
806.670 .0279847
807.371 .0279672
808.071 .0279503
808.772 .0279340
809.472 .0279190
810.171 .0279058
810.871 .0278941
811.570 .0278838
812.269 .0278748
812.967 .0278671
813.666 .0278596
814.364 .0278515
815.061 .0278428
815.759 .0278336
816.456 .0278238
817.153 .0278133
817.849 .0278029
818.545 .0277930
819.241 .0277835
819.937 .0277745
820.632 .0277652
821.327 .0277552
822.022 .0277445
822.717 .0277326
823.411 .0277197
824.105 .0277065
824.798 .0276929
825.491 .0276801
826.184 .0276683
826.877 .0276579
827.569 .0276485
828.261 .0276403
828.953 .0276334
829.645 .0276266
830.336 .0276200
831.027 .0276134
831.717 .0276070
832.407 .0276011
833.097 .0275955
833.787 .0275902
834.476 .0275852
835.165 .0275811
835.854 .0275777
836.542 .0275748
837.230 .0275726
837.918 .0275703
838.605 .0275683
839.292 .0275663
839.979 .0275639
840.665 .0275605
841.352 .0275569
842.037 .0275525
842.723 .0275476
843.408 .0275422
844.093 .0275361
844.777 .0275295
845.462 .0275223
846.145 .0275146
846.829 .0275062
847.512 .0274972
848.195 .0274881
848.878 .0274781
849.560 .0274683
850.242 .0274582
850.923 .0274481
851.605 .0274382
852.286 .0274287
852.966 .0274193
853.646 .0274100
854.326 .0274006
855.006 .0273914
855.685 .0273820
856.364 .0273726
857.043 .0273626
857.721 .0273524
858.399 .0273414
859.077 .0273296
859.754 .0273165
860.431 .0273024
861.107 .0272869
861.784 .0272697
862.459 .0272509
863.135 .0272309
863.810 .0272092
864.485 .0271868
865.160 .0271644
865.834 .0271429
866.508 .0271220
867.181 .0271020
867.854 .0270832
868.527 .0270655
869.199 .0270485
869.872 .0270321
870.543 .0270160
871.215 .0270004
871.886 .0269851
872.557 .0269700
873.227 .0269552
873.897 .0269409
874.567 .0269266
875.236 .0269128
875.905 .0268993
876.573 .0268856
877.242 .0268716
877.909 .0268576
878.577 .0268440
879.244 .0268304
879.911 .0268173
880.577 .0268050
881.243 .0267933
881.909 .0267825
882.575 .0267722
883.240 .0267623
883.904 .0267531
884.569 .0267440
885.232 .0267346
885.896 .0267248
886.559 .0267148
887.222 .0267045
887.885 .0266941
888.547 .0266838
889.208 .0266733
889.870 .0266630
890.531 .0266535
891.192 .0266446
891.852 .0266362
892.512 .0266287
893.171 .0266217
893.830 .0266159
894.489 .0266104
895.148 .0266053
895.806 .0266014
896.464 .0265986
897.121 .0265966
897.778 .0265949
898.434 .0265928
899.091 .0265903
899.747 .0265864
900.402 .0265813
901.057 .0265743
901.712 .0265654
902.366 .0265549
903.020 .0265436
903.674 .0265315
904.327 .0265191
904.980 .0265059
905.633 .0264938
906.285 .0264819
906.936 .0264703
907.588 .0264592
908.239 .0264488
908.889 .0264396
909.540 .0264311
910.190 .0264222
910.839 .0264139
911.488 .0264058
912.137 .0263987
912.785 .0263919
913.433 .0263862
914.081 .0263812
914.728 .0263771
915.375 .0263736
916.021 .0263703
916.668 .0263662
917.313 .0263618
917.959 .0263561
918.604 .0263496
919.248 .0263422
919.892 .0263343
920.536 .0263268
921.180 .0263205
921.823 .0263145
922.465 .0263090
923.108 .0263030
923.750 .0262962
924.391 .0262875
925.032 .0262773
925.673 .0262653
926.313 .0262521
926.953 .0262379
927.593 .0262232
928.232 .0262082
928.871 .0261934
929.510 .0261787
930.148 .0261638
930.786 .0261488
931.423 .0261336
932.060 .0261184
932.697 .0261034
933.333 .0260888
933.969 .0260750
934.604 .0260623
935.239 .0260503
935.874 .0260384
936.508 .0260270
937.142 .0260165
937.776 .0260062
938.409 .0259966
939.042 .0259870
939.674 .0259773
940.306 .0259673
940.938 .0259567
941.569 .0259448
942.200 .0259315
942.830 .0259169
943.460 .0259009
944.090 .0258835
944.720 .0258655
945.349 .0258469
945.977 .0258286
946.606 .0258108
947.233 .0257929
947.861 .0257748
948.488 .0257563
949.115 .0257372
949.741 .0257170
950.367 .0256965
950.993 .0256753
951.618 .0256543
952.243 .0256349
952.868 .0256168
953.492 .0256003
954.115 .0255860
954.739 .0255735
955.362 .0255621
955.984 .0255507
956.607 .0255392
957.229 .0255268
957.850 .0255136
958.471 .0254988
959.092 .0254829
959.713 .0254662
960.333 .0254492
960.952 .0254315
961.572 .0254139
962.191 .0253960
962.809 .0253768
963.428 .0253566
964.045 .0253351
964.663 .0253124
965.280 .0252889
965.897 .0252648
966.513 .0252415
967.129 .0252195
967.745 .0251994
968.361 .0251822
968.976 .0251681
969.590 .0251568
970.205 .0251472
970.818 .0251396
971.432 .0251336
972.045 .0251290
972.658 .0251260
973.271 .0251245
973.883 .0251240
974.495 .0251244
975.106 .0251253
975.717 .0251261
976.328 .0251265
976.938 .0251259
977.548 .0251244
978.158 .0251214
978.768 .0251166
979.377 .0251097
979.985 .0251012
980.594 .0250914
981.202 .0250803
981.809 .0250673
982.417 .0250541
983.024 .0250408
983.631 .0250282
984.237 .0250168
984.843 .0250073
985.449 .0249988
986.054 .0249910
986.659 .0249835
987.264 .0249759
987.868 .0249680
988.472 .0249611
989.076 .0249545
989.679 .0249492
990.282 .0249450
990.885 .0249414
991.487 .0249380
992.090 .0249349
992.691 .0249307
993.293 .0249246
993.894 .0249172
994.495 .0249090
995.095 .0249002
995.696 .0248922
996.296 .0248853
996.895 .0248802
997.494 .0248761
998.093 .0248728
998.692 .0248692
999.291 .0248652
999.889 .0248608
1000.487 .0248567
1001.084 .0248534
1001.681 .0248515
1002.278 .0248523
1002.875 .0248552
1003.471 .0248605
1004.067 .0248673
1004.663 .0248740
1005.258 .0248800
1005.854 .0248843
1006.449 .0248867
1007.043 .0248874
1007.638 .0248873
1008.232 .0248874
1008.826 .0248875
1009.419 .0248885
1010.012 .0248900
1010.605 .0248914
1011.198 .0248923
1011.791 .0248921
1012.383 .0248906
1012.975 .0248883
1013.566 .0248856
1014.158 .0248840
1014.749 .0248838
1015.340 .0248856
1015.931 .0248899
1016.521 .0248961
1017.111 .0249042
1017.701 .0249135
1018.291 .0249223
1018.880 .0249306
1019.470 .0249374
1020.059 .0249425
1020.647 .0249462
1021.236 .0249492
1021.824 .0249519
1022.412 .0249544
1023.000 .0249573
1023.588 .0249600
1024.175 .0249623
1024.762 .0249648
1025.349 .0249664
1025.936 .0249673
1026.523 .0249679
1027.109 .0249678
1027.695 .0249668
1028.281 .0249660
1028.867 .0249648
1029.452 .0249637
1030.038 .0249625
1030.623 .0249607
1031.208 .0249589
1031.792 .0249578
1032.377 .0249574
1032.961 .0249578
1033.546 .0249597
1034.130 .0249628
1034.714 .0249660
1035.297 .0249703
1035.881 .0249752
1036.464 .0249804
1037.047 .0249865
1037.630 .0249943
1038.213 .0250028
1038.796 .0250131
1039.378 .0250247
1039.961 .0250380
1040.543 .0250523
1041.125 .0250667
1041.707 .0250797
1042.289 .0250911
1042.871 .0251006
1043.452 .0251065
1044.034 .0251093
1044.615 .0251096
1045.196 .0251065
1045.777 .0251012
1046.358 .0250934
1046.939 .0250841
1047.520 .0250735
1048.101 .0250621
1048.681 .0250492
1049.262 .0250356
1049.842 .0250222
1050.422 .0250082
1051.002 .0249945
1051.582 .0249811
1052.162 .0249679
1052.742 .0249557
1053.322 .0249459
1053.902 .0249376
1054.482 .0249321
1055.061 .0249285
1055.641 .0249259
1056.220 .0249239
1056.800 .0249218
1057.379 .0249186
1057.958 .0249149
1058.538 .0249107
1059.117 .0249068
1059.696 .0249029
1060.275 .0249013
1060.854 .0248998
1061.433 .0249002
1062.012 .0249013
1062.592 .0249031
1063.171 .0249052
1063.750 .0249081
1064.329 .0249103
1064.908 .0249124
1065.487 .0249133
1066.066 .0249127
1066.645 .0249100
1067.224 .0249055
1067.803 .0248984
1068.382 .0248895
1068.961 .0248787
1069.540 .0248676
1070.119 .0248557
1070.698 .0248452
1071.278 .0248341
1071.857 .0248237
1072.436 .0248135
1073.016 .0248041
1073.595 .0247953
1074.175 .0247874
1074.754 .0247802
1075.334 .0247732
1075.913 .0247667
1076.493 .0247598
1077.073 .0247509
1077.653 .0247414
1078.233 .0247321
1078.813 .0247216
1079.393 .0247089
1079.974 .0246967
1080.554 .0246837
1081.135 .0246723
1081.716 .0246619
1082.296 .0246527
1082.877 .0246423
1083.458 .0246319
1084.040 .0246188
1084.621 .0246020
1085.202 .0245851
1085.784 .0245675
1086.366 .0245486
1086.948 .0245331
1087.530 .0245198
1088.112 .0245100
1088.695 .0245044
1089.277 .0245026
1089.860 .0245015
1090.443 .0245007
1091.026 .0244993
1091.610 .0244960
1092.193 .0244910
1092.777 .0244881
1093.361 .0244838
1093.946 .0244821
1094.530 .0244825
1095.115 .0244819
1095.700 .0244835
1096.285 .0244849
1096.871 .0244851
1097.456 .0244832
1098.042 .0244785
1098.628 .0244720
1099.215 .0244642
1099.802 .0244561
1100.389 .0244479
1100.976 .0244398
1101.564 .0244315
1102.152 .0244211
1102.740 .0244075
1103.329 .0243920
1103.917 .0243715
1104.507 .0243504
1105.096 .0243276
1105.686 .0243046
1106.276 .0242853
1106.867 .0242706
1107.457 .0242622
1108.049 .0242589
1108.640 .0242584
1109.232 .0242593
1109.825 .0242622
1110.417 .0242694
1111.010 .0242768
1111.604 .0242892
1112.198 .0243062
1112.792 .0243302
1113.387 .0243596
1113.982 .0243940
1114.577 .0244335
1115.173 .0244782
1115.769 .0245242
1116.366 .0245701
1116.963 .0246149
1117.561 .0246595
1118.159 .0247047
1118.758 .0247521
1119.357 .0247991
1119.957 .0248441
1120.557 .0248866
1121.157 .0249223
1121.758 .0249483
1122.360 .0249653
1122.962 .0249704
1123.564 .0249697
1124.167 .0249687
1124.771 .0249693
1125.375 .0249761
1125.980 .0249922
1126.585 .0250183
1127.191 .0250473
1127.797 .0250795
1128.404 .0251087
1129.012 .0251334
1129.620 .0251564
1130.229 .0251781
1130.838 .0252000
1131.448 .0252312
1132.058 .0252734
1132.669 .0253258
1133.281 .0253819
1133.894 .0254382
1134.507 .0254865
1135.120 .0255212
1135.735 .0255404
1136.350 .0255448
1136.965 .0255387
1137.582 .0255320
1138.199 .0255239
1138.816 .0255235
1139.435 .0255308
1140.054 .0255419
1140.674 .0255589
1141.294 .0255791
1141.916 .0256148
1142.538 .0255839
1143.160 .0254687
1143.784 .0256246
1144.408 .0257712
1145.033 .0261737
