Measurement Sequence started on: 14-45-04-498
Integration time: 36
Scans to Average: 2 
>>>>>Begin Spectral Data<<<<<
433.946 .0548064
434.870 .0482884
435.793 .0429518
436.715 .0423323
437.635 .0403148
438.555 .0414560
439.473 .0404296
440.389 .0397872
441.305 .0393740
442.219 .0390103
443.132 .0387283
444.044 .0384585
444.954 .0382346
445.863 .0380581
446.771 .0379258
447.678 .0378400
448.584 .0377850
449.488 .0377506
450.391 .0377268
451.293 .0377033
452.194 .0376628
453.094 .0376026
453.992 .0375257
454.890 .0374384
455.786 .0373546
456.681 .0372778
457.575 .0372185
458.468 .0371777
459.360 .0371543
460.250 .0371389
461.140 .0371167
462.028 .0370873
462.915 .0370399
463.801 .0369786
464.687 .0369022
465.571 .0368187
466.454 .0367352
467.335 .0366619
468.216 .0365958
469.096 .0365414
469.975 .0364925
470.853 .0364487
471.729 .0364016
472.605 .0363439
473.479 .0362756
474.353 .0362010
475.226 .0361192
476.097 .0360409
476.968 .0359631
477.838 .0358926
478.706 .0358296
479.574 .0357779
480.441 .0357319
481.306 .0356921
482.171 .0356568
483.035 .0356245
483.898 .0355933
484.760 .0355662
485.621 .0355435
486.481 .0355283
487.340 .0355221
488.198 .0355247
489.055 .0355303
489.912 .0355392
490.767 .0355413
491.622 .0355349
492.476 .0355187
493.329 .0354878
494.180 .0354468
495.032 .0354006
495.882 .0353541
496.731 .0353116
497.580 .0352807
498.427 .0352580
499.274 .0352408
500.120 .0352245
500.965 .0352037
501.809 .0351756
502.653 .0351376
503.495 .0350917
504.337 .0350412
505.178 .0349943
506.018 .0349531
506.858 .0349126
507.696 .0348796
508.534 .0348460
509.371 .0348061
510.208 .0347586
511.043 .0346987
511.878 .0346266
512.712 .0345494
513.545 .0344698
514.377 .0343969
515.209 .0343307
516.040 .0342684
516.870 .0342107
517.699 .0341569
518.528 .0341008
519.356 .0340445
520.183 .0339933
521.010 .0339546
521.836 .0339317
522.661 .0339239
523.485 .0339249
524.309 .0339281
525.132 .0339272
525.954 .0339048
526.776 .0338500
527.597 .0337708
528.417 .0336603
529.237 .0335402
530.056 .0334191
530.874 .0332983
531.692 .0331843
532.508 .0330818
533.325 .0329858
534.140 .0328862
534.955 .0327827
535.770 .0326752
536.583 .0325680
537.397 .0324745
538.209 .0323955
539.021 .0323406
539.832 .0323164
540.643 .0323214
541.453 .0323404
542.262 .0323724
543.071 .0324051
543.879 .0324410
544.687 .0324778
545.494 .0325170
546.300 .0325581
547.106 .0325985
547.911 .0326427
548.716 .0326920
549.520 .0327328
550.323 .0327649
551.126 .0327793
551.929 .0327805
552.731 .0327606
553.532 .0327296
554.332 .0326844
555.133 .0326371
555.932 .0325912
556.731 .0325437
557.530 .0324935
558.328 .0324512
559.125 .0324103
559.922 .0323775
560.719 .0323500
561.515 .0323286
562.310 .0323102
563.105 .0323007
563.899 .0322942
564.693 .0322909
565.487 .0322896
566.280 .0322913
567.072 .0322902
567.864 .0322919
568.655 .0322909
569.446 .0322887
570.236 .0322840
571.026 .0322760
571.816 .0322582
572.605 .0322325
573.393 .0321967
574.181 .0321540
574.969 .0321065
575.756 .0320580
576.543 .0320089
577.329 .0319640
578.115 .0319220
578.900 .0318816
579.685 .0318390
580.469 .0317951
581.253 .0317484
582.036 .0316997
582.820 .0316482
583.602 .0315981
584.384 .0315527
585.166 .0315111
585.947 .0314743
586.728 .0314436
587.509 .0314170
588.289 .0313939
589.069 .0313709
589.848 .0313481
590.627 .0313261
591.405 .0313052
592.183 .0312859
592.961 .0312686
593.738 .0312546
594.515 .0312420
595.291 .0312302
596.067 .0312183
596.843 .0312055
597.618 .0311913
598.393 .0311746
599.167 .0311567
599.941 .0311377
600.715 .0311180
601.488 .0310990
602.261 .0310806
603.034 .0310635
603.806 .0310465
604.578 .0310306
605.349 .0310146
606.121 .0309994
606.891 .0309852
607.662 .0309717
608.432 .0309588
609.201 .0309478
609.971 .0309378
610.740 .0309285
611.508 .0309203
612.277 .0309124
613.045 .0309039
613.812 .0308958
614.579 .0308862
615.346 .0308766
616.113 .0308663
616.879 .0308560
617.645 .0308449
618.411 .0308338
619.176 .0308224
619.941 .0308102
620.705 .0307976
621.470 .0307839
622.233 .0307688
622.997 .0307532
623.760 .0307360
624.523 .0307189
625.286 .0307009
626.048 .0306827
626.810 .0306635
627.572 .0306446
628.333 .0306247
629.095 .0306040
629.855 .0305828
630.616 .0305610
631.376 .0305385
632.136 .0305155
632.895 .0304912
633.655 .0304671
634.414 .0304442
635.172 .0304226
635.931 .0304019
636.689 .0303834
637.447 .0303664
638.204 .0303507
638.962 .0303358
639.718 .0303215
640.475 .0303069
641.231 .0302924
641.988 .0302774
642.743 .0302615
643.499 .0302455
644.254 .0302298
645.009 .0302146
645.764 .0302000
646.518 .0301858
647.272 .0301718
648.026 .0301569
648.780 .0301420
649.533 .0301258
650.286 .0301084
651.039 .0300896
651.792 .0300697
652.544 .0300487
653.296 .0300277
654.048 .0300071
654.799 .0299878
655.550 .0299699
656.301 .0299536
657.052 .0299385
657.802 .0299237
658.552 .0299094
659.302 .0298955
660.052 .0298822
660.801 .0298697
661.550 .0298580
662.299 .0298476
663.048 .0298378
663.796 .0298299
664.544 .0298225
665.292 .0298159
666.040 .0298097
666.787 .0298033
667.534 .0297965
668.281 .0297892
669.028 .0297820
669.774 .0297741
670.521 .0297663
671.266 .0297577
672.012 .0297481
672.758 .0297369
673.503 .0297241
674.248 .0297103
674.992 .0296959
675.737 .0296813
676.481 .0296671
677.225 .0296538
677.969 .0296412
678.712 .0296287
679.455 .0296166
680.199 .0296042
680.941 .0295917
681.684 .0295785
682.426 .0295648
683.168 .0295511
683.910 .0295386
684.652 .0295268
685.393 .0295163
686.134 .0295071
686.875 .0294986
687.616 .0294900
688.356 .0294814
689.097 .0294725
689.837 .0294633
690.576 .0294541
691.316 .0294449
692.055 .0294355
692.794 .0294261
693.533 .0294167
694.272 .0294069
695.010 .0293971
695.748 .0293867
696.486 .0293758
697.224 .0293650
697.962 .0293541
698.699 .0293436
699.436 .0293331
700.173 .0293220
700.909 .0293107
701.646 .0292983
702.382 .0292846
703.118 .0292694
703.853 .0292536
704.589 .0292369
705.324 .0292200
706.059 .0292035
706.794 .0291874
707.529 .0291724
708.263 .0291588
708.997 .0291460
709.731 .0291336
710.465 .0291217
711.198 .0291097
711.931 .0290977
712.664 .0290865
713.397 .0290750
714.130 .0290638
714.862 .0290536
715.594 .0290444
716.326 .0290355
717.058 .0290269
717.789 .0290190
718.520 .0290106
719.251 .0290015
719.982 .0289916
720.713 .0289809
721.443 .0289699
722.173 .0289587
722.903 .0289470
723.633 .0289349
724.362 .0289225
725.091 .0289097
725.820 .0288967
726.549 .0288843
727.278 .0288718
728.006 .0288595
728.734 .0288474
729.462 .0288361
730.190 .0288247
730.917 .0288138
731.644 .0288034
732.371 .0287931
733.098 .0287830
733.825 .0287733
734.551 .0287636
735.277 .0287547
736.003 .0287467
736.728 .0287391
737.454 .0287319
738.179 .0287257
738.904 .0287188
739.629 .0287117
740.353 .0287042
741.077 .0286964
741.801 .0286877
742.525 .0286786
743.249 .0286691
743.972 .0286593
744.695 .0286499
745.418 .0286402
746.141 .0286300
746.863 .0286200
747.585 .0286091
748.307 .0285972
749.029 .0285841
749.750 .0285698
750.472 .0285547
751.193 .0285393
751.913 .0285233
752.634 .0285072
753.354 .0284912
754.074 .0284755
754.794 .0284603
755.514 .0284456
756.233 .0284316
756.952 .0284173
757.671 .0284037
758.390 .0283899
759.108 .0283761
759.826 .0283623
760.544 .0283487
761.262 .0283357
761.979 .0283231
762.697 .0283103
763.414 .0282983
764.130 .0282872
764.847 .0282778
765.563 .0282691
766.279 .0282616
766.995 .0282550
767.710 .0282491
768.426 .0282430
769.141 .0282372
769.855 .0282310
770.570 .0282245
771.284 .0282173
771.998 .0282102
772.712 .0282033
773.426 .0281970
774.139 .0281915
774.852 .0281866
775.565 .0281818
776.277 .0281766
776.990 .0281702
777.702 .0281637
778.414 .0281566
779.125 .0281494
779.836 .0281422
780.547 .0281361
781.258 .0281308
781.969 .0281264
782.679 .0281229
783.389 .0281203
784.099 .0281179
784.808 .0281148
785.517 .0281110
786.226 .0281065
786.935 .0281017
787.643 .0280968
788.352 .0280921
789.060 .0280881
789.767 .0280844
790.475 .0280808
791.182 .0280763
791.889 .0280710
792.595 .0280644
793.301 .0280557
794.008 .0280453
794.713 .0280337
795.419 .0280212
796.124 .0280084
796.829 .0279965
797.534 .0279853
798.238 .0279753
798.942 .0279661
799.646 .0279567
800.350 .0279474
801.053 .0279378
801.756 .0279271
802.459 .0279157
803.162 .0279045
803.864 .0278929
804.566 .0278811
805.267 .0278698
805.969 .0278586
806.670 .0278474
807.371 .0278357
808.071 .0278234
808.772 .0278100
809.472 .0277957
810.171 .0277800
810.871 .0277643
811.570 .0277491
812.269 .0277343
812.967 .0277199
813.666 .0277066
814.364 .0276940
815.061 .0276817
815.759 .0276698
816.456 .0276580
817.153 .0276462
817.849 .0276341
818.545 .0276211
819.241 .0276079
819.937 .0275945
820.632 .0275805
821.327 .0275658
822.022 .0275510
822.717 .0275350
823.411 .0275178
824.105 .0275003
824.798 .0274821
825.491 .0274632
826.184 .0274442
826.877 .0274253
827.569 .0274067
828.261 .0273893
828.953 .0273728
829.645 .0273576
830.336 .0273441
831.027 .0273322
831.717 .0273211
832.407 .0273113
833.097 .0273026
833.787 .0272940
834.476 .0272857
835.165 .0272781
835.854 .0272704
836.542 .0272631
837.230 .0272565
837.918 .0272503
838.605 .0272443
839.292 .0272388
839.979 .0272330
840.665 .0272266
841.352 .0272196
842.037 .0272121
842.723 .0272039
843.408 .0271960
844.093 .0271885
844.777 .0271820
845.462 .0271768
846.145 .0271728
846.829 .0271692
847.512 .0271660
848.195 .0271625
848.878 .0271583
849.560 .0271532
850.242 .0271472
850.923 .0271403
851.605 .0271327
852.286 .0271254
852.966 .0271186
853.646 .0271124
854.326 .0271073
855.006 .0271027
855.685 .0270985
856.364 .0270940
857.043 .0270889
857.721 .0270832
858.399 .0270769
859.077 .0270701
859.754 .0270627
860.431 .0270551
861.107 .0270479
861.784 .0270411
862.459 .0270353
863.135 .0270295
863.810 .0270236
864.485 .0270172
865.160 .0270107
865.834 .0270030
866.508 .0269949
867.181 .0269860
867.854 .0269767
868.527 .0269673
869.199 .0269579
869.872 .0269479
870.543 .0269381
871.215 .0269282
871.886 .0269179
872.557 .0269068
873.227 .0268961
873.897 .0268848
874.567 .0268741
875.236 .0268634
875.905 .0268531
876.573 .0268423
877.242 .0268316
877.909 .0268203
878.577 .0268085
879.244 .0267961
879.911 .0267835
880.577 .0267710
881.243 .0267592
881.909 .0267478
882.575 .0267377
883.240 .0267283
883.904 .0267191
884.569 .0267095
885.232 .0266992
885.896 .0266878
886.559 .0266755
887.222 .0266621
887.885 .0266478
888.547 .0266334
889.208 .0266182
889.870 .0266025
890.531 .0265866
891.192 .0265703
891.852 .0265532
892.512 .0265358
893.171 .0265179
893.830 .0264991
894.489 .0264801
895.148 .0264615
895.806 .0264429
896.464 .0264247
897.121 .0264070
897.778 .0263900
898.434 .0263740
899.091 .0263590
899.747 .0263443
900.402 .0263312
901.057 .0263194
901.712 .0263085
902.366 .0262979
903.020 .0262883
903.674 .0262794
904.327 .0262714
904.980 .0262640
905.633 .0262573
906.285 .0262511
906.936 .0262462
907.588 .0262414
908.239 .0262370
908.889 .0262329
909.540 .0262285
910.190 .0262229
910.839 .0262167
911.488 .0262087
912.137 .0261993
912.785 .0261880
913.433 .0261760
914.081 .0261625
914.728 .0261486
915.375 .0261342
916.021 .0261198
916.668 .0261061
917.313 .0260928
917.959 .0260789
918.604 .0260658
919.248 .0260530
919.892 .0260404
920.536 .0260279
921.180 .0260169
921.823 .0260067
922.465 .0259977
923.108 .0259902
923.750 .0259841
924.391 .0259784
925.032 .0259738
925.673 .0259687
926.313 .0259632
926.953 .0259575
927.593 .0259504
928.232 .0259417
928.871 .0259325
929.510 .0259220
930.148 .0259106
930.786 .0258983
931.423 .0258866
932.060 .0258745
932.697 .0258629
933.333 .0258517
933.969 .0258406
934.604 .0258302
935.239 .0258204
935.874 .0258101
936.508 .0257997
937.142 .0257891
937.776 .0257779
938.409 .0257663
939.042 .0257544
939.674 .0257424
940.306 .0257310
940.938 .0257201
941.569 .0257096
942.200 .0256995
942.830 .0256899
943.460 .0256802
944.090 .0256693
944.720 .0256578
945.349 .0256449
945.977 .0256307
946.606 .0256157
947.233 .0255999
947.861 .0255837
948.488 .0255672
949.115 .0255506
949.741 .0255341
950.367 .0255178
950.993 .0255021
951.618 .0254863
952.243 .0254714
952.868 .0254567
953.492 .0254422
954.115 .0254283
954.739 .0254157
955.362 .0254040
955.984 .0253935
956.607 .0253840
957.229 .0253758
957.850 .0253686
958.471 .0253624
959.092 .0253562
959.713 .0253505
960.333 .0253453
960.952 .0253401
961.572 .0253349
962.191 .0253298
962.809 .0253241
963.428 .0253182
964.045 .0253109
964.663 .0253021
965.280 .0252918
965.897 .0252803
966.513 .0252676
967.129 .0252546
967.745 .0252419
968.361 .0252295
968.976 .0252176
969.590 .0252067
970.205 .0251957
970.818 .0251852
971.432 .0251748
972.045 .0251642
972.658 .0251539
973.271 .0251442
973.883 .0251339
974.495 .0251238
975.106 .0251138
975.717 .0251037
976.328 .0250927
976.938 .0250820
977.548 .0250713
978.158 .0250611
978.768 .0250516
979.377 .0250425
979.985 .0250338
980.594 .0250255
981.202 .0250159
981.809 .0250054
982.417 .0249936
983.024 .0249814
983.631 .0249687
984.237 .0249564
984.843 .0249448
985.449 .0249339
986.054 .0249234
986.659 .0249128
987.264 .0249015
987.868 .0248898
988.472 .0248772
989.076 .0248645
989.679 .0248518
990.282 .0248399
990.885 .0248293
991.487 .0248205
992.090 .0248120
992.691 .0248036
993.293 .0247944
993.894 .0247835
994.495 .0247714
995.095 .0247584
995.696 .0247453
996.296 .0247331
996.895 .0247228
997.494 .0247143
998.093 .0247066
998.692 .0247001
999.291 .0246930
999.889 .0246850
1000.487 .0246758
1001.084 .0246646
1001.681 .0246516
1002.278 .0246387
1002.875 .0246260
1003.471 .0246143
1004.067 .0246045
1004.663 .0245967
1005.258 .0245912
1005.854 .0245871
1006.449 .0245835
1007.043 .0245800
1007.638 .0245770
1008.232 .0245747
1008.826 .0245720
1009.419 .0245698
1010.012 .0245685
1010.605 .0245678
1011.198 .0245682
1011.791 .0245694
1012.383 .0245714
1012.975 .0245743
1013.566 .0245776
1014.158 .0245800
1014.749 .0245823
1015.340 .0245844
1015.931 .0245865
1016.521 .0245891
1017.111 .0245926
1017.701 .0245964
1018.291 .0246005
1018.880 .0246056
1019.470 .0246109
1020.059 .0246151
1020.647 .0246187
1021.236 .0246211
1021.824 .0246222
1022.412 .0246220
1023.000 .0246210
1023.588 .0246195
1024.175 .0246189
1024.762 .0246187
1025.349 .0246192
1025.936 .0246204
1026.523 .0246224
1027.109 .0246241
1027.695 .0246257
1028.281 .0246264
1028.867 .0246269
1029.452 .0246271
1030.038 .0246289
1030.623 .0246306
1031.208 .0246340
1031.792 .0246393
1032.377 .0246466
1032.961 .0246550
1033.546 .0246640
1034.130 .0246726
1034.714 .0246814
1035.297 .0246888
1035.881 .0246956
1036.464 .0247017
1037.047 .0247091
1037.630 .0247169
1038.213 .0247257
1038.796 .0247340
1039.378 .0247428
1039.961 .0247498
1040.543 .0247552
1041.125 .0247580
1041.707 .0247585
1042.289 .0247556
1042.871 .0247508
1043.452 .0247440
1044.034 .0247359
1044.615 .0247264
1045.196 .0247177
1045.777 .0247085
1046.358 .0247001
1046.939 .0246920
1047.520 .0246851
1048.101 .0246802
1048.681 .0246785
1049.262 .0246794
1049.842 .0246831
1050.422 .0246902
1051.002 .0246995
1051.582 .0247095
1052.162 .0247215
1052.742 .0247331
1053.322 .0247446
1053.902 .0247556
1054.482 .0247656
1055.061 .0247733
1055.641 .0247786
1056.220 .0247821
1056.800 .0247831
1057.379 .0247812
1057.958 .0247766
1058.538 .0247688
1059.117 .0247598
1059.696 .0247506
1060.275 .0247419
1060.854 .0247350
1061.433 .0247316
1062.012 .0247306
1062.592 .0247327
1063.171 .0247386
1063.750 .0247482
1064.329 .0247599
1064.908 .0247739
1065.487 .0247882
1066.066 .0248008
1066.645 .0248115
1067.224 .0248201
1067.803 .0248271
1068.382 .0248324
1068.961 .0248349
1069.540 .0248354
1070.119 .0248352
1070.698 .0248339
1071.278 .0248301
1071.857 .0248249
1072.436 .0248179
1073.016 .0248092
1073.595 .0247994
1074.175 .0247901
1074.754 .0247816
1075.334 .0247753
1075.913 .0247698
1076.493 .0247640
1077.073 .0247570
1077.653 .0247483
1078.233 .0247371
1078.813 .0247247
1079.393 .0247111
1079.974 .0246967
1080.554 .0246831
1081.135 .0246724
1081.716 .0246639
1082.296 .0246570
1082.877 .0246509
1083.458 .0246441
1084.040 .0246339
1084.621 .0246201
1085.202 .0246017
1085.784 .0245802
1086.366 .0245560
1086.948 .0245301
1087.530 .0245038
1088.112 .0244784
1088.695 .0244554
1089.277 .0244363
1089.860 .0244222
1090.443 .0244120
1091.026 .0244049
1091.610 .0244004
1092.193 .0243980
1092.777 .0243970
1093.361 .0243974
1093.946 .0244000
1094.530 .0244032
1095.115 .0244083
1095.700 .0244145
1096.285 .0244227
1096.871 .0244334
1097.456 .0244466
1098.042 .0244609
1098.628 .0244747
1099.215 .0244859
1099.802 .0244937
1100.389 .0244996
1100.976 .0245030
1101.564 .0245033
1102.152 .0245006
1102.740 .0244959
1103.329 .0244885
1103.917 .0244769
1104.507 .0244659
1105.096 .0244562
1105.686 .0244472
1106.276 .0244384
1106.867 .0244306
1107.457 .0244261
1108.049 .0244219
1108.640 .0244168
1109.232 .0244108
1109.825 .0244038
1110.417 .0243934
1111.010 .0243803
1111.604 .0243657
1112.198 .0243533
1112.792 .0243403
1113.387 .0243296
1113.982 .0243208
1114.577 .0243145
1115.173 .0243106
1115.769 .0243078
1116.366 .0243067
1116.963 .0243093
1117.561 .0243076
1118.159 .0243073
1118.758 .0243081
1119.357 .0243096
1119.957 .0243088
1120.557 .0243079
1121.157 .0243043
1121.758 .0242996
1122.360 .0242946
1122.962 .0242922
1123.564 .0242933
1124.167 .0243040
1124.771 .0243207
1125.375 .0243425
1125.980 .0243736
1126.585 .0244126
1127.191 .0244570
1127.797 .0245080
1128.404 .0245600
1129.012 .0246121
1129.620 .0246698
1130.229 .0247323
1130.838 .0247987
1131.448 .0248697
1132.058 .0249435
1132.669 .0250165
1133.281 .0250841
1133.894 .0251432
1134.507 .0251935
1135.120 .0252323
1135.735 .0252635
1136.350 .0252816
1136.965 .0252951
1137.582 .0253048
1138.199 .0253158
1138.816 .0253244
1139.435 .0253318
1140.054 .0253403
1140.674 .0253488
1141.294 .0253574
1141.916 .0253637
1142.538 .0253263
1143.160 .0253814
1143.784 .0254061
1144.408 .0254918
1145.033 .0253427
