Measurement Sequence started on: 14-45-04-498
Integration time: 36
Scans to Average: 2 
>>>>>Begin Spectral Data<<<<<
433.946 .0632956
434.870 .0540149
435.793 .0504153
436.715 .0486482
437.635 .0480928
438.555 .0485379
439.473 .0474515
440.389 .0468062
441.305 .0463272
442.219 .0459353
443.132 .0455980
444.044 .0453113
444.954 .0450810
445.863 .0449164
446.771 .0447840
447.678 .0446826
448.584 .0446010
449.488 .0445247
450.391 .0444494
451.293 .0443780
452.194 .0443046
453.094 .0442311
453.992 .0441595
454.890 .0440777
455.786 .0439812
456.681 .0438711
457.575 .0437489
458.468 .0436077
459.360 .0434486
460.250 .0432837
461.140 .0431170
462.028 .0429590
462.915 .0428091
463.801 .0426732
464.687 .0425514
465.571 .0424420
466.454 .0423399
467.335 .0422400
468.216 .0421431
469.096 .0420486
469.975 .0419554
470.853 .0418689
471.729 .0417872
472.605 .0417159
473.479 .0416536
474.353 .0416022
475.226 .0415567
476.097 .0415122
476.968 .0414649
477.838 .0414123
478.706 .0413509
479.574 .0412828
480.441 .0412114
481.306 .0411385
482.171 .0410676
483.035 .0410031
483.898 .0409463
484.760 .0408998
485.621 .0408601
486.481 .0408252
487.340 .0407902
488.198 .0407548
489.055 .0407135
489.912 .0406666
490.767 .0406157
491.622 .0405604
492.476 .0405020
493.329 .0404434
494.180 .0403830
495.032 .0403227
495.882 .0402635
496.731 .0402046
497.580 .0401434
498.427 .0400805
499.274 .0400149
500.120 .0399508
500.965 .0398882
501.809 .0398285
502.653 .0397719
503.495 .0397217
504.337 .0396746
505.178 .0396299
506.018 .0395886
506.858 .0395487
507.696 .0395114
508.534 .0394762
509.371 .0394414
510.208 .0394095
511.043 .0393780
511.878 .0393438
512.712 .0393084
513.545 .0392705
514.377 .0392271
515.209 .0391825
516.040 .0391388
516.870 .0390994
517.699 .0390648
518.528 .0390360
519.356 .0390133
520.183 .0389943
521.010 .0389791
521.836 .0389588
522.661 .0389350
523.485 .0389077
524.309 .0388726
525.132 .0388314
525.954 .0387846
526.776 .0387320
527.597 .0386692
528.417 .0385983
529.237 .0385180
530.056 .0384231
530.874 .0383136
531.692 .0381916
532.508 .0380625
533.325 .0379315
534.140 .0378057
534.955 .0376873
535.770 .0375857
536.583 .0375034
537.397 .0374343
538.209 .0373760
539.021 .0373321
539.832 .0372968
540.643 .0372634
541.453 .0372326
542.262 .0372080
543.071 .0371845
543.879 .0371635
544.687 .0371402
545.494 .0371160
546.300 .0370904
547.106 .0370631
547.911 .0370329
548.716 .0370054
549.520 .0369789
550.323 .0369543
551.126 .0369280
551.929 .0369063
552.731 .0368810
553.532 .0368542
554.332 .0368232
555.133 .0367931
555.932 .0367658
556.731 .0367415
557.530 .0367211
558.328 .0367101
559.125 .0367007
559.922 .0366954
560.719 .0366875
561.515 .0366783
562.310 .0366652
563.105 .0366498
563.899 .0366303
564.693 .0366112
565.487 .0365942
566.280 .0365823
567.072 .0365761
567.864 .0365760
568.655 .0365759
569.446 .0365760
570.236 .0365715
571.026 .0365601
571.816 .0365393
572.605 .0365117
573.393 .0364770
574.181 .0364385
574.969 .0363983
575.756 .0363557
576.543 .0363146
577.329 .0362758
578.115 .0362367
578.900 .0361993
579.685 .0361618
580.469 .0361267
581.253 .0360924
582.036 .0360600
582.820 .0360289
583.602 .0360008
584.384 .0359756
585.166 .0359524
585.947 .0359309
586.728 .0359116
587.509 .0358928
588.289 .0358740
589.069 .0358549
589.848 .0358351
590.627 .0358141
591.405 .0357924
592.183 .0357691
592.961 .0357455
593.738 .0357209
594.515 .0356956
595.291 .0356691
596.067 .0356425
596.843 .0356147
597.618 .0355865
598.393 .0355585
599.167 .0355316
599.941 .0355057
600.715 .0354811
601.488 .0354581
602.261 .0354372
603.034 .0354171
603.806 .0353985
604.578 .0353813
605.349 .0353653
606.121 .0353496
606.891 .0353341
607.662 .0353187
608.432 .0353036
609.201 .0352881
609.971 .0352719
610.740 .0352550
611.508 .0352382
612.277 .0352205
613.045 .0352024
613.812 .0351850
614.579 .0351679
615.346 .0351507
616.113 .0351338
616.879 .0351165
617.645 .0350995
618.411 .0350816
619.176 .0350627
619.941 .0350427
620.705 .0350222
621.470 .0350012
622.233 .0349804
622.997 .0349606
623.760 .0349414
624.523 .0349215
625.286 .0349016
626.048 .0348805
626.810 .0348572
627.572 .0348316
628.333 .0348038
629.095 .0347741
629.855 .0347429
630.616 .0347109
631.376 .0346800
632.136 .0346512
632.895 .0346248
633.655 .0346004
634.414 .0345781
635.172 .0345574
635.931 .0345371
636.689 .0345170
637.447 .0344982
638.204 .0344802
638.962 .0344636
639.718 .0344492
640.475 .0344373
641.231 .0344280
641.988 .0344208
642.743 .0344146
643.499 .0344085
644.254 .0344014
645.009 .0343928
645.764 .0343824
646.518 .0343715
647.272 .0343602
648.026 .0343487
648.780 .0343378
649.533 .0343271
650.286 .0343166
651.039 .0343064
651.792 .0342957
652.544 .0342847
653.296 .0342731
654.048 .0342613
654.799 .0342495
655.550 .0342377
656.301 .0342262
657.052 .0342145
657.802 .0342024
658.552 .0341898
659.302 .0341755
660.052 .0341602
660.801 .0341432
661.550 .0341249
662.299 .0341058
663.048 .0340854
663.796 .0340647
664.544 .0340439
665.292 .0340226
666.040 .0340012
666.787 .0339792
667.534 .0339572
668.281 .0339349
669.028 .0339124
669.774 .0338897
670.521 .0338673
671.266 .0338458
672.012 .0338251
672.758 .0338055
673.503 .0337875
674.248 .0337710
674.992 .0337561
675.737 .0337430
676.481 .0337311
677.225 .0337198
677.969 .0337089
678.712 .0336976
679.455 .0336862
680.199 .0336742
680.941 .0336622
681.684 .0336504
682.426 .0336388
683.168 .0336274
683.910 .0336163
684.652 .0336054
685.393 .0335944
686.134 .0335834
686.875 .0335722
687.616 .0335609
688.356 .0335500
689.097 .0335393
689.837 .0335293
690.576 .0335198
691.316 .0335105
692.055 .0335011
692.794 .0334918
693.533 .0334824
694.272 .0334730
695.010 .0334638
695.748 .0334553
696.486 .0334472
697.224 .0334401
697.962 .0334332
698.699 .0334260
699.436 .0334189
700.173 .0334110
700.909 .0334019
701.646 .0333918
702.382 .0333809
703.118 .0333695
703.853 .0333580
704.589 .0333466
705.324 .0333353
706.059 .0333246
706.794 .0333139
707.529 .0333032
708.263 .0332926
708.997 .0332820
709.731 .0332708
710.465 .0332596
711.198 .0332483
711.931 .0332360
712.664 .0332234
713.397 .0332102
714.130 .0331958
714.862 .0331804
715.594 .0331641
716.326 .0331470
717.058 .0331298
717.789 .0331124
718.520 .0330945
719.251 .0330770
719.982 .0330597
720.713 .0330422
721.443 .0330243
722.173 .0330061
722.903 .0329866
723.633 .0329661
724.362 .0329451
725.091 .0329227
725.820 .0329000
726.549 .0328770
727.278 .0328537
728.006 .0328309
728.734 .0328083
729.462 .0327861
730.190 .0327647
730.917 .0327441
731.644 .0327240
732.371 .0327045
733.098 .0326859
733.825 .0326681
734.551 .0326510
735.277 .0326349
736.003 .0326194
736.728 .0326046
737.454 .0325910
738.179 .0325781
738.904 .0325660
739.629 .0325546
740.353 .0325439
741.077 .0325341
741.801 .0325246
742.525 .0325155
743.249 .0325067
743.972 .0324980
744.695 .0324895
745.418 .0324803
746.141 .0324709
746.863 .0324614
747.585 .0324520
748.307 .0324423
749.029 .0324325
749.750 .0324222
750.472 .0324121
751.193 .0324022
751.913 .0323926
752.634 .0323830
753.354 .0323737
754.074 .0323650
754.794 .0323566
755.514 .0323480
756.233 .0323394
756.952 .0323303
757.671 .0323210
758.390 .0323108
759.108 .0323002
759.826 .0322894
760.544 .0322795
761.262 .0322703
761.979 .0322618
762.697 .0322540
763.414 .0322465
764.130 .0322389
764.847 .0322305
765.563 .0322210
766.279 .0322099
766.995 .0321973
767.710 .0321836
768.426 .0321684
769.141 .0321525
769.855 .0321357
770.570 .0321185
771.284 .0321009
771.998 .0320823
772.712 .0320627
773.426 .0320427
774.139 .0320227
774.852 .0320026
775.565 .0319830
776.277 .0319640
776.990 .0319463
777.702 .0319292
778.414 .0319124
779.125 .0318958
779.836 .0318795
780.547 .0318635
781.258 .0318473
781.969 .0318313
782.679 .0318157
783.389 .0318003
784.099 .0317855
784.808 .0317711
785.517 .0317571
786.226 .0317430
786.935 .0317285
787.643 .0317137
788.352 .0316988
789.060 .0316832
789.767 .0316673
790.475 .0316514
791.182 .0316357
791.889 .0316197
792.595 .0316035
793.301 .0315871
794.008 .0315708
794.713 .0315541
795.419 .0315371
796.124 .0315196
796.829 .0315021
797.534 .0314844
798.238 .0314665
798.942 .0314487
799.646 .0314312
800.350 .0314137
801.053 .0313964
801.756 .0313790
802.459 .0313616
803.162 .0313438
803.864 .0313262
804.566 .0313089
805.267 .0312916
805.969 .0312745
806.670 .0312578
807.371 .0312420
808.071 .0312274
808.772 .0312140
809.472 .0312013
810.171 .0311897
810.871 .0311789
811.570 .0311683
812.269 .0311577
812.967 .0311471
813.666 .0311368
814.364 .0311262
815.061 .0311155
815.759 .0311048
816.456 .0310941
817.153 .0310838
817.849 .0310733
818.545 .0310628
819.241 .0310521
819.937 .0310407
820.632 .0310284
821.327 .0310151
822.022 .0310009
822.717 .0309860
823.411 .0309703
824.105 .0309545
824.798 .0309391
825.491 .0309240
826.184 .0309100
826.877 .0308971
827.569 .0308853
828.261 .0308740
828.953 .0308627
829.645 .0308514
830.336 .0308393
831.027 .0308266
831.717 .0308132
832.407 .0307996
833.097 .0307860
833.787 .0307723
834.476 .0307586
835.165 .0307457
835.854 .0307334
836.542 .0307214
837.230 .0307094
837.918 .0306974
838.605 .0306852
839.292 .0306731
839.979 .0306612
840.665 .0306498
841.352 .0306389
842.037 .0306289
842.723 .0306192
843.408 .0306100
844.093 .0306012
844.777 .0305925
845.462 .0305835
846.145 .0305743
846.829 .0305640
847.512 .0305526
848.195 .0305403
848.878 .0305266
849.560 .0305116
850.242 .0304950
850.923 .0304768
851.605 .0304573
852.286 .0304364
852.966 .0304146
853.646 .0303922
854.326 .0303700
855.006 .0303476
855.685 .0303253
856.364 .0303032
857.043 .0302813
857.721 .0302594
858.399 .0302382
859.077 .0302167
859.754 .0301953
860.431 .0301742
861.107 .0301531
861.784 .0301324
862.459 .0301126
863.135 .0300932
863.810 .0300744
864.485 .0300560
865.160 .0300381
865.834 .0300204
866.508 .0300035
867.181 .0299869
867.854 .0299707
868.527 .0299550
869.199 .0299397
869.872 .0299243
870.543 .0299092
871.215 .0298940
871.886 .0298786
872.557 .0298629
873.227 .0298468
873.897 .0298300
874.567 .0298129
875.236 .0297954
875.905 .0297779
876.573 .0297602
877.242 .0297424
877.909 .0297243
878.577 .0297060
879.244 .0296869
879.911 .0296673
880.577 .0296472
881.243 .0296269
881.909 .0296061
882.575 .0295853
883.240 .0295647
883.904 .0295450
884.569 .0295264
885.232 .0295088
885.896 .0294925
886.559 .0294782
887.222 .0294649
887.885 .0294531
888.547 .0294425
889.208 .0294332
889.870 .0294247
890.531 .0294173
891.192 .0294101
891.852 .0294031
892.512 .0293966
893.171 .0293905
893.830 .0293848
894.489 .0293798
895.148 .0293752
895.806 .0293710
896.464 .0293671
897.121 .0293631
897.778 .0293578
898.434 .0293517
899.091 .0293443
899.747 .0293356
900.402 .0293260
901.057 .0293160
901.712 .0293059
902.366 .0292961
903.020 .0292869
903.674 .0292781
904.327 .0292703
904.980 .0292630
905.633 .0292558
906.285 .0292489
906.936 .0292421
907.588 .0292350
908.239 .0292277
908.889 .0292206
909.540 .0292132
910.190 .0292053
910.839 .0291966
911.488 .0291868
912.137 .0291759
912.785 .0291637
913.433 .0291506
914.081 .0291366
914.728 .0291218
915.375 .0291062
916.021 .0290900
916.668 .0290734
917.313 .0290565
917.959 .0290392
918.604 .0290221
919.248 .0290054
919.892 .0289890
920.536 .0289737
921.180 .0289599
921.823 .0289478
922.465 .0289369
923.108 .0289269
923.750 .0289173
924.391 .0289073
925.032 .0288969
925.673 .0288858
926.313 .0288737
926.953 .0288611
927.593 .0288477
928.232 .0288334
928.871 .0288185
929.510 .0288031
930.148 .0287868
930.786 .0287697
931.423 .0287513
932.060 .0287315
932.697 .0287106
933.333 .0286890
933.969 .0286670
934.604 .0286455
935.239 .0286250
935.874 .0286056
936.508 .0285876
937.142 .0285716
937.776 .0285568
938.409 .0285432
939.042 .0285301
939.674 .0285169
940.306 .0285032
940.938 .0284888
941.569 .0284734
942.200 .0284572
942.830 .0284403
943.460 .0284229
944.090 .0284048
944.720 .0283862
945.349 .0283670
945.977 .0283470
946.606 .0283262
947.233 .0283044
947.861 .0282812
948.488 .0282569
949.115 .0282313
949.741 .0282051
950.367 .0281785
950.993 .0281520
951.618 .0281262
952.243 .0281014
952.868 .0280775
953.492 .0280545
954.115 .0280320
954.739 .0280101
955.362 .0279886
955.984 .0279667
956.607 .0279445
957.229 .0279222
957.850 .0279000
958.471 .0278780
959.092 .0278564
959.713 .0278351
960.333 .0278139
960.952 .0277932
961.572 .0277729
962.191 .0277527
962.809 .0277330
963.428 .0277138
964.045 .0276946
964.663 .0276755
965.280 .0276565
965.897 .0276377
966.513 .0276193
967.129 .0276013
967.745 .0275832
968.361 .0275653
968.976 .0275480
969.590 .0275313
970.205 .0275153
970.818 .0275002
971.432 .0274864
972.045 .0274731
972.658 .0274609
973.271 .0274495
973.883 .0274386
974.495 .0274283
975.106 .0274184
975.717 .0274086
976.328 .0273988
976.938 .0273896
977.548 .0273813
978.158 .0273739
978.768 .0273670
979.377 .0273604
979.985 .0273536
980.594 .0273464
981.202 .0273385
981.809 .0273295
982.417 .0273199
983.024 .0273098
983.631 .0272992
984.237 .0272885
984.843 .0272783
985.449 .0272686
986.054 .0272592
986.659 .0272502
987.264 .0272412
987.868 .0272314
988.472 .0272220
989.076 .0272128
989.679 .0272039
990.282 .0271958
990.885 .0271885
991.487 .0271818
992.090 .0271758
992.691 .0271702
993.293 .0271647
993.894 .0271595
994.495 .0271549
995.095 .0271499
995.696 .0271453
996.296 .0271410
996.895 .0271367
997.494 .0271333
998.093 .0271310
998.692 .0271290
999.291 .0271276
999.889 .0271274
1000.487 .0271276
1001.084 .0271282
1001.681 .0271288
1002.278 .0271296
1002.875 .0271308
1003.471 .0271316
1004.067 .0271325
1004.663 .0271336
1005.258 .0271354
1005.854 .0271372
1006.449 .0271391
1007.043 .0271410
1007.638 .0271420
1008.232 .0271425
1008.826 .0271424
1009.419 .0271421
1010.012 .0271413
1010.605 .0271399
1011.198 .0271388
1011.791 .0271377
1012.383 .0271366
1012.975 .0271346
1013.566 .0271326
1014.158 .0271306
1014.749 .0271290
1015.340 .0271274
1015.931 .0271269
1016.521 .0271279
1017.111 .0271303
1017.701 .0271340
1018.291 .0271387
1018.880 .0271438
1019.470 .0271493
1020.059 .0271549
1020.647 .0271609
1021.236 .0271671
1021.824 .0271747
1022.412 .0271836
1023.000 .0271935
1023.588 .0272049
1024.175 .0272168
1024.762 .0272279
1025.349 .0272388
1025.936 .0272484
1026.523 .0272559
1027.109 .0272621
1027.695 .0272669
1028.281 .0272703
1028.867 .0272727
1029.452 .0272743
1030.038 .0272743
1030.623 .0272737
1031.208 .0272727
1031.792 .0272709
1032.377 .0272697
1032.961 .0272693
1033.546 .0272691
1034.130 .0272695
1034.714 .0272707
1035.297 .0272713
1035.881 .0272714
1036.464 .0272714
1037.047 .0272703
1037.630 .0272688
1038.213 .0272679
1038.796 .0272679
1039.378 .0272690
1039.961 .0272716
1040.543 .0272741
1041.125 .0272755
1041.707 .0272755
1042.289 .0272727
1042.871 .0272670
1043.452 .0272593
1044.034 .0272493
1044.615 .0272372
1045.196 .0272248
1045.777 .0272130
1046.358 .0272012
1046.939 .0271912
1047.520 .0271819
1048.101 .0271730
1048.681 .0271636
1049.262 .0271541
1049.842 .0271442
1050.422 .0271346
1051.002 .0271247
1051.582 .0271136
1052.162 .0271019
1052.742 .0270906
1053.322 .0270788
1053.902 .0270677
1054.482 .0270582
1055.061 .0270502
1055.641 .0270432
1056.220 .0270379
1056.800 .0270329
1057.379 .0270284
1057.958 .0270242
1058.538 .0270187
1059.117 .0270117
1059.696 .0270036
1060.275 .0269947
1060.854 .0269858
1061.433 .0269779
1062.012 .0269712
1062.592 .0269652
1063.171 .0269615
1063.750 .0269590
1064.329 .0269564
1064.908 .0269546
1065.487 .0269515
1066.066 .0269476
1066.645 .0269423
1067.224 .0269358
1067.803 .0269274
1068.382 .0269188
1068.961 .0269106
1069.540 .0269010
1070.119 .0268912
1070.698 .0268809
1071.278 .0268696
1071.857 .0268578
1072.436 .0268444
1073.016 .0268294
1073.595 .0268135
1074.175 .0267985
1074.754 .0267818
1075.334 .0267657
1075.913 .0267508
1076.493 .0267366
1077.073 .0267219
1077.653 .0267073
1078.233 .0266937
1078.813 .0266811
1079.393 .0266704
1079.974 .0266609
1080.554 .0266537
1081.135 .0266495
1081.716 .0266466
1082.296 .0266457
1082.877 .0266451
1083.458 .0266452
1084.040 .0266425
1084.621 .0266367
1085.202 .0266284
1085.784 .0266169
1086.366 .0266044
1086.948 .0265919
1087.530 .0265805
1088.112 .0265699
1088.695 .0265601
1089.277 .0265531
1089.860 .0265463
1090.443 .0265393
1091.026 .0265325
1091.610 .0265259
1092.193 .0265194
1092.777 .0265118
1093.361 .0265041
1093.946 .0264980
1094.530 .0264938
1095.115 .0264901
1095.700 .0264875
1096.285 .0264867
1096.871 .0264880
1097.456 .0264896
1098.042 .0264915
1098.628 .0264948
1099.215 .0264984
1099.802 .0265032
1100.389 .0265095
1100.976 .0265169
1101.564 .0265234
1102.152 .0265283
1102.740 .0265332
1103.329 .0265335
1103.917 .0265301
1104.507 .0265231
1105.096 .0265124
1105.686 .0265002
1106.276 .0264862
1106.867 .0264725
1107.457 .0264617
1108.049 .0264555
1108.640 .0264509
1109.232 .0264475
1109.825 .0264480
1110.417 .0264494
1111.010 .0264507
1111.604 .0264544
1112.198 .0264613
1112.792 .0264706
1113.387 .0264848
1113.982 .0265031
1114.577 .0265271
1115.173 .0265571
1115.769 .0265890
1116.366 .0266226
1116.963 .0266563
1117.561 .0266892
1118.159 .0267187
1118.758 .0267466
1119.357 .0267731
1119.957 .0267973
1120.557 .0268220
1121.157 .0268463
1121.758 .0268718
1122.360 .0268978
1122.962 .0269227
1123.564 .0269480
1124.167 .0269735
1124.771 .0269964
1125.375 .0270175
1125.980 .0270389
1126.585 .0270596
1127.191 .0270804
1127.797 .0271036
1128.404 .0271315
1129.012 .0271635
1129.620 .0272002
1130.229 .0272389
1130.838 .0272774
1131.448 .0273160
1132.058 .0273521
1132.669 .0273876
1133.281 .0274250
1133.894 .0274649
1134.507 .0275106
1135.120 .0275638
1135.735 .0276283
1136.350 .0277016
1136.965 .0277825
1137.582 .0278686
1138.199 .0279542
1138.816 .0280383
1139.435 .0281202
1140.054 .0282008
1140.674 .0282803
1141.294 .0283583
1141.916 .0284381
1142.538 .0285283
1143.160 .0286482
1143.784 .0286999
1144.408 .0287232
1145.033 .0288616
