Measurement Sequence started on: 14-45-04-498
Integration time: 36
Scans to Average: 2 
>>>>>Begin Spectral Data<<<<<
433.946 .0440877
434.870 .0451004
435.793 .0417978
436.715 .0421387
437.635 .0418601
438.555 .0427372
439.473 .0426813
440.389 .0426191
441.305 .0426334
442.219 .0425873
443.132 .0425194
444.044 .0424270
444.954 .0423316
445.863 .0422507
446.771 .0421832
447.678 .0421126
448.584 .0420409
449.488 .0419443
450.391 .0418185
451.293 .0416692
452.194 .0415173
453.094 .0413541
453.992 .0411949
454.890 .0410453
455.786 .0409083
456.681 .0407827
457.575 .0406699
458.468 .0405705
459.360 .0404788
460.250 .0403924
461.140 .0403085
462.028 .0402306
462.915 .0401606
463.801 .0400886
464.687 .0400177
465.571 .0399509
466.454 .0398864
467.335 .0398215
468.216 .0397568
469.096 .0396941
469.975 .0396344
470.853 .0395733
471.729 .0395089
472.605 .0394406
473.479 .0393658
474.353 .0392857
475.226 .0391995
476.097 .0391086
476.968 .0390165
477.838 .0389240
478.706 .0388374
479.574 .0387568
480.441 .0386829
481.306 .0386179
482.171 .0385567
483.035 .0384985
483.898 .0384429
484.760 .0383860
485.621 .0383274
486.481 .0382700
487.340 .0382128
488.198 .0381567
489.055 .0381030
489.912 .0380519
490.767 .0380036
491.622 .0379591
492.476 .0379164
493.329 .0378731
494.180 .0378304
495.032 .0377880
495.882 .0377423
496.731 .0376999
497.580 .0376628
498.427 .0376286
499.274 .0376006
500.120 .0375815
500.965 .0375664
501.809 .0375574
502.653 .0375488
503.495 .0375398
504.337 .0375258
505.178 .0375065
506.018 .0374788
506.858 .0374432
507.696 .0374054
508.534 .0373640
509.371 .0373184
510.208 .0372741
511.043 .0372251
511.878 .0371731
512.712 .0371174
513.545 .0370591
514.377 .0369987
515.209 .0369369
516.040 .0368774
516.870 .0368254
517.699 .0367809
518.528 .0367453
519.356 .0367169
520.183 .0366918
521.010 .0366690
521.836 .0366376
522.661 .0366023
523.485 .0365611
524.309 .0365126
525.132 .0364635
525.954 .0364169
526.776 .0363763
527.597 .0363411
528.417 .0363056
529.237 .0362752
530.056 .0362413
530.874 .0362060
531.692 .0361657
532.508 .0361292
533.325 .0360984
534.140 .0360718
534.955 .0360503
535.770 .0360424
536.583 .0360384
537.397 .0360397
538.209 .0360341
539.021 .0360173
539.832 .0359804
540.643 .0359194
541.453 .0358303
542.262 .0357193
543.071 .0355845
543.879 .0354325
544.687 .0352692
545.494 .0351092
546.300 .0349528
547.106 .0348083
547.911 .0346835
548.716 .0345797
549.520 .0344873
550.323 .0344077
551.126 .0343377
551.929 .0342749
552.731 .0342178
553.532 .0341631
554.332 .0341167
555.133 .0340809
555.932 .0340565
556.731 .0340423
557.530 .0340399
558.328 .0340485
559.125 .0340597
559.922 .0340714
560.719 .0340794
561.515 .0340784
562.310 .0340695
563.105 .0340553
563.899 .0340382
564.693 .0340191
565.487 .0340017
566.280 .0339844
567.072 .0339677
567.864 .0339461
568.655 .0339179
569.446 .0338842
570.236 .0338439
571.026 .0337962
571.816 .0337417
572.605 .0336857
573.393 .0336302
574.181 .0335777
574.969 .0335308
575.756 .0334870
576.543 .0334468
577.329 .0334060
578.115 .0333644
578.900 .0333245
579.685 .0332863
580.469 .0332505
581.253 .0332203
582.036 .0331951
582.820 .0331743
583.602 .0331570
584.384 .0331422
585.166 .0331270
585.947 .0331093
586.728 .0330863
587.509 .0330562
588.289 .0330213
589.069 .0329837
589.848 .0329430
590.627 .0329021
591.405 .0328618
592.183 .0328231
592.961 .0327857
593.738 .0327496
594.515 .0327132
595.291 .0326767
596.067 .0326397
596.843 .0326020
597.618 .0325644
598.393 .0325287
599.167 .0324948
599.941 .0324646
600.715 .0324378
601.488 .0324134
602.261 .0323899
603.034 .0323682
603.806 .0323469
604.578 .0323254
605.349 .0323036
606.121 .0322815
606.891 .0322595
607.662 .0322378
608.432 .0322155
609.201 .0321932
609.971 .0321709
610.740 .0321477
611.508 .0321235
612.277 .0320987
613.045 .0320732
613.812 .0320482
614.579 .0320239
615.346 .0320010
616.113 .0319787
616.879 .0319581
617.645 .0319386
618.411 .0319198
619.176 .0319023
619.941 .0318844
620.705 .0318668
621.470 .0318493
622.233 .0318308
622.997 .0318116
623.760 .0317921
624.523 .0317720
625.286 .0317508
626.048 .0317286
626.810 .0317054
627.572 .0316808
628.333 .0316558
629.095 .0316299
629.855 .0316029
630.616 .0315751
631.376 .0315462
632.136 .0315163
632.895 .0314864
633.655 .0314567
634.414 .0314279
635.172 .0314008
635.931 .0313758
636.689 .0313532
637.447 .0313329
638.204 .0313150
638.962 .0312987
639.718 .0312836
640.475 .0312694
641.231 .0312548
641.988 .0312400
642.743 .0312251
643.499 .0312093
644.254 .0311928
645.009 .0311753
645.764 .0311572
646.518 .0311383
647.272 .0311187
648.026 .0310986
648.780 .0310779
649.533 .0310567
650.286 .0310346
651.039 .0310114
651.792 .0309872
652.544 .0309620
653.296 .0309353
654.048 .0309088
654.799 .0308824
655.550 .0308567
656.301 .0308320
657.052 .0308084
657.802 .0307862
658.552 .0307648
659.302 .0307438
660.052 .0307237
660.801 .0307040
661.550 .0306856
662.299 .0306678
663.048 .0306508
663.796 .0306356
664.544 .0306214
665.292 .0306080
666.040 .0305953
666.787 .0305828
667.534 .0305699
668.281 .0305559
669.028 .0305413
669.774 .0305255
670.521 .0305086
671.266 .0304908
672.012 .0304720
672.758 .0304528
673.503 .0304332
674.248 .0304129
674.992 .0303923
675.737 .0303713
676.481 .0303498
677.225 .0303274
677.969 .0303041
678.712 .0302798
679.455 .0302546
680.199 .0302288
680.941 .0302031
681.684 .0301777
682.426 .0301536
683.168 .0301308
683.910 .0301097
684.652 .0300902
685.393 .0300717
686.134 .0300540
686.875 .0300370
687.616 .0300205
688.356 .0300046
689.097 .0299892
689.837 .0299746
690.576 .0299612
691.316 .0299492
692.055 .0299381
692.794 .0299279
693.533 .0299181
694.272 .0299082
695.010 .0298982
695.748 .0298879
696.486 .0298769
697.224 .0298659
697.962 .0298547
698.699 .0298433
699.436 .0298318
700.173 .0298202
700.909 .0298082
701.646 .0297958
702.382 .0297833
703.118 .0297701
703.853 .0297568
704.589 .0297437
705.324 .0297310
706.059 .0297193
706.794 .0297085
707.529 .0296986
708.263 .0296897
708.997 .0296814
709.731 .0296733
710.465 .0296651
711.198 .0296564
711.931 .0296473
712.664 .0296373
713.397 .0296266
714.130 .0296148
714.862 .0296024
715.594 .0295896
716.326 .0295761
717.058 .0295624
717.789 .0295486
718.520 .0295342
719.251 .0295200
719.982 .0295055
720.713 .0294910
721.443 .0294762
722.173 .0294612
722.903 .0294457
723.633 .0294301
724.362 .0294140
725.091 .0293974
725.820 .0293811
726.549 .0293657
727.278 .0293508
728.006 .0293366
728.734 .0293231
729.462 .0293098
730.190 .0292967
730.917 .0292840
731.644 .0292707
732.371 .0292570
733.098 .0292430
733.825 .0292286
734.551 .0292139
735.277 .0291990
736.003 .0291841
736.728 .0291689
737.454 .0291536
738.179 .0291379
738.904 .0291217
739.629 .0291061
740.353 .0290911
741.077 .0290768
741.801 .0290636
742.525 .0290514
743.249 .0290396
743.972 .0290282
744.695 .0290171
745.418 .0290057
746.141 .0289940
746.863 .0289824
747.585 .0289709
748.307 .0289599
749.029 .0289501
749.750 .0289412
750.472 .0289334
751.193 .0289263
751.913 .0289191
752.634 .0289113
753.354 .0289031
754.074 .0288940
754.794 .0288841
755.514 .0288738
756.233 .0288636
756.952 .0288532
757.671 .0288434
758.390 .0288342
759.108 .0288257
759.826 .0288183
760.544 .0288116
761.262 .0288051
761.979 .0287990
762.697 .0287929
763.414 .0287863
764.130 .0287794
764.847 .0287724
765.563 .0287653
766.279 .0287582
766.995 .0287513
767.710 .0287443
768.426 .0287379
769.141 .0287323
769.855 .0287270
770.570 .0287218
771.284 .0287169
771.998 .0287117
772.712 .0287063
773.426 .0287011
774.139 .0286962
774.852 .0286919
775.565 .0286885
776.277 .0286855
776.990 .0286834
777.702 .0286818
778.414 .0286810
779.125 .0286802
779.836 .0286796
780.547 .0286786
781.258 .0286774
781.969 .0286758
782.679 .0286742
783.389 .0286720
784.099 .0286697
784.808 .0286666
785.517 .0286631
786.226 .0286582
786.935 .0286526
787.643 .0286463
788.352 .0286397
789.060 .0286324
789.767 .0286250
790.475 .0286172
791.182 .0286091
791.889 .0286006
792.595 .0285913
793.301 .0285809
794.008 .0285697
794.713 .0285572
795.419 .0285438
796.124 .0285300
796.829 .0285162
797.534 .0285026
798.238 .0284901
798.942 .0284781
799.646 .0284670
800.350 .0284561
801.053 .0284453
801.756 .0284340
802.459 .0284219
803.162 .0284090
803.864 .0283954
804.566 .0283819
805.267 .0283685
805.969 .0283553
806.670 .0283430
807.371 .0283316
808.071 .0283209
808.772 .0283107
809.472 .0283000
810.171 .0282891
810.871 .0282772
811.570 .0282644
812.269 .0282505
812.967 .0282358
813.666 .0282203
814.364 .0282045
815.061 .0281884
815.759 .0281729
816.456 .0281577
817.153 .0281430
817.849 .0281284
818.545 .0281140
819.241 .0280993
819.937 .0280843
820.632 .0280686
821.327 .0280528
822.022 .0280361
822.717 .0280194
823.411 .0280025
824.105 .0279866
824.798 .0279719
825.491 .0279582
826.184 .0279454
826.877 .0279336
827.569 .0279227
828.261 .0279120
828.953 .0279011
829.645 .0278903
830.336 .0278795
831.027 .0278687
831.717 .0278578
832.407 .0278476
833.097 .0278381
833.787 .0278296
834.476 .0278215
835.165 .0278143
835.854 .0278077
836.542 .0278017
837.230 .0277966
837.918 .0277925
838.605 .0277896
839.292 .0277875
839.979 .0277863
840.665 .0277862
841.352 .0277868
842.037 .0277876
842.723 .0277886
843.408 .0277898
844.093 .0277907
844.777 .0277908
845.462 .0277908
846.145 .0277908
846.829 .0277905
847.512 .0277895
848.195 .0277879
848.878 .0277857
849.560 .0277827
850.242 .0277787
850.923 .0277738
851.605 .0277681
852.286 .0277615
852.966 .0277538
853.646 .0277455
854.326 .0277372
855.006 .0277289
855.685 .0277210
856.364 .0277136
857.043 .0277070
857.721 .0277007
858.399 .0276948
859.077 .0276890
859.754 .0276832
860.431 .0276768
861.107 .0276702
861.784 .0276630
862.459 .0276557
863.135 .0276482
863.810 .0276409
864.485 .0276337
865.160 .0276272
865.834 .0276212
866.508 .0276150
867.181 .0276086
867.854 .0276022
868.527 .0275950
869.199 .0275875
869.872 .0275796
870.543 .0275709
871.215 .0275615
871.886 .0275514
872.557 .0275402
873.227 .0275279
873.897 .0275148
874.567 .0275004
875.236 .0274849
875.905 .0274693
876.573 .0274535
877.242 .0274374
877.909 .0274224
878.577 .0274079
879.244 .0273934
879.911 .0273787
880.577 .0273635
881.243 .0273475
881.909 .0273309
882.575 .0273135
883.240 .0272951
883.904 .0272763
884.569 .0272573
885.232 .0272380
885.896 .0272187
886.559 .0271997
887.222 .0271809
887.885 .0271622
888.547 .0271440
889.208 .0271257
889.870 .0271076
890.531 .0270902
891.192 .0270735
891.852 .0270577
892.512 .0270428
893.171 .0270298
893.830 .0270185
894.489 .0270093
895.148 .0270017
895.806 .0269953
896.464 .0269899
897.121 .0269848
897.778 .0269793
898.434 .0269729
899.091 .0269650
899.747 .0269558
900.402 .0269452
901.057 .0269338
901.712 .0269216
902.366 .0269089
903.020 .0268959
903.674 .0268826
904.327 .0268683
904.980 .0268538
905.633 .0268390
906.285 .0268247
906.936 .0268108
907.588 .0267979
908.239 .0267865
908.889 .0267765
909.540 .0267678
910.190 .0267595
910.839 .0267512
911.488 .0267423
912.137 .0267323
912.785 .0267212
913.433 .0267094
914.081 .0266973
914.728 .0266853
915.375 .0266735
916.021 .0266617
916.668 .0266496
917.313 .0266372
917.959 .0266242
918.604 .0266102
919.248 .0265954
919.892 .0265802
920.536 .0265648
921.180 .0265503
921.823 .0265366
922.465 .0265243
923.108 .0265137
923.750 .0265045
924.391 .0264963
925.032 .0264881
925.673 .0264802
926.313 .0264722
926.953 .0264639
927.593 .0264554
928.232 .0264470
928.871 .0264385
929.510 .0264301
930.148 .0264217
930.786 .0264135
931.423 .0264058
932.060 .0263986
932.697 .0263918
933.333 .0263856
933.969 .0263798
934.604 .0263747
935.239 .0263699
935.874 .0263656
936.508 .0263606
937.142 .0263553
937.776 .0263495
938.409 .0263431
939.042 .0263359
939.674 .0263280
940.306 .0263192
940.938 .0263095
941.569 .0262993
942.200 .0262883
942.830 .0262767
943.460 .0262649
944.090 .0262525
944.720 .0262396
945.349 .0262262
945.977 .0262120
946.606 .0261970
947.233 .0261819
947.861 .0261665
948.488 .0261508
949.115 .0261356
949.741 .0261212
950.367 .0261077
950.993 .0260953
951.618 .0260843
952.243 .0260737
952.868 .0260638
953.492 .0260536
954.115 .0260431
954.739 .0260320
955.362 .0260208
955.984 .0260090
956.607 .0259977
957.229 .0259870
957.850 .0259772
958.471 .0259675
959.092 .0259584
959.713 .0259485
960.333 .0259379
960.952 .0259265
961.572 .0259145
962.191 .0259020
962.809 .0258904
963.428 .0258792
964.045 .0258695
964.663 .0258610
965.280 .0258537
965.897 .0258466
966.513 .0258396
967.129 .0258321
967.745 .0258237
968.361 .0258150
968.976 .0258066
969.590 .0257987
970.205 .0257922
970.818 .0257870
971.432 .0257833
972.045 .0257807
972.658 .0257788
973.271 .0257766
973.883 .0257735
974.495 .0257691
975.106 .0257632
975.717 .0257560
976.328 .0257481
976.938 .0257401
977.548 .0257325
978.158 .0257251
978.768 .0257179
979.377 .0257102
979.985 .0257013
980.594 .0256908
981.202 .0256788
981.809 .0256650
982.417 .0256496
983.024 .0256333
983.631 .0256167
984.237 .0256006
984.843 .0255849
985.449 .0255697
986.054 .0255544
986.659 .0255391
987.264 .0255231
987.868 .0255065
988.472 .0254901
989.076 .0254740
989.679 .0254588
990.282 .0254453
990.885 .0254334
991.487 .0254229
992.090 .0254135
992.691 .0254053
993.293 .0253977
993.894 .0253907
994.495 .0253837
995.095 .0253773
995.696 .0253710
996.296 .0253653
996.895 .0253589
997.494 .0253526
998.093 .0253461
998.692 .0253394
999.291 .0253322
999.889 .0253251
1000.487 .0253179
1001.084 .0253107
1001.681 .0253032
1002.278 .0252951
1002.875 .0252863
1003.471 .0252767
1004.067 .0252657
1004.663 .0252544
1005.258 .0252424
1005.854 .0252306
1006.449 .0252189
1007.043 .0252082
1007.638 .0251979
1008.232 .0251878
1008.826 .0251781
1009.419 .0251683
1010.012 .0251585
1010.605 .0251487
1011.198 .0251390
1011.791 .0251299
1012.383 .0251215
1012.975 .0251139
1013.566 .0251067
1014.158 .0250995
1014.749 .0250922
1015.340 .0250842
1015.931 .0250752
1016.521 .0250661
1017.111 .0250572
1017.701 .0250496
1018.291 .0250444
1018.880 .0250414
1019.470 .0250412
1020.059 .0250435
1020.647 .0250478
1021.236 .0250526
1021.824 .0250583
1022.412 .0250640
1023.000 .0250691
1023.588 .0250744
1024.175 .0250800
1024.762 .0250862
1025.349 .0250934
1025.936 .0251019
1026.523 .0251114
1027.109 .0251213
1027.695 .0251306
1028.281 .0251384
1028.867 .0251446
1029.452 .0251488
1030.038 .0251510
1030.623 .0251517
1031.208 .0251523
1031.792 .0251530
1032.377 .0251540
1032.961 .0251556
1033.546 .0251583
1034.130 .0251614
1034.714 .0251643
1035.297 .0251664
1035.881 .0251677
1036.464 .0251681
1037.047 .0251686
1037.630 .0251691
1038.213 .0251704
1038.796 .0251727
1039.378 .0251760
1039.961 .0251793
1040.543 .0251822
1041.125 .0251834
1041.707 .0251828
1042.289 .0251808
1042.871 .0251775
1043.452 .0251733
1044.034 .0251701
1044.615 .0251680
1045.196 .0251687
1045.777 .0251718
1046.358 .0251771
1046.939 .0251831
1047.520 .0251897
1048.101 .0251959
1048.681 .0252006
1049.262 .0252046
1049.842 .0252077
1050.422 .0252113
1051.002 .0252164
1051.582 .0252220
1052.162 .0252294
1052.742 .0252384
1053.322 .0252486
1053.902 .0252587
1054.482 .0252685
1055.061 .0252772
1055.641 .0252846
1056.220 .0252908
1056.800 .0252956
1057.379 .0252993
1057.958 .0253018
1058.538 .0253036
1059.117 .0253053
1059.696 .0253074
1060.275 .0253092
1060.854 .0253102
1061.433 .0253118
1062.012 .0253126
1062.592 .0253127
1063.171 .0253127
1063.750 .0253127
1064.329 .0253136
1064.908 .0253144
1065.487 .0253154
1066.066 .0253157
1066.645 .0253163
1067.224 .0253173
1067.803 .0253174
1068.382 .0253176
1068.961 .0253172
1069.540 .0253159
1070.119 .0253148
1070.698 .0253143
1071.278 .0253135
1071.857 .0253134
1072.436 .0253146
1073.016 .0253164
1073.595 .0253187
1074.175 .0253211
1074.754 .0253240
1075.334 .0253271
1075.913 .0253314
1076.493 .0253365
1077.073 .0253417
1077.653 .0253492
1078.233 .0253581
1078.813 .0253680
1079.393 .0253789
1079.974 .0253893
1080.554 .0253995
1081.135 .0254089
1081.716 .0254167
1082.296 .0254230
1082.877 .0254285
1083.458 .0254326
1084.040 .0254360
1084.621 .0254379
1085.202 .0254384
1085.784 .0254359
1086.366 .0254318
1086.948 .0254252
1087.530 .0254163
1088.112 .0254065
1088.695 .0253955
1089.277 .0253852
1089.860 .0253772
1090.443 .0253698
1091.026 .0253630
1091.610 .0253583
1092.193 .0253537
1092.777 .0253487
1093.361 .0253432
1093.946 .0253363
1094.530 .0253281
1095.115 .0253197
1095.700 .0253114
1096.285 .0253024
1096.871 .0252941
1097.456 .0252867
1098.042 .0252769
1098.628 .0252671
1099.215 .0252546
1099.802 .0252405
1100.389 .0252250
1100.976 .0252112
1101.564 .0251968
1102.152 .0251816
1102.740 .0251657
1103.329 .0251475
1103.917 .0251278
1104.507 .0251090
1105.096 .0250891
1105.686 .0250711
1106.276 .0250566
1106.867 .0250483
1107.457 .0250451
1108.049 .0250496
1108.640 .0250602
1109.232 .0250764
1109.825 .0250948
1110.417 .0251135
1111.010 .0251294
1111.604 .0251452
1112.198 .0251623
1112.792 .0251796
1113.387 .0251984
1113.982 .0252191
1114.577 .0252409
1115.173 .0252641
1115.769 .0252853
1116.366 .0253046
1116.963 .0253201
1117.561 .0253299
1118.159 .0253347
1118.758 .0253330
1119.357 .0253269
1119.957 .0253184
1120.557 .0253097
1121.157 .0253017
1121.758 .0252923
1122.360 .0252845
1122.962 .0252780
1123.564 .0252745
1124.167 .0252732
1124.771 .0252728
1125.375 .0252742
1125.980 .0252785
1126.585 .0252851
1127.191 .0252938
1127.797 .0253092
1128.404 .0253307
1129.012 .0253595
1129.620 .0253955
1130.229 .0254363
1130.838 .0254825
1131.448 .0255292
1132.058 .0255764
1132.669 .0256194
1133.281 .0256579
1133.894 .0256942
1134.507 .0257302
1135.120 .0257693
1135.735 .0258111
1136.350 .0258584
1136.965 .0259084
1137.582 .0259582
1138.199 .0260072
1138.816 .0260476
1139.435 .0260826
1140.054 .0261191
1140.674 .0261604
1141.294 .0261987
1141.916 .0262278
1142.538 .0261815
1143.160 .0264291
1143.784 .0266204
1144.408 .0264100
1145.033 .0260358
