Measurement Sequence started on: 14-45-04-498
Integration time: 36
Scans to Average: 2 
>>>>>Begin Spectral Data<<<<<
433.946 .0682337
434.870 .0550904
435.793 .0467280
436.715 .0447689
437.635 .0435070
438.555 .0454413
439.473 .0441236
440.389 .0435395
441.305 .0433271
442.219 .0431954
443.132 .0430920
444.044 .0429775
444.954 .0428642
445.863 .0427408
446.771 .0426239
447.678 .0425140
448.584 .0424265
449.488 .0423439
450.391 .0422635
451.293 .0421783
452.194 .0420920
453.094 .0419818
453.992 .0418460
454.890 .0416775
455.786 .0414861
456.681 .0412783
457.575 .0410575
458.468 .0408466
459.360 .0406469
460.250 .0404727
461.140 .0403073
462.028 .0401500
462.915 .0399982
463.801 .0398346
464.687 .0396584
465.571 .0394626
466.454 .0392548
467.335 .0390479
468.216 .0388476
469.096 .0386612
469.975 .0384984
470.853 .0383638
471.729 .0382502
472.605 .0381582
473.479 .0380761
474.353 .0379992
475.226 .0379190
476.097 .0378411
476.968 .0377634
477.838 .0376870
478.706 .0376165
479.574 .0375542
480.441 .0375042
481.306 .0374660
482.171 .0374324
483.035 .0374038
483.898 .0373816
484.760 .0373604
485.621 .0373349
486.481 .0373093
487.340 .0372793
488.198 .0372480
489.055 .0372113
489.912 .0371690
490.767 .0371194
491.622 .0370650
492.476 .0370074
493.329 .0369469
494.180 .0368851
495.032 .0368283
495.882 .0367728
496.731 .0367206
497.580 .0366681
498.427 .0366155
499.274 .0365555
500.120 .0364899
500.965 .0364138
501.809 .0363322
502.653 .0362486
503.495 .0361726
504.337 .0361006
505.178 .0360363
506.018 .0359795
506.858 .0359231
507.696 .0358697
508.534 .0358174
509.371 .0357554
510.208 .0356904
511.043 .0356266
511.878 .0355617
512.712 .0355002
513.545 .0354519
514.377 .0354120
515.209 .0353795
516.040 .0353548
516.870 .0353292
517.699 .0353058
518.528 .0352938
519.356 .0352970
520.183 .0353131
521.010 .0353525
521.836 .0354044
522.661 .0354688
523.485 .0355437
524.309 .0356086
525.132 .0356564
525.954 .0356884
526.776 .0357016
527.597 .0356962
528.417 .0356745
529.237 .0356548
530.056 .0356391
530.874 .0356358
531.692 .0356402
532.508 .0356492
533.325 .0356551
534.140 .0356507
534.955 .0356296
535.770 .0355886
536.583 .0355296
537.397 .0354612
538.209 .0353858
539.021 .0353137
539.832 .0352467
540.643 .0351788
541.453 .0351147
542.262 .0350651
543.071 .0350070
543.879 .0349400
544.687 .0348628
545.494 .0347739
546.300 .0346698
547.106 .0345584
547.911 .0344386
548.716 .0343139
549.520 .0341920
550.323 .0340639
551.126 .0339285
551.929 .0337978
552.731 .0336641
553.532 .0335243
554.332 .0333808
555.133 .0332362
555.932 .0330822
556.731 .0329371
557.530 .0328032
558.328 .0326796
559.125 .0325738
559.922 .0324812
560.719 .0324002
561.515 .0323312
562.310 .0322717
563.105 .0322160
563.899 .0321657
564.693 .0321214
565.487 .0320751
566.280 .0320297
567.072 .0319904
567.864 .0319520
568.655 .0319158
569.446 .0318839
570.236 .0318520
571.026 .0318211
571.816 .0317901
572.605 .0317538
573.393 .0317152
574.181 .0316717
574.969 .0316240
575.756 .0315717
576.543 .0315218
577.329 .0314727
578.115 .0314254
578.900 .0313866
579.685 .0313536
580.469 .0313277
581.253 .0313086
582.036 .0312923
582.820 .0312768
583.602 .0312601
584.384 .0312408
585.166 .0312193
585.947 .0311989
586.728 .0311798
587.509 .0311632
588.289 .0311513
589.069 .0311426
589.848 .0311363
590.627 .0311324
591.405 .0311295
592.183 .0311243
592.961 .0311176
593.738 .0311072
594.515 .0310964
595.291 .0310834
596.067 .0310684
596.843 .0310522
597.618 .0310359
598.393 .0310193
599.167 .0310015
599.941 .0309840
600.715 .0309666
601.488 .0309500
602.261 .0309351
603.034 .0309204
603.806 .0309076
604.578 .0308958
605.349 .0308859
606.121 .0308765
606.891 .0308690
607.662 .0308618
608.432 .0308561
609.201 .0308517
609.971 .0308485
610.740 .0308460
611.508 .0308440
612.277 .0308423
613.045 .0308398
613.812 .0308358
614.579 .0308290
615.346 .0308200
616.113 .0308091
616.879 .0307961
617.645 .0307838
618.411 .0307719
619.176 .0307617
619.941 .0307532
620.705 .0307464
621.470 .0307408
622.233 .0307357
622.997 .0307310
623.760 .0307252
624.523 .0307193
625.286 .0307129
626.048 .0307066
626.810 .0307009
627.572 .0306973
628.333 .0306955
629.095 .0306960
629.855 .0306981
630.616 .0307007
631.376 .0307038
632.136 .0307076
632.895 .0307104
633.655 .0307119
634.414 .0307117
635.172 .0307105
635.931 .0307065
636.689 .0307007
637.447 .0306925
638.204 .0306828
638.962 .0306716
639.718 .0306596
640.475 .0306464
641.231 .0306331
641.988 .0306193
642.743 .0306055
643.499 .0305913
644.254 .0305765
645.009 .0305594
645.764 .0305421
646.518 .0305246
647.272 .0305074
648.026 .0304916
648.780 .0304783
649.533 .0304679
650.286 .0304610
651.039 .0304562
651.792 .0304536
652.544 .0304526
653.296 .0304528
654.048 .0304524
654.799 .0304531
655.550 .0304534
656.301 .0304531
657.052 .0304526
657.802 .0304516
658.552 .0304491
659.302 .0304453
660.052 .0304403
660.801 .0304335
661.550 .0304261
662.299 .0304181
663.048 .0304088
663.796 .0303999
664.544 .0303900
665.292 .0303782
666.040 .0303650
666.787 .0303508
667.534 .0303346
668.281 .0303171
669.028 .0302994
669.774 .0302810
670.521 .0302629
671.266 .0302454
672.012 .0302282
672.758 .0302119
673.503 .0301964
674.248 .0301804
674.992 .0301649
675.737 .0301503
676.481 .0301358
677.225 .0301219
677.969 .0301087
678.712 .0300956
679.455 .0300827
680.199 .0300701
680.941 .0300578
681.684 .0300461
682.426 .0300353
683.168 .0300253
683.910 .0300169
684.652 .0300099
685.393 .0300040
686.134 .0299986
686.875 .0299936
687.616 .0299878
688.356 .0299813
689.097 .0299736
689.837 .0299647
690.576 .0299552
691.316 .0299450
692.055 .0299340
692.794 .0299222
693.533 .0299099
694.272 .0298974
695.010 .0298847
695.748 .0298721
696.486 .0298588
697.224 .0298458
697.962 .0298323
698.699 .0298179
699.436 .0298026
700.173 .0297868
700.909 .0297703
701.646 .0297532
702.382 .0297371
703.118 .0297227
703.853 .0297106
704.589 .0297013
705.324 .0296948
706.059 .0296900
706.794 .0296860
707.529 .0296817
708.263 .0296765
708.997 .0296706
709.731 .0296633
710.465 .0296547
711.198 .0296462
711.931 .0296386
712.664 .0296321
713.397 .0296268
714.130 .0296234
714.862 .0296206
715.594 .0296174
716.326 .0296132
717.058 .0296074
717.789 .0296003
718.520 .0295918
719.251 .0295818
719.982 .0295710
720.713 .0295605
721.443 .0295497
722.173 .0295391
722.903 .0295290
723.633 .0295187
724.362 .0295077
725.091 .0294954
725.820 .0294817
726.549 .0294666
727.278 .0294497
728.006 .0294319
728.734 .0294131
729.462 .0293944
730.190 .0293754
730.917 .0293573
731.644 .0293401
732.371 .0293238
733.098 .0293083
733.825 .0292933
734.551 .0292784
735.277 .0292637
736.003 .0292488
736.728 .0292339
737.454 .0292191
738.179 .0292052
738.904 .0291914
739.629 .0291785
740.353 .0291668
741.077 .0291562
741.801 .0291465
742.525 .0291380
743.249 .0291310
743.972 .0291257
744.695 .0291226
745.418 .0291215
746.141 .0291222
746.863 .0291252
747.585 .0291302
748.307 .0291364
749.029 .0291434
749.750 .0291508
750.472 .0291582
751.193 .0291657
751.913 .0291734
752.634 .0291810
753.354 .0291887
754.074 .0291960
754.794 .0292022
755.514 .0292062
756.233 .0292080
756.952 .0292068
757.671 .0292028
758.390 .0291963
759.108 .0291873
759.826 .0291763
760.544 .0291645
761.262 .0291522
761.979 .0291395
762.697 .0291260
763.414 .0291112
764.130 .0290957
764.847 .0290796
765.563 .0290632
766.279 .0290468
766.995 .0290309
767.710 .0290160
768.426 .0290012
769.141 .0289863
769.855 .0289716
770.570 .0289561
771.284 .0289402
771.998 .0289239
772.712 .0289077
773.426 .0288922
774.139 .0288783
774.852 .0288663
775.565 .0288564
776.277 .0288486
776.990 .0288423
777.702 .0288364
778.414 .0288309
779.125 .0288252
779.836 .0288186
780.547 .0288118
781.258 .0288051
781.969 .0287984
782.679 .0287935
783.389 .0287904
784.099 .0287894
784.808 .0287905
785.517 .0287937
786.226 .0287979
786.935 .0288020
787.643 .0288060
788.352 .0288092
789.060 .0288116
789.767 .0288137
790.475 .0288152
791.182 .0288170
791.889 .0288193
792.595 .0288216
793.301 .0288241
794.008 .0288254
794.713 .0288249
795.419 .0288218
796.124 .0288162
796.829 .0288079
797.534 .0287975
798.238 .0287859
798.942 .0287743
799.646 .0287628
800.350 .0287518
801.053 .0287408
801.756 .0287301
802.459 .0287185
803.162 .0287060
803.864 .0286924
804.566 .0286781
805.267 .0286628
805.969 .0286476
806.670 .0286326
807.371 .0286186
808.071 .0286057
808.772 .0285932
809.472 .0285805
810.171 .0285672
810.871 .0285525
811.570 .0285362
812.269 .0285182
812.967 .0284988
813.666 .0284784
814.364 .0284580
815.061 .0284380
815.759 .0284195
816.456 .0284028
817.153 .0283879
817.849 .0283743
818.545 .0283615
819.241 .0283489
819.937 .0283363
820.632 .0283234
821.327 .0283102
822.022 .0282973
822.717 .0282855
823.411 .0282743
824.105 .0282646
824.798 .0282560
825.491 .0282479
826.184 .0282404
826.877 .0282327
827.569 .0282245
828.261 .0282158
828.953 .0282073
829.645 .0281991
830.336 .0281916
831.027 .0281853
831.717 .0281800
832.407 .0281761
833.097 .0281733
833.787 .0281703
834.476 .0281674
835.165 .0281643
835.854 .0281609
836.542 .0281570
837.230 .0281526
837.918 .0281485
838.605 .0281447
839.292 .0281410
839.979 .0281370
840.665 .0281324
841.352 .0281271
842.037 .0281205
842.723 .0281122
843.408 .0281023
844.093 .0280904
844.777 .0280777
845.462 .0280639
846.145 .0280489
846.829 .0280342
847.512 .0280189
848.195 .0280038
848.878 .0279889
849.560 .0279736
850.242 .0279577
850.923 .0279413
851.605 .0279245
852.286 .0279063
852.966 .0278874
853.646 .0278681
854.326 .0278478
855.006 .0278279
855.685 .0278082
856.364 .0277879
857.043 .0277675
857.721 .0277471
858.399 .0277249
859.077 .0277014
859.754 .0276757
860.431 .0276477
861.107 .0276183
861.784 .0275877
862.459 .0275558
863.135 .0275241
863.810 .0274939
864.485 .0274651
865.160 .0274381
865.834 .0274142
866.508 .0273924
867.181 .0273738
867.854 .0273576
868.527 .0273438
869.199 .0273323
869.872 .0273232
870.543 .0273163
871.215 .0273112
871.886 .0273082
872.557 .0273069
873.227 .0273067
873.897 .0273088
874.567 .0273116
875.236 .0273156
875.905 .0273205
876.573 .0273255
877.242 .0273298
877.909 .0273329
878.577 .0273344
879.244 .0273343
879.911 .0273328
880.577 .0273303
881.243 .0273276
881.909 .0273258
882.575 .0273256
883.240 .0273265
883.904 .0273283
884.569 .0273306
885.232 .0273324
885.896 .0273330
886.559 .0273318
887.222 .0273290
887.885 .0273252
888.547 .0273210
889.208 .0273164
889.870 .0273119
890.531 .0273080
891.192 .0273046
891.852 .0273008
892.512 .0272962
893.171 .0272903
893.830 .0272826
894.489 .0272732
895.148 .0272617
895.806 .0272484
896.464 .0272338
897.121 .0272184
897.778 .0272019
898.434 .0271847
899.091 .0271671
899.747 .0271481
900.402 .0271288
901.057 .0271082
901.712 .0270870
902.366 .0270643
903.020 .0270408
903.674 .0270171
904.327 .0269928
904.980 .0269689
905.633 .0269452
906.285 .0269223
906.936 .0269007
907.588 .0268797
908.239 .0268591
908.889 .0268382
909.540 .0268173
910.190 .0267951
910.839 .0267722
911.488 .0267482
912.137 .0267235
912.785 .0266979
913.433 .0266728
914.081 .0266481
914.728 .0266236
915.375 .0265995
916.021 .0265757
916.668 .0265520
917.313 .0265286
917.959 .0265054
918.604 .0264832
919.248 .0264628
919.892 .0264449
920.536 .0264293
921.180 .0264165
921.823 .0264066
922.465 .0263985
923.108 .0263916
923.750 .0263852
924.391 .0263784
925.032 .0263712
925.673 .0263640
926.313 .0263564
926.953 .0263493
927.593 .0263430
928.232 .0263377
928.871 .0263334
929.510 .0263296
930.148 .0263253
930.786 .0263203
931.423 .0263142
932.060 .0263075
932.697 .0262994
933.333 .0262914
933.969 .0262834
934.604 .0262758
935.239 .0262694
935.874 .0262638
936.508 .0262593
937.142 .0262561
937.776 .0262532
938.409 .0262508
939.042 .0262479
939.674 .0262449
940.306 .0262417
940.938 .0262392
941.569 .0262376
942.200 .0262368
942.830 .0262370
943.460 .0262386
944.090 .0262406
944.720 .0262431
945.349 .0262456
945.977 .0262474
946.606 .0262487
947.233 .0262486
947.861 .0262469
948.488 .0262440
949.115 .0262397
949.741 .0262343
950.367 .0262269
950.993 .0262179
951.618 .0262066
952.243 .0261928
952.868 .0261769
953.492 .0261584
954.115 .0261378
954.739 .0261155
955.362 .0260918
955.984 .0260669
956.607 .0260412
957.229 .0260147
957.850 .0259870
958.471 .0259586
959.092 .0259284
959.713 .0258967
960.333 .0258641
960.952 .0258312
961.572 .0257980
962.191 .0257653
962.809 .0257337
963.428 .0257031
964.045 .0256740
964.663 .0256458
965.280 .0256179
965.897 .0255905
966.513 .0255631
967.129 .0255355
967.745 .0255078
968.361 .0254810
968.976 .0254550
969.590 .0254311
970.205 .0254094
970.818 .0253905
971.432 .0253747
972.045 .0253626
972.658 .0253532
973.271 .0253456
973.883 .0253384
974.495 .0253305
975.106 .0253216
975.717 .0253113
976.328 .0252994
976.938 .0252864
977.548 .0252731
978.158 .0252600
978.768 .0252470
979.377 .0252339
979.985 .0252205
980.594 .0252074
981.202 .0251939
981.809 .0251793
982.417 .0251641
983.024 .0251497
983.631 .0251371
984.237 .0251271
984.843 .0251196
985.449 .0251149
986.054 .0251136
986.659 .0251150
987.264 .0251193
987.868 .0251266
988.472 .0251369
989.076 .0251498
989.679 .0251656
990.282 .0251831
990.885 .0252019
991.487 .0252208
992.090 .0252399
992.691 .0252580
993.293 .0252750
993.894 .0252902
994.495 .0253047
995.095 .0253190
995.696 .0253338
996.296 .0253484
996.895 .0253642
997.494 .0253807
998.093 .0253982
998.692 .0254155
999.291 .0254334
999.889 .0254515
1000.487 .0254697
1001.084 .0254868
1001.681 .0255031
1002.278 .0255173
1002.875 .0255296
1003.471 .0255394
1004.067 .0255473
1004.663 .0255540
1005.258 .0255613
1005.854 .0255689
1006.449 .0255777
1007.043 .0255875
1007.638 .0255986
1008.232 .0256089
1008.826 .0256187
1009.419 .0256272
1010.012 .0256335
1010.605 .0256381
1011.198 .0256414
1011.791 .0256430
1012.383 .0256454
1012.975 .0256478
1013.566 .0256496
1014.158 .0256509
1014.749 .0256508
1015.340 .0256483
1015.931 .0256432
1016.521 .0256370
1017.111 .0256295
1017.701 .0256211
1018.291 .0256128
1018.880 .0256050
1019.470 .0255986
1020.059 .0255938
1020.647 .0255898
1021.236 .0255877
1021.824 .0255873
1022.412 .0255876
1023.000 .0255888
1023.588 .0255913
1024.175 .0255942
1024.762 .0255972
1025.349 .0255990
1025.936 .0255997
1026.523 .0255977
1027.109 .0255922
1027.695 .0255827
1028.281 .0255707
1028.867 .0255555
1029.452 .0255370
1030.038 .0255165
1030.623 .0254953
1031.208 .0254731
1031.792 .0254500
1032.377 .0254268
1032.961 .0254038
1033.546 .0253810
1034.130 .0253590
1034.714 .0253368
1035.297 .0253160
1035.881 .0252957
1036.464 .0252767
1037.047 .0252591
1037.630 .0252431
1038.213 .0252285
1038.796 .0252160
1039.378 .0252059
1039.961 .0251988
1040.543 .0251930
1041.125 .0251889
1041.707 .0251862
1042.289 .0251838
1042.871 .0251802
1043.452 .0251753
1044.034 .0251690
1044.615 .0251620
1045.196 .0251531
1045.777 .0251437
1046.358 .0251332
1046.939 .0251234
1047.520 .0251140
1048.101 .0251044
1048.681 .0250944
1049.262 .0250843
1049.842 .0250725
1050.422 .0250602
1051.002 .0250469
1051.582 .0250331
1052.162 .0250187
1052.742 .0250056
1053.322 .0249942
1053.902 .0249843
1054.482 .0249774
1055.061 .0249733
1055.641 .0249726
1056.220 .0249744
1056.800 .0249785
1057.379 .0249844
1057.958 .0249925
1058.538 .0250029
1059.117 .0250157
1059.696 .0250309
1060.275 .0250497
1060.854 .0250707
1061.433 .0250951
1062.012 .0251217
1062.592 .0251516
1063.171 .0251823
1063.750 .0252147
1064.329 .0252486
1064.908 .0252828
1065.487 .0253154
1066.066 .0253468
1066.645 .0253748
1067.224 .0253990
1067.803 .0254175
1068.382 .0254309
1068.961 .0254395
1069.540 .0254446
1070.119 .0254456
1070.698 .0254451
1071.278 .0254438
1071.857 .0254420
1072.436 .0254386
1073.016 .0254342
1073.595 .0254281
1074.175 .0254202
1074.754 .0254118
1075.334 .0254038
1075.913 .0253997
1076.493 .0254007
1077.073 .0254051
1077.653 .0254148
1078.233 .0254278
1078.813 .0254419
1079.393 .0254554
1079.974 .0254676
1080.554 .0254767
1081.135 .0254830
1081.716 .0254870
1082.296 .0254884
1082.877 .0254894
1083.458 .0254898
1084.040 .0254867
1084.621 .0254804
1085.202 .0254697
1085.784 .0254533
1086.366 .0254307
1086.948 .0254064
1087.530 .0253806
1088.112 .0253570
1088.695 .0253367
1089.277 .0253205
1089.860 .0253106
1090.443 .0253064
1091.026 .0253053
1091.610 .0253063
1092.193 .0253064
1092.777 .0253048
1093.361 .0253017
1093.946 .0252972
1094.530 .0252923
1095.115 .0252902
1095.700 .0252891
1096.285 .0252907
1096.871 .0252924
1097.456 .0252943
1098.042 .0252944
1098.628 .0252928
1099.215 .0252874
1099.802 .0252769
1100.389 .0252621
1100.976 .0252440
1101.564 .0252241
1102.152 .0252085
1102.740 .0251953
1103.329 .0251859
1103.917 .0251826
1104.507 .0251853
1105.096 .0251913
1105.686 .0252014
1106.276 .0252109
1106.867 .0252213
1107.457 .0252299
1108.049 .0252354
1108.640 .0252367
1109.232 .0252380
1109.825 .0252382
1110.417 .0252372
1111.010 .0252353
1111.604 .0252311
1112.198 .0252239
1112.792 .0252179
1113.387 .0252096
1113.982 .0251976
1114.577 .0251855
1115.173 .0251744
1115.769 .0251612
1116.366 .0251535
1116.963 .0251465
1117.561 .0251423
1118.159 .0251413
1118.758 .0251418
1119.357 .0251381
1119.957 .0251344
1120.557 .0251298
1121.157 .0251200
1121.758 .0251082
1122.360 .0250944
1122.962 .0250729
1123.564 .0250497
1124.167 .0250248
1124.771 .0249948
1125.375 .0249591
1125.980 .0249263
1126.585 .0248923
1127.191 .0248627
1127.797 .0248427
1128.404 .0248304
1129.012 .0248288
1129.620 .0248375
1130.229 .0248508
1130.838 .0248627
1131.448 .0248742
1132.058 .0248835
1132.669 .0248882
1133.281 .0248936
1133.894 .0249023
1134.507 .0249188
1135.120 .0249460
1135.735 .0249838
1136.350 .0250304
1136.965 .0250794
1137.582 .0251298
1138.199 .0251732
1138.816 .0252063
1139.435 .0252364
1140.054 .0252683
1140.674 .0253011
1141.294 .0253296
1141.916 .0253626
1142.538 .0254623
1143.160 .0256113
1143.784 .0255631
1144.408 .0253550
1145.033 .0254531
