Measurement Sequence started on: 14-45-04-498
Integration time: 36
Scans to Average: 2 
>>>>>Begin Spectral Data<<<<<
433.946 .0441279
434.870 .0426151
435.793 .0404424
436.715 .0396223
437.635 .0395943
438.555 .0395941
439.473 .0391388
440.389 .0387920
441.305 .0385510
442.219 .0383573
443.132 .0381995
444.044 .0380849
444.954 .0380090
445.863 .0379684
446.771 .0379294
447.678 .0378914
448.584 .0378406
449.488 .0377731
450.391 .0376985
451.293 .0376222
452.194 .0375533
453.094 .0374977
453.992 .0374478
454.890 .0374070
455.786 .0373686
456.681 .0373252
457.575 .0372815
458.468 .0372299
459.360 .0371730
460.250 .0371128
461.140 .0370562
462.028 .0370116
462.915 .0369689
463.801 .0369356
464.687 .0369066
465.571 .0368834
466.454 .0368584
467.335 .0368288
468.216 .0367993
469.096 .0367702
469.975 .0367390
470.853 .0367055
471.729 .0366730
472.605 .0366405
473.479 .0366078
474.353 .0365745
475.226 .0365390
476.097 .0365041
476.968 .0364647
477.838 .0364240
478.706 .0363837
479.574 .0363466
480.441 .0363128
481.306 .0362838
482.171 .0362614
483.035 .0362420
483.898 .0362264
484.760 .0362136
485.621 .0362020
486.481 .0361887
487.340 .0361741
488.198 .0361558
489.055 .0361355
489.912 .0361151
490.767 .0360943
491.622 .0360736
492.476 .0360548
493.329 .0360366
494.180 .0360188
495.032 .0359998
495.882 .0359811
496.731 .0359596
497.580 .0359398
498.427 .0359173
499.274 .0358928
500.120 .0358675
500.965 .0358439
501.809 .0358210
502.653 .0358004
503.495 .0357790
504.337 .0357580
505.178 .0357333
506.018 .0357079
506.858 .0356755
507.696 .0356401
508.534 .0355990
509.371 .0355532
510.208 .0355039
511.043 .0354525
511.878 .0353980
512.712 .0353486
513.545 .0353016
514.377 .0352636
515.209 .0352318
516.040 .0352065
516.870 .0351879
517.699 .0351766
518.528 .0351672
519.356 .0351592
520.183 .0351470
521.010 .0351347
521.836 .0351123
522.661 .0350793
523.485 .0350372
524.309 .0349894
525.132 .0349397
525.954 .0348801
526.776 .0348112
527.597 .0347408
528.417 .0346622
529.237 .0345807
530.056 .0344871
530.874 .0343914
531.692 .0342947
532.508 .0341969
533.325 .0341046
534.140 .0340196
534.955 .0339493
535.770 .0338946
536.583 .0338487
537.397 .0338175
538.209 .0337917
539.021 .0337716
539.832 .0337541
540.643 .0337367
541.453 .0337206
542.262 .0337083
543.071 .0336962
543.879 .0336919
544.687 .0336927
545.494 .0337029
546.300 .0337193
547.106 .0337443
547.911 .0337786
548.716 .0338162
549.520 .0338564
550.323 .0338982
551.126 .0339376
551.929 .0339760
552.731 .0340023
553.532 .0340187
554.332 .0340274
555.133 .0340288
555.932 .0340198
556.731 .0340031
557.530 .0339799
558.328 .0339520
559.125 .0339179
559.922 .0338809
560.719 .0338400
561.515 .0337969
562.310 .0337542
563.105 .0337137
563.899 .0336767
564.693 .0336442
565.487 .0336109
566.280 .0335811
567.072 .0335525
567.864 .0335219
568.655 .0334891
569.446 .0334581
570.236 .0334274
571.026 .0333983
571.816 .0333681
572.605 .0333387
573.393 .0333091
574.181 .0332810
574.969 .0332519
575.756 .0332218
576.543 .0331915
577.329 .0331632
578.115 .0331371
578.900 .0331159
579.685 .0330985
580.469 .0330868
581.253 .0330795
582.036 .0330764
582.820 .0330734
583.602 .0330721
584.384 .0330705
585.166 .0330693
585.947 .0330677
586.728 .0330663
587.509 .0330653
588.289 .0330667
589.069 .0330699
589.848 .0330737
590.627 .0330756
591.405 .0330747
592.183 .0330710
592.961 .0330655
593.738 .0330569
594.515 .0330468
595.291 .0330363
596.067 .0330265
596.843 .0330170
597.618 .0330076
598.393 .0329983
599.167 .0329883
599.941 .0329774
600.715 .0329650
601.488 .0329510
602.261 .0329362
603.034 .0329208
603.806 .0329058
604.578 .0328928
605.349 .0328805
606.121 .0328690
606.891 .0328585
607.662 .0328485
608.432 .0328380
609.201 .0328270
609.971 .0328153
610.740 .0328041
611.508 .0327933
612.277 .0327831
613.045 .0327733
613.812 .0327652
614.579 .0327581
615.346 .0327511
616.113 .0327442
616.879 .0327373
617.645 .0327295
618.411 .0327216
619.176 .0327132
619.941 .0327052
620.705 .0326982
621.470 .0326921
622.233 .0326870
622.997 .0326826
623.760 .0326779
624.523 .0326729
625.286 .0326670
626.048 .0326598
626.810 .0326505
627.572 .0326392
628.333 .0326263
629.095 .0326122
629.855 .0325975
630.616 .0325826
631.376 .0325682
632.136 .0325548
632.895 .0325419
633.655 .0325296
634.414 .0325182
635.172 .0325066
635.931 .0324953
636.689 .0324839
637.447 .0324724
638.204 .0324612
638.962 .0324509
639.718 .0324421
640.475 .0324352
641.231 .0324306
641.988 .0324277
642.743 .0324260
643.499 .0324247
644.254 .0324224
645.009 .0324186
645.764 .0324127
646.518 .0324049
647.272 .0323949
648.026 .0323839
648.780 .0323721
649.533 .0323604
650.286 .0323495
651.039 .0323388
651.792 .0323288
652.544 .0323186
653.296 .0323081
654.048 .0322969
654.799 .0322852
655.550 .0322732
656.301 .0322613
657.052 .0322500
657.802 .0322401
658.552 .0322318
659.302 .0322252
660.052 .0322196
660.801 .0322149
661.550 .0322106
662.299 .0322064
663.048 .0322007
663.796 .0321948
664.544 .0321876
665.292 .0321796
666.040 .0321702
666.787 .0321601
667.534 .0321494
668.281 .0321379
669.028 .0321258
669.774 .0321133
670.521 .0321000
671.266 .0320874
672.012 .0320744
672.758 .0320624
673.503 .0320510
674.248 .0320409
674.992 .0320311
675.737 .0320226
676.481 .0320149
677.225 .0320082
677.969 .0320017
678.712 .0319963
679.455 .0319906
680.199 .0319849
680.941 .0319786
681.684 .0319718
682.426 .0319639
683.168 .0319548
683.910 .0319437
684.652 .0319312
685.393 .0319171
686.134 .0319022
686.875 .0318864
687.616 .0318706
688.356 .0318551
689.097 .0318399
689.837 .0318243
690.576 .0318091
691.316 .0317941
692.055 .0317795
692.794 .0317650
693.533 .0317516
694.272 .0317392
695.010 .0317280
695.748 .0317181
696.486 .0317087
697.224 .0316997
697.962 .0316903
698.699 .0316802
699.436 .0316688
700.173 .0316564
700.909 .0316435
701.646 .0316305
702.382 .0316179
703.118 .0316060
703.853 .0315947
704.589 .0315840
705.324 .0315737
706.059 .0315635
706.794 .0315526
707.529 .0315418
708.263 .0315309
708.997 .0315199
709.731 .0315088
710.465 .0314980
711.198 .0314869
711.931 .0314759
712.664 .0314643
713.397 .0314516
714.130 .0314375
714.862 .0314222
715.594 .0314051
716.326 .0313871
717.058 .0313686
717.789 .0313499
718.520 .0313314
719.251 .0313134
719.982 .0312956
720.713 .0312780
721.443 .0312608
722.173 .0312442
722.903 .0312281
723.633 .0312127
724.362 .0311980
725.091 .0311836
725.820 .0311696
726.549 .0311558
727.278 .0311422
728.006 .0311281
728.734 .0311135
729.462 .0310979
730.190 .0310817
730.917 .0310643
731.644 .0310463
732.371 .0310277
733.098 .0310089
733.825 .0309896
734.551 .0309698
735.277 .0309494
736.003 .0309286
736.728 .0309073
737.454 .0308862
738.179 .0308652
738.904 .0308451
739.629 .0308259
740.353 .0308084
741.077 .0307931
741.801 .0307796
742.525 .0307675
743.249 .0307569
743.972 .0307465
744.695 .0307364
745.418 .0307255
746.141 .0307141
746.863 .0307023
747.585 .0306901
748.307 .0306775
749.029 .0306643
749.750 .0306507
750.472 .0306368
751.193 .0306219
751.913 .0306063
752.634 .0305890
753.354 .0305702
754.074 .0305500
754.794 .0305289
755.514 .0305064
756.233 .0304833
756.952 .0304596
757.671 .0304361
758.390 .0304128
759.108 .0303906
759.826 .0303696
760.544 .0303503
761.262 .0303330
761.979 .0303171
762.697 .0303022
763.414 .0302883
764.130 .0302743
764.847 .0302603
765.563 .0302453
766.279 .0302302
766.995 .0302145
767.710 .0301992
768.426 .0301843
769.141 .0301700
769.855 .0301561
770.570 .0301420
771.284 .0301268
771.998 .0301102
772.712 .0300917
773.426 .0300717
774.139 .0300506
774.852 .0300293
775.565 .0300081
776.277 .0299881
776.990 .0299690
777.702 .0299511
778.414 .0299336
779.125 .0299164
779.836 .0298989
780.547 .0298809
781.258 .0298623
781.969 .0298437
782.679 .0298256
783.389 .0298084
784.099 .0297916
784.808 .0297759
785.517 .0297604
786.226 .0297447
786.935 .0297284
787.643 .0297116
788.352 .0296940
789.060 .0296762
789.767 .0296582
790.475 .0296399
791.182 .0296212
791.889 .0296025
792.595 .0295836
793.301 .0295641
794.008 .0295443
794.713 .0295240
795.419 .0295032
796.124 .0294826
796.829 .0294618
797.534 .0294409
798.238 .0294198
798.942 .0293988
799.646 .0293773
800.350 .0293551
801.053 .0293327
801.756 .0293095
802.459 .0292860
803.162 .0292621
803.864 .0292378
804.566 .0292130
805.267 .0291882
805.969 .0291631
806.670 .0291378
807.371 .0291130
808.071 .0290890
808.772 .0290657
809.472 .0290436
810.171 .0290222
810.871 .0290009
811.570 .0289798
812.269 .0289589
812.967 .0289373
813.666 .0289156
814.364 .0288937
815.061 .0288719
815.759 .0288507
816.456 .0288303
817.153 .0288102
817.849 .0287904
818.545 .0287709
819.241 .0287509
819.937 .0287299
820.632 .0287084
821.327 .0286860
822.022 .0286628
822.717 .0286391
823.411 .0286146
824.105 .0285897
824.798 .0285645
825.491 .0285386
826.184 .0285120
826.877 .0284852
827.569 .0284579
828.261 .0284304
828.953 .0284031
829.645 .0283760
830.336 .0283491
831.027 .0283228
831.717 .0282969
832.407 .0282717
833.097 .0282471
833.787 .0282234
834.476 .0282008
835.165 .0281796
835.854 .0281598
836.542 .0281416
837.230 .0281250
837.918 .0281096
838.605 .0280951
839.292 .0280817
839.979 .0280688
840.665 .0280565
841.352 .0280445
842.037 .0280322
842.723 .0280197
843.408 .0280066
844.093 .0279922
844.777 .0279767
845.462 .0279598
846.145 .0279414
846.829 .0279217
847.512 .0279006
848.195 .0278785
848.878 .0278558
849.560 .0278329
850.242 .0278099
850.923 .0277863
851.605 .0277623
852.286 .0277377
852.966 .0277127
853.646 .0276871
854.326 .0276614
855.006 .0276360
855.685 .0276112
856.364 .0275875
857.043 .0275651
857.721 .0275441
858.399 .0275247
859.077 .0275065
859.754 .0274890
860.431 .0274713
861.107 .0274535
861.784 .0274352
862.459 .0274165
863.135 .0273973
863.810 .0273782
864.485 .0273595
865.160 .0273417
865.834 .0273247
866.508 .0273089
867.181 .0272941
867.854 .0272803
868.527 .0272661
869.199 .0272518
869.872 .0272367
870.543 .0272210
871.215 .0272044
871.886 .0271877
872.557 .0271709
873.227 .0271541
873.897 .0271377
874.567 .0271217
875.236 .0271058
875.905 .0270898
876.573 .0270734
877.242 .0270569
877.909 .0270398
878.577 .0270222
879.244 .0270038
879.911 .0269857
880.577 .0269675
881.243 .0269493
881.909 .0269310
882.575 .0269127
883.240 .0268942
883.904 .0268758
884.569 .0268574
885.232 .0268392
885.896 .0268215
886.559 .0268047
887.222 .0267884
887.885 .0267727
888.547 .0267572
889.208 .0267419
889.870 .0267267
890.531 .0267114
891.192 .0266961
891.852 .0266810
892.512 .0266659
893.171 .0266514
893.830 .0266371
894.489 .0266233
895.148 .0266098
895.806 .0265969
896.464 .0265843
897.121 .0265719
897.778 .0265594
898.434 .0265468
899.091 .0265339
899.747 .0265207
900.402 .0265067
901.057 .0264921
901.712 .0264769
902.366 .0264612
903.020 .0264451
903.674 .0264292
904.327 .0264132
904.980 .0263974
905.633 .0263816
906.285 .0263657
906.936 .0263499
907.588 .0263340
908.239 .0263181
908.889 .0263018
909.540 .0262855
910.190 .0262689
910.839 .0262519
911.488 .0262349
912.137 .0262173
912.785 .0261993
913.433 .0261806
914.081 .0261607
914.728 .0261401
915.375 .0261188
916.021 .0260974
916.668 .0260758
917.313 .0260547
917.959 .0260338
918.604 .0260133
919.248 .0259932
919.892 .0259733
920.536 .0259536
921.180 .0259340
921.823 .0259150
922.465 .0258962
923.108 .0258779
923.750 .0258602
924.391 .0258430
925.032 .0258269
925.673 .0258117
926.313 .0257974
926.953 .0257840
927.593 .0257710
928.232 .0257583
928.871 .0257454
929.510 .0257325
930.148 .0257186
930.786 .0257038
931.423 .0256881
932.060 .0256716
932.697 .0256543
933.333 .0256368
933.969 .0256195
934.604 .0256023
935.239 .0255857
935.874 .0255690
936.508 .0255523
937.142 .0255357
937.776 .0255189
938.409 .0255022
939.042 .0254845
939.674 .0254666
940.306 .0254483
940.938 .0254300
941.569 .0254119
942.200 .0253942
942.830 .0253769
943.460 .0253597
944.090 .0253420
944.720 .0253236
945.349 .0253046
945.977 .0252847
946.606 .0252641
947.233 .0252428
947.861 .0252208
948.488 .0251983
949.115 .0251754
949.741 .0251527
950.367 .0251303
950.993 .0251081
951.618 .0250867
952.243 .0250663
952.868 .0250474
953.492 .0250296
954.115 .0250134
954.739 .0249985
955.362 .0249846
955.984 .0249713
956.607 .0249584
957.229 .0249463
957.850 .0249348
958.471 .0249236
959.092 .0249125
959.713 .0249018
960.333 .0248917
960.952 .0248813
961.572 .0248710
962.191 .0248608
962.809 .0248502
963.428 .0248393
964.045 .0248277
964.663 .0248158
965.280 .0248039
965.897 .0247917
966.513 .0247796
967.129 .0247674
967.745 .0247558
968.361 .0247446
968.976 .0247339
969.590 .0247241
970.205 .0247151
970.818 .0247066
971.432 .0246987
972.045 .0246908
972.658 .0246832
973.271 .0246756
973.883 .0246674
974.495 .0246594
975.106 .0246512
975.717 .0246435
976.328 .0246361
976.938 .0246296
977.548 .0246244
978.158 .0246196
978.768 .0246156
979.377 .0246115
979.985 .0246075
980.594 .0246035
981.202 .0245995
981.809 .0245959
982.417 .0245933
983.024 .0245919
983.631 .0245913
984.237 .0245914
984.843 .0245923
985.449 .0245926
986.054 .0245919
986.659 .0245896
987.264 .0245859
987.868 .0245805
988.472 .0245746
989.076 .0245685
989.679 .0245635
990.282 .0245599
990.885 .0245570
991.487 .0245547
992.090 .0245526
992.691 .0245491
993.293 .0245442
993.894 .0245375
994.495 .0245295
995.095 .0245202
995.696 .0245105
996.296 .0245009
996.895 .0244930
997.494 .0244865
998.093 .0244813
998.692 .0244768
999.291 .0244733
999.889 .0244693
1000.487 .0244653
1001.084 .0244614
1001.681 .0244576
1002.278 .0244533
1002.875 .0244493
1003.471 .0244450
1004.067 .0244410
1004.663 .0244374
1005.258 .0244336
1005.854 .0244300
1006.449 .0244269
1007.043 .0244234
1007.638 .0244200
1008.232 .0244169
1008.826 .0244142
1009.419 .0244112
1010.012 .0244080
1010.605 .0244037
1011.198 .0243976
1011.791 .0243901
1012.383 .0243811
1012.975 .0243707
1013.566 .0243598
1014.158 .0243489
1014.749 .0243380
1015.340 .0243277
1015.931 .0243182
1016.521 .0243089
1017.111 .0243003
1017.701 .0242913
1018.291 .0242816
1018.880 .0242707
1019.470 .0242592
1020.059 .0242471
1020.647 .0242351
1021.236 .0242237
1021.824 .0242130
1022.412 .0242031
1023.000 .0241944
1023.588 .0241865
1024.175 .0241794
1024.762 .0241729
1025.349 .0241672
1025.936 .0241622
1026.523 .0241579
1027.109 .0241543
1027.695 .0241521
1028.281 .0241512
1028.867 .0241512
1029.452 .0241517
1030.038 .0241527
1030.623 .0241532
1031.208 .0241531
1031.792 .0241523
1032.377 .0241514
1032.961 .0241506
1033.546 .0241502
1034.130 .0241501
1034.714 .0241507
1035.297 .0241520
1035.881 .0241528
1036.464 .0241524
1037.047 .0241510
1037.630 .0241477
1038.213 .0241424
1038.796 .0241357
1039.378 .0241283
1039.961 .0241207
1040.543 .0241140
1041.125 .0241090
1041.707 .0241052
1042.289 .0241035
1042.871 .0241030
1043.452 .0241038
1044.034 .0241053
1044.615 .0241070
1045.196 .0241087
1045.777 .0241106
1046.358 .0241125
1046.939 .0241132
1047.520 .0241127
1048.101 .0241117
1048.681 .0241089
1049.262 .0241051
1049.842 .0241000
1050.422 .0240945
1051.002 .0240880
1051.582 .0240814
1052.162 .0240749
1052.742 .0240689
1053.322 .0240633
1053.902 .0240585
1054.482 .0240540
1055.061 .0240502
1055.641 .0240470
1056.220 .0240448
1056.800 .0240440
1057.379 .0240455
1057.958 .0240471
1058.538 .0240495
1059.117 .0240521
1059.696 .0240548
1060.275 .0240563
1060.854 .0240576
1061.433 .0240583
1062.012 .0240584
1062.592 .0240579
1063.171 .0240570
1063.750 .0240557
1064.329 .0240544
1064.908 .0240509
1065.487 .0240457
1066.066 .0240386
1066.645 .0240299
1067.224 .0240194
1067.803 .0240096
1068.382 .0240010
1068.961 .0239944
1069.540 .0239897
1070.119 .0239864
1070.698 .0239841
1071.278 .0239830
1071.857 .0239811
1072.436 .0239782
1073.016 .0239746
1073.595 .0239705
1074.175 .0239658
1074.754 .0239614
1075.334 .0239575
1075.913 .0239534
1076.493 .0239491
1077.073 .0239440
1077.653 .0239374
1078.233 .0239310
1078.813 .0239250
1079.393 .0239199
1079.974 .0239156
1080.554 .0239124
1081.135 .0239091
1081.716 .0239059
1082.296 .0239016
1082.877 .0238967
1083.458 .0238896
1084.040 .0238820
1084.621 .0238735
1085.202 .0238655
1085.784 .0238592
1086.366 .0238550
1086.948 .0238531
1087.530 .0238537
1088.112 .0238556
1088.695 .0238578
1089.277 .0238595
1089.860 .0238624
1090.443 .0238637
1091.026 .0238647
1091.610 .0238662
1092.193 .0238685
1092.777 .0238726
1093.361 .0238791
1093.946 .0238887
1094.530 .0239018
1095.115 .0239177
1095.700 .0239351
1096.285 .0239547
1096.871 .0239756
1097.456 .0239965
1098.042 .0240159
1098.628 .0240349
1099.215 .0240509
1099.802 .0240635
1100.389 .0240741
1100.976 .0240821
1101.564 .0240879
1102.152 .0240918
1102.740 .0240911
1103.329 .0240886
1103.917 .0240813
1104.507 .0240697
1105.096 .0240549
1105.686 .0240391
1106.276 .0240233
1106.867 .0240098
1107.457 .0240008
1108.049 .0239970
1108.640 .0239955
1109.232 .0239987
1109.825 .0240031
1110.417 .0240070
1111.010 .0240098
1111.604 .0240099
1112.198 .0240109
1112.792 .0240149
1113.387 .0240216
1113.982 .0240338
1114.577 .0240527
1115.173 .0240762
1115.769 .0241000
1116.366 .0241229
1116.963 .0241431
1117.561 .0241576
1118.159 .0241677
1118.758 .0241748
1119.357 .0241781
1119.957 .0241835
1120.557 .0241926
1121.157 .0242044
1121.758 .0242231
1122.360 .0242460
1122.962 .0242694
1123.564 .0242925
1124.167 .0243156
1124.771 .0243350
1125.375 .0243533
1125.980 .0243738
1126.585 .0243946
1127.191 .0244185
1127.797 .0244480
1128.404 .0244816
1129.012 .0245176
1129.620 .0245616
1130.229 .0246076
1130.838 .0246542
1131.448 .0247031
1132.058 .0247509
1132.669 .0247964
1133.281 .0248427
1133.894 .0248869
1134.507 .0249292
1135.120 .0249713
1135.735 .0250139
1136.350 .0250563
1136.965 .0251003
1137.582 .0251444
1138.199 .0251879
1138.816 .0252295
1139.435 .0252684
1140.054 .0253005
1140.674 .0253288
1141.294 .0253532
1141.916 .0253739
1142.538 .0253880
1143.160 .0253979
1143.784 .0254391
1144.408 .0254511
1145.033 .0254628
