Measurement Sequence started on: 14-45-04-498
Integration time: 36
Scans to Average: 2 
>>>>>Begin Spectral Data<<<<<
433.946 .0541847
434.870 .0430180
435.793 .0411008
436.715 .0406217
437.635 .0401949
438.555 .0412829
439.473 .0407078
440.389 .0405811
441.305 .0405343
442.219 .0405002
443.132 .0404848
444.044 .0404611
444.954 .0404660
445.863 .0404898
446.771 .0405010
447.678 .0404949
448.584 .0404655
449.488 .0404080
450.391 .0403178
451.293 .0401991
452.194 .0400635
453.094 .0399145
453.992 .0397599
454.890 .0396068
455.786 .0394633
456.681 .0393304
457.575 .0392117
458.468 .0390926
459.360 .0389741
460.250 .0388650
461.140 .0387600
462.028 .0386673
462.915 .0385814
463.801 .0385050
464.687 .0384331
465.571 .0383734
466.454 .0383226
467.335 .0382751
468.216 .0382313
469.096 .0381899
469.975 .0381480
470.853 .0381027
471.729 .0380536
472.605 .0380009
473.479 .0379480
474.353 .0378942
475.226 .0378320
476.097 .0377677
476.968 .0377015
477.838 .0376376
478.706 .0375784
479.574 .0375275
480.441 .0374838
481.306 .0374446
482.171 .0374113
483.035 .0373769
483.898 .0373400
484.760 .0372980
485.621 .0372526
486.481 .0372025
487.340 .0371517
488.198 .0371029
489.055 .0370596
489.912 .0370264
490.767 .0369989
491.622 .0369718
492.476 .0369432
493.329 .0369100
494.180 .0368717
495.032 .0368274
495.882 .0367824
496.731 .0367402
497.580 .0367065
498.427 .0366826
499.274 .0366673
500.120 .0366611
500.965 .0366620
501.809 .0366605
502.653 .0366542
503.495 .0366400
504.337 .0366166
505.178 .0365835
506.018 .0365462
506.858 .0365046
507.696 .0364631
508.534 .0364215
509.371 .0363817
510.208 .0363443
511.043 .0363098
511.878 .0362725
512.712 .0362338
513.545 .0361938
514.377 .0361524
515.209 .0361070
516.040 .0360664
516.870 .0360262
517.699 .0359934
518.528 .0359629
519.356 .0359434
520.183 .0359271
521.010 .0359194
521.836 .0359118
522.661 .0359036
523.485 .0358921
524.309 .0358745
525.132 .0358451
525.954 .0358128
526.776 .0357718
527.597 .0357317
528.417 .0356839
529.237 .0356381
530.056 .0355904
530.874 .0355474
531.692 .0355059
532.508 .0354659
533.325 .0354265
534.140 .0353878
534.955 .0353416
535.770 .0352856
536.583 .0352167
537.397 .0351373
538.209 .0350472
539.021 .0349469
539.832 .0348370
540.643 .0347266
541.453 .0346191
542.262 .0345187
543.071 .0344245
543.879 .0343396
544.687 .0342575
545.494 .0341744
546.300 .0340916
547.106 .0340055
547.911 .0339244
548.716 .0338533
549.520 .0337952
550.323 .0337544
551.126 .0337319
551.929 .0337271
552.731 .0337355
553.532 .0337565
554.332 .0337799
555.133 .0337997
555.932 .0338193
556.731 .0338334
557.530 .0338476
558.328 .0338632
559.125 .0338809
559.922 .0339007
560.719 .0339206
561.515 .0339348
562.310 .0339381
563.105 .0339324
563.899 .0339151
564.693 .0338832
565.487 .0338391
566.280 .0337843
567.072 .0337212
567.864 .0336541
568.655 .0335845
569.446 .0335110
570.236 .0334346
571.026 .0333566
571.816 .0332752
572.605 .0331914
573.393 .0331068
574.181 .0330243
574.969 .0329453
575.756 .0328725
576.543 .0328063
577.329 .0327489
578.115 .0327021
578.900 .0326639
579.685 .0326336
580.469 .0326090
581.253 .0325890
582.036 .0325722
582.820 .0325551
583.602 .0325378
584.384 .0325185
585.166 .0324973
585.947 .0324753
586.728 .0324527
587.509 .0324301
588.289 .0324078
589.069 .0323868
589.848 .0323665
590.627 .0323451
591.405 .0323226
592.183 .0322984
592.961 .0322728
593.738 .0322459
594.515 .0322169
595.291 .0321870
596.067 .0321588
596.843 .0321314
597.618 .0321054
598.393 .0320813
599.167 .0320589
599.941 .0320377
600.715 .0320158
601.488 .0319925
602.261 .0319678
603.034 .0319417
603.806 .0319141
604.578 .0318855
605.349 .0318571
606.121 .0318296
606.891 .0318033
607.662 .0317775
608.432 .0317521
609.201 .0317263
609.971 .0316990
610.740 .0316694
611.508 .0316377
612.277 .0316038
613.045 .0315683
613.812 .0315327
614.579 .0314983
615.346 .0314651
616.113 .0314340
616.879 .0314048
617.645 .0313769
618.411 .0313493
619.176 .0313211
619.941 .0312912
620.705 .0312602
621.470 .0312274
622.233 .0311934
622.997 .0311591
623.760 .0311263
624.523 .0310951
625.286 .0310659
626.048 .0310391
626.810 .0310138
627.572 .0309891
628.333 .0309652
629.095 .0309413
629.855 .0309175
630.616 .0308945
631.376 .0308733
632.136 .0308540
632.895 .0308380
633.655 .0308252
634.414 .0308155
635.172 .0308084
635.931 .0308036
636.689 .0307991
637.447 .0307950
638.204 .0307907
638.962 .0307847
639.718 .0307781
640.475 .0307712
641.231 .0307634
641.988 .0307545
642.743 .0307445
643.499 .0307332
644.254 .0307194
645.009 .0307032
645.764 .0306845
646.518 .0306639
647.272 .0306423
648.026 .0306202
648.780 .0305976
649.533 .0305757
650.286 .0305545
651.039 .0305328
651.792 .0305107
652.544 .0304884
653.296 .0304653
654.048 .0304417
654.799 .0304184
655.550 .0303955
656.301 .0303727
657.052 .0303507
657.802 .0303285
658.552 .0303058
659.302 .0302826
660.052 .0302581
660.801 .0302318
661.550 .0302056
662.299 .0301790
663.048 .0301525
663.796 .0301274
664.544 .0301040
665.292 .0300812
666.040 .0300594
666.787 .0300379
667.534 .0300161
668.281 .0299940
669.028 .0299716
669.774 .0299487
670.521 .0299265
671.266 .0299053
672.012 .0298853
672.758 .0298668
673.503 .0298507
674.248 .0298350
674.992 .0298202
675.737 .0298056
676.481 .0297906
677.225 .0297748
677.969 .0297582
678.712 .0297412
679.455 .0297241
680.199 .0297073
680.941 .0296915
681.684 .0296769
682.426 .0296643
683.168 .0296529
683.910 .0296431
684.652 .0296341
685.393 .0296259
686.134 .0296175
686.875 .0296093
687.616 .0296011
688.356 .0295928
689.097 .0295852
689.837 .0295782
690.576 .0295724
691.316 .0295675
692.055 .0295634
692.794 .0295598
693.533 .0295564
694.272 .0295531
695.010 .0295492
695.748 .0295451
696.486 .0295404
697.224 .0295352
697.962 .0295297
698.699 .0295239
699.436 .0295178
700.173 .0295116
700.909 .0295050
701.646 .0294980
702.382 .0294907
703.118 .0294829
703.853 .0294749
704.589 .0294669
705.324 .0294588
706.059 .0294508
706.794 .0294426
707.529 .0294347
708.263 .0294267
708.997 .0294190
709.731 .0294107
710.465 .0294022
711.198 .0293933
711.931 .0293836
712.664 .0293733
713.397 .0293625
714.130 .0293516
714.862 .0293405
715.594 .0293293
716.326 .0293180
717.058 .0293067
717.789 .0292950
718.520 .0292819
719.251 .0292677
719.982 .0292516
720.713 .0292335
721.443 .0292140
722.173 .0291935
722.903 .0291724
723.633 .0291514
724.362 .0291307
725.091 .0291102
725.820 .0290906
726.549 .0290714
727.278 .0290522
728.006 .0290328
728.734 .0290134
729.462 .0289932
730.190 .0289730
730.917 .0289529
731.644 .0289329
732.371 .0289138
733.098 .0288963
733.825 .0288799
734.551 .0288654
735.277 .0288524
736.003 .0288407
736.728 .0288302
737.454 .0288208
738.179 .0288115
738.904 .0288024
739.629 .0287933
740.353 .0287843
741.077 .0287749
741.801 .0287657
742.525 .0287562
743.249 .0287473
743.972 .0287385
744.695 .0287297
745.418 .0287208
746.141 .0287117
746.863 .0287023
747.585 .0286926
748.307 .0286826
749.029 .0286726
749.750 .0286623
750.472 .0286526
751.193 .0286426
751.913 .0286333
752.634 .0286239
753.354 .0286148
754.074 .0286058
754.794 .0285971
755.514 .0285883
756.233 .0285800
756.952 .0285723
757.671 .0285654
758.390 .0285587
759.108 .0285526
759.826 .0285466
760.544 .0285408
761.262 .0285351
761.979 .0285294
762.697 .0285235
763.414 .0285183
764.130 .0285138
764.847 .0285106
765.563 .0285087
766.279 .0285087
766.995 .0285105
767.710 .0285142
768.426 .0285188
769.141 .0285237
769.855 .0285284
770.570 .0285326
771.284 .0285357
771.998 .0285376
772.712 .0285385
773.426 .0285389
774.139 .0285390
774.852 .0285387
775.565 .0285382
776.277 .0285377
776.990 .0285364
777.702 .0285346
778.414 .0285315
779.125 .0285275
779.836 .0285225
780.547 .0285172
781.258 .0285120
781.969 .0285070
782.679 .0285027
783.389 .0284990
784.099 .0284964
784.808 .0284946
785.517 .0284935
786.226 .0284928
786.935 .0284924
787.643 .0284919
788.352 .0284911
789.060 .0284891
789.767 .0284862
790.475 .0284823
791.182 .0284769
791.889 .0284698
792.595 .0284613
793.301 .0284512
794.008 .0284402
794.713 .0284283
795.419 .0284155
796.124 .0284018
796.829 .0283873
797.534 .0283722
798.238 .0283566
798.942 .0283408
799.646 .0283251
800.350 .0283093
801.053 .0282947
801.756 .0282805
802.459 .0282666
803.162 .0282534
803.864 .0282407
804.566 .0282282
805.267 .0282156
805.969 .0282029
806.670 .0281903
807.371 .0281782
808.071 .0281670
808.772 .0281562
809.472 .0281458
810.171 .0281357
810.871 .0281256
811.570 .0281150
812.269 .0281037
812.967 .0280911
813.666 .0280778
814.364 .0280639
815.061 .0280493
815.759 .0280346
816.456 .0280201
817.153 .0280057
817.849 .0279909
818.545 .0279755
819.241 .0279594
819.937 .0279422
820.632 .0279246
821.327 .0279058
822.022 .0278864
822.717 .0278671
823.411 .0278484
824.105 .0278308
824.798 .0278147
825.491 .0277998
826.184 .0277860
826.877 .0277736
827.569 .0277619
828.261 .0277504
828.953 .0277398
829.645 .0277294
830.336 .0277194
831.027 .0277095
831.717 .0277002
832.407 .0276910
833.097 .0276824
833.787 .0276742
834.476 .0276663
835.165 .0276587
835.854 .0276516
836.542 .0276449
837.230 .0276388
837.918 .0276328
838.605 .0276270
839.292 .0276211
839.979 .0276156
840.665 .0276103
841.352 .0276056
842.037 .0276015
842.723 .0275983
843.408 .0275957
844.093 .0275933
844.777 .0275912
845.462 .0275885
846.145 .0275850
846.829 .0275803
847.512 .0275748
848.195 .0275684
848.878 .0275616
849.560 .0275554
850.242 .0275500
850.923 .0275459
851.605 .0275425
852.286 .0275399
852.966 .0275378
853.646 .0275359
854.326 .0275337
855.006 .0275311
855.685 .0275284
856.364 .0275257
857.043 .0275229
857.721 .0275204
858.399 .0275177
859.077 .0275152
859.754 .0275125
860.431 .0275095
861.107 .0275059
861.784 .0275019
862.459 .0274977
863.135 .0274932
863.810 .0274885
864.485 .0274839
865.160 .0274791
865.834 .0274749
866.508 .0274706
867.181 .0274666
867.854 .0274631
868.527 .0274604
869.199 .0274579
869.872 .0274555
870.543 .0274530
871.215 .0274498
871.886 .0274456
872.557 .0274405
873.227 .0274338
873.897 .0274261
874.567 .0274175
875.236 .0274083
875.905 .0273984
876.573 .0273888
877.242 .0273786
877.909 .0273683
878.577 .0273577
879.244 .0273460
879.911 .0273330
880.577 .0273190
881.243 .0273044
881.909 .0272891
882.575 .0272738
883.240 .0272589
883.904 .0272443
884.569 .0272307
885.232 .0272172
885.896 .0272039
886.559 .0271905
887.222 .0271774
887.885 .0271633
888.547 .0271491
889.208 .0271350
889.870 .0271207
890.531 .0271070
891.192 .0270937
891.852 .0270809
892.512 .0270681
893.171 .0270553
893.830 .0270424
894.489 .0270288
895.148 .0270151
895.806 .0270008
896.464 .0269865
897.121 .0269722
897.778 .0269579
898.434 .0269437
899.091 .0269302
899.747 .0269171
900.402 .0269039
901.057 .0268905
901.712 .0268770
902.366 .0268633
903.020 .0268494
903.674 .0268356
904.327 .0268220
904.980 .0268086
905.633 .0267955
906.285 .0267821
906.936 .0267692
907.588 .0267559
908.239 .0267423
908.889 .0267280
909.540 .0267130
910.190 .0266974
910.839 .0266811
911.488 .0266647
912.137 .0266484
912.785 .0266322
913.433 .0266164
914.081 .0266005
914.728 .0265850
915.375 .0265693
916.021 .0265534
916.668 .0265373
917.313 .0265214
917.959 .0265047
918.604 .0264879
919.248 .0264709
919.892 .0264542
920.536 .0264371
921.180 .0264201
921.823 .0264026
922.465 .0263847
923.108 .0263663
923.750 .0263475
924.391 .0263281
925.032 .0263093
925.673 .0262903
926.313 .0262719
926.953 .0262544
927.593 .0262376
928.232 .0262213
928.871 .0262057
929.510 .0261904
930.148 .0261749
930.786 .0261592
931.423 .0261437
932.060 .0261281
932.697 .0261126
933.333 .0260972
933.969 .0260814
934.604 .0260658
935.239 .0260501
935.874 .0260342
936.508 .0260184
937.142 .0260028
937.776 .0259872
938.409 .0259718
939.042 .0259569
939.674 .0259424
940.306 .0259284
940.938 .0259154
941.569 .0259032
942.200 .0258920
942.830 .0258813
943.460 .0258715
944.090 .0258620
944.720 .0258530
945.349 .0258436
945.977 .0258335
946.606 .0258231
947.233 .0258120
947.861 .0258007
948.488 .0257893
949.115 .0257778
949.741 .0257664
950.367 .0257548
950.993 .0257435
951.618 .0257319
952.243 .0257209
952.868 .0257102
953.492 .0257002
954.115 .0256912
954.739 .0256832
955.362 .0256761
955.984 .0256703
956.607 .0256658
957.229 .0256622
957.850 .0256593
958.471 .0256569
959.092 .0256552
959.713 .0256539
960.333 .0256531
960.952 .0256530
961.572 .0256530
962.191 .0256533
962.809 .0256529
963.428 .0256518
964.045 .0256500
964.663 .0256470
965.280 .0256433
965.897 .0256392
966.513 .0256352
967.129 .0256321
967.745 .0256296
968.361 .0256283
968.976 .0256278
969.590 .0256275
970.205 .0256272
970.818 .0256266
971.432 .0256261
972.045 .0256260
972.658 .0256262
973.271 .0256270
973.883 .0256286
974.495 .0256309
975.106 .0256334
975.717 .0256361
976.328 .0256385
976.938 .0256404
977.548 .0256415
978.158 .0256419
978.768 .0256410
979.377 .0256392
979.985 .0256366
980.594 .0256329
981.202 .0256285
981.809 .0256230
982.417 .0256167
983.024 .0256098
983.631 .0256022
984.237 .0255943
984.843 .0255862
985.449 .0255777
986.054 .0255687
986.659 .0255595
987.264 .0255506
987.868 .0255415
988.472 .0255336
989.076 .0255260
989.679 .0255191
990.282 .0255127
990.885 .0255064
991.487 .0255001
992.090 .0254940
992.691 .0254877
993.293 .0254818
993.894 .0254765
994.495 .0254724
995.095 .0254683
995.696 .0254656
996.296 .0254640
996.895 .0254624
997.494 .0254607
998.093 .0254587
998.692 .0254554
999.291 .0254514
999.889 .0254460
1000.487 .0254400
1001.084 .0254335
1001.681 .0254267
1002.278 .0254185
1002.875 .0254094
1003.471 .0253994
1004.067 .0253891
1004.663 .0253779
1005.258 .0253672
1005.854 .0253562
1006.449 .0253456
1007.043 .0253354
1007.638 .0253252
1008.232 .0253154
1008.826 .0253057
1009.419 .0252959
1010.012 .0252867
1010.605 .0252774
1011.198 .0252684
1011.791 .0252597
1012.383 .0252516
1012.975 .0252433
1013.566 .0252347
1014.158 .0252259
1014.749 .0252165
1015.340 .0252067
1015.931 .0251967
1016.521 .0251866
1017.111 .0251767
1017.701 .0251674
1018.291 .0251578
1018.880 .0251479
1019.470 .0251382
1020.059 .0251282
1020.647 .0251184
1021.236 .0251087
1021.824 .0250995
1022.412 .0250914
1023.000 .0250843
1023.588 .0250783
1024.175 .0250727
1024.762 .0250674
1025.349 .0250621
1025.936 .0250558
1026.523 .0250485
1027.109 .0250406
1027.695 .0250324
1028.281 .0250237
1028.867 .0250155
1029.452 .0250079
1030.038 .0250008
1030.623 .0249934
1031.208 .0249863
1031.792 .0249787
1032.377 .0249703
1032.961 .0249614
1033.546 .0249518
1034.130 .0249419
1034.714 .0249319
1035.297 .0249216
1035.881 .0249120
1036.464 .0249027
1037.047 .0248945
1037.630 .0248860
1038.213 .0248786
1038.796 .0248724
1039.378 .0248669
1039.961 .0248623
1040.543 .0248591
1041.125 .0248569
1041.707 .0248547
1042.289 .0248527
1042.871 .0248511
1043.452 .0248499
1044.034 .0248491
1044.615 .0248480
1045.196 .0248471
1045.777 .0248457
1046.358 .0248439
1046.939 .0248404
1047.520 .0248366
1048.101 .0248315
1048.681 .0248247
1049.262 .0248161
1049.842 .0248064
1050.422 .0247962
1051.002 .0247855
1051.582 .0247751
1052.162 .0247655
1052.742 .0247562
1053.322 .0247469
1053.902 .0247376
1054.482 .0247292
1055.061 .0247205
1055.641 .0247129
1056.220 .0247055
1056.800 .0246983
1057.379 .0246917
1057.958 .0246860
1058.538 .0246814
1059.117 .0246784
1059.696 .0246774
1060.275 .0246774
1060.854 .0246786
1061.433 .0246812
1062.012 .0246841
1062.592 .0246885
1063.171 .0246951
1063.750 .0247027
1064.329 .0247112
1064.908 .0247211
1065.487 .0247306
1066.066 .0247401
1066.645 .0247494
1067.224 .0247579
1067.803 .0247649
1068.382 .0247700
1068.961 .0247739
1069.540 .0247764
1070.119 .0247787
1070.698 .0247808
1071.278 .0247833
1071.857 .0247866
1072.436 .0247892
1073.016 .0247907
1073.595 .0247920
1074.175 .0247932
1074.754 .0247934
1075.334 .0247935
1075.913 .0247935
1076.493 .0247939
1077.073 .0247949
1077.653 .0247961
1078.233 .0247975
1078.813 .0247987
1079.393 .0247992
1079.974 .0247974
1080.554 .0247949
1081.135 .0247911
1081.716 .0247863
1082.296 .0247813
1082.877 .0247766
1083.458 .0247714
1084.040 .0247656
1084.621 .0247583
1085.202 .0247505
1085.784 .0247422
1086.366 .0247328
1086.948 .0247234
1087.530 .0247165
1088.112 .0247115
1088.695 .0247091
1089.277 .0247097
1089.860 .0247144
1090.443 .0247215
1091.026 .0247308
1091.610 .0247414
1092.193 .0247532
1092.777 .0247662
1093.361 .0247791
1093.946 .0247911
1094.530 .0248048
1095.115 .0248185
1095.700 .0248322
1096.285 .0248477
1096.871 .0248639
1097.456 .0248799
1098.042 .0248963
1098.628 .0249137
1099.215 .0249303
1099.802 .0249461
1100.389 .0249615
1100.976 .0249755
1101.564 .0249888
1102.152 .0249998
1102.740 .0250083
1103.329 .0250157
1103.917 .0250233
1104.507 .0250296
1105.096 .0250357
1105.686 .0250442
1106.276 .0250533
1106.867 .0250635
1107.457 .0250738
1108.049 .0250830
1108.640 .0250916
1109.232 .0250981
1109.825 .0251022
1110.417 .0251033
1111.010 .0251021
1111.604 .0250995
1112.198 .0250969
1112.792 .0250940
1113.387 .0250911
1113.982 .0250893
1114.577 .0250896
1115.173 .0250917
1115.769 .0250933
1116.366 .0250964
1116.963 .0251001
1117.561 .0251043
1118.159 .0251080
1118.758 .0251088
1119.357 .0251093
1119.957 .0251105
1120.557 .0251124
1121.157 .0251157
1121.758 .0251219
1122.360 .0251336
1122.962 .0251509
1123.564 .0251722
1124.167 .0251952
1124.771 .0252190
1125.375 .0252411
1125.980 .0252617
1126.585 .0252788
1127.191 .0252949
1127.797 .0253166
1128.404 .0253452
1129.012 .0253844
1129.620 .0254339
1130.229 .0254928
1130.838 .0255574
1131.448 .0256247
1132.058 .0256883
1132.669 .0257415
1133.281 .0257868
1133.894 .0258268
1134.507 .0258624
1135.120 .0258976
1135.735 .0259363
1136.350 .0259779
1136.965 .0260221
1137.582 .0260672
1138.199 .0261018
1138.816 .0261282
1139.435 .0261458
1140.054 .0261491
1140.674 .0261427
1141.294 .0261271
1141.916 .0261022
1142.538 .0261270
1143.160 .0260449
1143.784 .0260986
1144.408 .0260098
1145.033 .0258226
