Measurement Sequence started on: 14-45-04-498
Integration time: 36
Scans to Average: 2 
>>>>>Begin Spectral Data<<<<<
433.946 .0432396
434.870 .0414169
435.793 .0400420
436.715 .0387300
437.635 .0388051
438.555 .0396435
439.473 .0394861
440.389 .0394308
441.305 .0394160
442.219 .0394047
443.132 .0393684
444.044 .0393077
444.954 .0392484
445.863 .0392094
446.771 .0391866
447.678 .0391745
448.584 .0391671
449.488 .0391497
450.391 .0391159
451.293 .0390591
452.194 .0389878
453.094 .0388945
453.992 .0387980
454.890 .0386986
455.786 .0386092
456.681 .0385330
457.575 .0384685
458.468 .0384056
459.360 .0383445
460.250 .0382829
461.140 .0382197
462.028 .0381496
462.915 .0380759
463.801 .0379942
464.687 .0379064
465.571 .0378147
466.454 .0377200
467.335 .0376220
468.216 .0375288
469.096 .0374378
469.975 .0373585
470.853 .0372881
471.729 .0372277
472.605 .0371747
473.479 .0371286
474.353 .0370841
475.226 .0370359
476.097 .0369815
476.968 .0369251
477.838 .0368661
478.706 .0368127
479.574 .0367661
480.441 .0367317
481.306 .0367103
482.171 .0367027
483.035 .0367005
483.898 .0367019
484.760 .0366998
485.621 .0366933
486.481 .0366773
487.340 .0366565
488.198 .0366324
489.055 .0366058
489.912 .0365796
490.767 .0365565
491.622 .0365307
492.476 .0365024
493.329 .0364693
494.180 .0364307
495.032 .0363858
495.882 .0363388
496.731 .0362872
497.580 .0362400
498.427 .0361993
499.274 .0361629
500.120 .0361277
500.965 .0360967
501.809 .0360630
502.653 .0360221
503.495 .0359773
504.337 .0359280
505.178 .0358730
506.018 .0358200
506.858 .0357692
507.696 .0357250
508.534 .0356894
509.371 .0356613
510.208 .0356373
511.043 .0356172
511.878 .0355911
512.712 .0355568
513.545 .0355141
514.377 .0354655
515.209 .0354120
516.040 .0353583
516.870 .0353096
517.699 .0352683
518.528 .0352372
519.356 .0352143
520.183 .0351989
521.010 .0351909
521.836 .0351769
522.661 .0351533
523.485 .0351226
524.309 .0350788
525.132 .0350241
525.954 .0349632
526.776 .0348968
527.597 .0348287
528.417 .0347647
529.237 .0347002
530.056 .0346394
530.874 .0345870
531.692 .0345373
532.508 .0344867
533.325 .0344403
534.140 .0343901
534.955 .0343376
535.770 .0342881
536.583 .0342411
537.397 .0341931
538.209 .0341497
539.021 .0341082
539.832 .0340667
540.643 .0340294
541.453 .0339964
542.262 .0339649
543.071 .0339392
543.879 .0339105
544.687 .0338814
545.494 .0338523
546.300 .0338205
547.106 .0337882
547.911 .0337566
548.716 .0337268
549.520 .0336976
550.323 .0336698
551.126 .0336466
551.929 .0336248
552.731 .0336043
553.532 .0335796
554.332 .0335512
555.133 .0335201
555.932 .0334834
556.731 .0334424
557.530 .0334024
558.328 .0333619
559.125 .0333211
559.922 .0332801
560.719 .0332364
561.515 .0331916
562.310 .0331422
563.105 .0330915
563.899 .0330379
564.693 .0329799
565.487 .0329207
566.280 .0328606
567.072 .0328054
567.864 .0327552
568.655 .0327088
569.446 .0326678
570.236 .0326275
571.026 .0325895
571.816 .0325484
572.605 .0325062
573.393 .0324619
574.181 .0324170
574.969 .0323731
575.756 .0323313
576.543 .0322930
577.329 .0322608
578.115 .0322336
578.900 .0322096
579.685 .0321882
580.469 .0321680
581.253 .0321483
582.036 .0321275
582.820 .0321039
583.602 .0320798
584.384 .0320541
585.166 .0320280
585.947 .0320004
586.728 .0319729
587.509 .0319468
588.289 .0319207
589.069 .0318956
589.848 .0318692
590.627 .0318413
591.405 .0318113
592.183 .0317793
592.961 .0317462
593.738 .0317117
594.515 .0316778
595.291 .0316435
596.067 .0316098
596.843 .0315766
597.618 .0315431
598.393 .0315107
599.167 .0314790
599.941 .0314480
600.715 .0314169
601.488 .0313875
602.261 .0313590
603.034 .0313317
603.806 .0313061
604.578 .0312806
605.349 .0312558
606.121 .0312322
606.891 .0312091
607.662 .0311864
608.432 .0311646
609.201 .0311434
609.971 .0311222
610.740 .0311013
611.508 .0310792
612.277 .0310560
613.045 .0310326
613.812 .0310087
614.579 .0309837
615.346 .0309589
616.113 .0309352
616.879 .0309116
617.645 .0308898
618.411 .0308687
619.176 .0308478
619.941 .0308276
620.705 .0308077
621.470 .0307880
622.233 .0307687
622.997 .0307501
623.760 .0307322
624.523 .0307155
625.286 .0307005
626.048 .0306852
626.810 .0306699
627.572 .0306546
628.333 .0306384
629.095 .0306207
629.855 .0306027
630.616 .0305842
631.376 .0305659
632.136 .0305480
632.895 .0305305
633.655 .0305131
634.414 .0304961
635.172 .0304790
635.931 .0304614
636.689 .0304434
637.447 .0304255
638.204 .0304069
638.962 .0303886
639.718 .0303708
640.475 .0303531
641.231 .0303350
641.988 .0303163
642.743 .0302961
643.499 .0302743
644.254 .0302503
645.009 .0302247
645.764 .0301971
646.518 .0301688
647.272 .0301399
648.026 .0301105
648.780 .0300813
649.533 .0300527
650.286 .0300243
651.039 .0299962
651.792 .0299680
652.544 .0299396
653.296 .0299111
654.048 .0298824
654.799 .0298545
655.550 .0298266
656.301 .0297995
657.052 .0297734
657.802 .0297480
658.552 .0297239
659.302 .0297005
660.052 .0296780
660.801 .0296567
661.550 .0296363
662.299 .0296166
663.048 .0295971
663.796 .0295781
664.544 .0295596
665.292 .0295412
666.040 .0295231
666.787 .0295058
667.534 .0294892
668.281 .0294737
669.028 .0294592
669.774 .0294456
670.521 .0294331
671.266 .0294213
672.012 .0294105
672.758 .0294004
673.503 .0293915
674.248 .0293835
674.992 .0293765
675.737 .0293705
676.481 .0293653
677.225 .0293608
677.969 .0293571
678.712 .0293539
679.455 .0293510
680.199 .0293487
680.941 .0293469
681.684 .0293456
682.426 .0293449
683.168 .0293440
683.910 .0293427
684.652 .0293406
685.393 .0293376
686.134 .0293329
686.875 .0293275
687.616 .0293215
688.356 .0293150
689.097 .0293085
689.837 .0293021
690.576 .0292960
691.316 .0292903
692.055 .0292847
692.794 .0292786
693.533 .0292720
694.272 .0292650
695.010 .0292575
695.748 .0292499
696.486 .0292422
697.224 .0292341
697.962 .0292258
698.699 .0292174
699.436 .0292080
700.173 .0291975
700.909 .0291863
701.646 .0291743
702.382 .0291621
703.118 .0291492
703.853 .0291361
704.589 .0291232
705.324 .0291102
706.059 .0290970
706.794 .0290830
707.529 .0290686
708.263 .0290536
708.997 .0290381
709.731 .0290220
710.465 .0290053
711.198 .0289882
711.931 .0289709
712.664 .0289534
713.397 .0289354
714.130 .0289166
714.862 .0288972
715.594 .0288774
716.326 .0288569
717.058 .0288359
717.789 .0288148
718.520 .0287932
719.251 .0287717
719.982 .0287499
720.713 .0287279
721.443 .0287062
722.173 .0286850
722.903 .0286649
723.633 .0286461
724.362 .0286288
725.091 .0286127
725.820 .0285981
726.549 .0285849
727.278 .0285721
728.006 .0285597
728.734 .0285479
729.462 .0285364
730.190 .0285255
730.917 .0285156
731.644 .0285070
732.371 .0285001
733.098 .0284951
733.825 .0284910
734.551 .0284879
735.277 .0284850
736.003 .0284821
736.728 .0284785
737.454 .0284743
738.179 .0284700
738.904 .0284655
739.629 .0284615
740.353 .0284583
741.077 .0284558
741.801 .0284540
742.525 .0284527
743.249 .0284515
743.972 .0284499
744.695 .0284482
745.418 .0284461
746.141 .0284437
746.863 .0284414
747.585 .0284398
748.307 .0284385
749.029 .0284378
749.750 .0284376
750.472 .0284372
751.193 .0284369
751.913 .0284364
752.634 .0284354
753.354 .0284340
754.074 .0284322
754.794 .0284298
755.514 .0284268
756.233 .0284234
756.952 .0284190
757.671 .0284136
758.390 .0284080
759.108 .0284015
759.826 .0283943
760.544 .0283870
761.262 .0283798
761.979 .0283728
762.697 .0283662
763.414 .0283599
764.130 .0283538
764.847 .0283481
765.563 .0283424
766.279 .0283367
766.995 .0283315
767.710 .0283268
768.426 .0283221
769.141 .0283175
769.855 .0283128
770.570 .0283078
771.284 .0283026
771.998 .0282970
772.712 .0282909
773.426 .0282848
774.139 .0282785
774.852 .0282723
775.565 .0282661
776.277 .0282597
776.990 .0282530
777.702 .0282454
778.414 .0282367
779.125 .0282270
779.836 .0282168
780.547 .0282069
781.258 .0281975
781.969 .0281890
782.679 .0281811
783.389 .0281739
784.099 .0281666
784.808 .0281587
785.517 .0281499
786.226 .0281399
786.935 .0281285
787.643 .0281163
788.352 .0281040
789.060 .0280918
789.767 .0280805
790.475 .0280701
791.182 .0280599
791.889 .0280493
792.595 .0280376
793.301 .0280244
794.008 .0280100
794.713 .0279946
795.419 .0279782
796.124 .0279618
796.829 .0279460
797.534 .0279307
798.238 .0279164
798.942 .0279029
799.646 .0278896
800.350 .0278760
801.053 .0278620
801.756 .0278470
802.459 .0278318
803.162 .0278168
803.864 .0278025
804.566 .0277894
805.267 .0277778
805.969 .0277672
806.670 .0277579
807.371 .0277495
808.071 .0277422
808.772 .0277351
809.472 .0277283
810.171 .0277214
810.871 .0277148
811.570 .0277085
812.269 .0277025
812.967 .0276967
813.666 .0276912
814.364 .0276856
815.061 .0276796
815.759 .0276735
816.456 .0276670
817.153 .0276602
817.849 .0276529
818.545 .0276454
819.241 .0276378
819.937 .0276297
820.632 .0276216
821.327 .0276134
822.022 .0276050
822.717 .0275967
823.411 .0275881
824.105 .0275799
824.798 .0275723
825.491 .0275656
826.184 .0275597
826.877 .0275547
827.569 .0275504
828.261 .0275466
828.953 .0275428
829.645 .0275387
830.336 .0275338
831.027 .0275287
831.717 .0275232
832.407 .0275182
833.097 .0275140
833.787 .0275110
834.476 .0275096
835.165 .0275101
835.854 .0275121
836.542 .0275150
837.230 .0275189
837.918 .0275228
838.605 .0275267
839.292 .0275304
839.979 .0275333
840.665 .0275360
841.352 .0275389
842.037 .0275416
842.723 .0275439
843.408 .0275459
844.093 .0275469
844.777 .0275467
845.462 .0275452
846.145 .0275414
846.829 .0275356
847.512 .0275282
848.195 .0275191
848.878 .0275083
849.560 .0274968
850.242 .0274850
850.923 .0274729
851.605 .0274613
852.286 .0274500
852.966 .0274393
853.646 .0274297
854.326 .0274211
855.006 .0274131
855.685 .0274056
856.364 .0273985
857.043 .0273912
857.721 .0273836
858.399 .0273760
859.077 .0273680
859.754 .0273600
860.431 .0273522
861.107 .0273447
861.784 .0273374
862.459 .0273304
863.135 .0273236
863.810 .0273161
864.485 .0273075
865.160 .0272975
865.834 .0272863
866.508 .0272739
867.181 .0272605
867.854 .0272467
868.527 .0272330
869.199 .0272196
869.872 .0272065
870.543 .0271938
871.215 .0271811
871.886 .0271678
872.557 .0271535
873.227 .0271378
873.897 .0271209
874.567 .0271025
875.236 .0270834
875.905 .0270641
876.573 .0270445
877.242 .0270250
877.909 .0270054
878.577 .0269867
879.244 .0269682
879.911 .0269499
880.577 .0269317
881.243 .0269135
881.909 .0268956
882.575 .0268773
883.240 .0268593
883.904 .0268417
884.569 .0268241
885.232 .0268064
885.896 .0267888
886.559 .0267712
887.222 .0267539
887.885 .0267368
888.547 .0267204
889.208 .0267043
889.870 .0266888
890.531 .0266736
891.192 .0266590
891.852 .0266448
892.512 .0266307
893.171 .0266162
893.830 .0266018
894.489 .0265877
895.148 .0265739
895.806 .0265606
896.464 .0265485
897.121 .0265373
897.778 .0265268
898.434 .0265168
899.091 .0265076
899.747 .0264987
900.402 .0264903
901.057 .0264818
901.712 .0264731
902.366 .0264643
903.020 .0264552
903.674 .0264459
904.327 .0264367
904.980 .0264274
905.633 .0264177
906.285 .0264079
906.936 .0263986
907.588 .0263891
908.239 .0263802
908.889 .0263717
909.540 .0263635
910.190 .0263551
910.839 .0263463
911.488 .0263369
912.137 .0263269
912.785 .0263159
913.433 .0263040
914.081 .0262912
914.728 .0262784
915.375 .0262652
916.021 .0262522
916.668 .0262400
917.313 .0262284
917.959 .0262173
918.604 .0262067
919.248 .0261966
919.892 .0261871
920.536 .0261781
921.180 .0261695
921.823 .0261614
922.465 .0261539
923.108 .0261469
923.750 .0261401
924.391 .0261335
925.032 .0261270
925.673 .0261203
926.313 .0261138
926.953 .0261076
927.593 .0261012
928.232 .0260949
928.871 .0260884
929.510 .0260814
930.148 .0260732
930.786 .0260640
931.423 .0260535
932.060 .0260422
932.697 .0260306
933.333 .0260184
933.969 .0260064
934.604 .0259954
935.239 .0259854
935.874 .0259763
936.508 .0259680
937.142 .0259602
937.776 .0259523
938.409 .0259445
939.042 .0259361
939.674 .0259274
940.306 .0259186
940.938 .0259103
941.569 .0259020
942.200 .0258940
942.830 .0258861
943.460 .0258785
944.090 .0258708
944.720 .0258628
945.349 .0258541
945.977 .0258450
946.606 .0258355
947.233 .0258258
947.861 .0258155
948.488 .0258049
949.115 .0257943
949.741 .0257834
950.367 .0257725
950.993 .0257618
951.618 .0257513
952.243 .0257416
952.868 .0257329
953.492 .0257248
954.115 .0257172
954.739 .0257100
955.362 .0257033
955.984 .0256965
956.607 .0256895
957.229 .0256823
957.850 .0256752
958.471 .0256681
959.092 .0256614
959.713 .0256542
960.333 .0256474
960.952 .0256409
961.572 .0256346
962.191 .0256285
962.809 .0256232
963.428 .0256178
964.045 .0256129
964.663 .0256080
965.280 .0256028
965.897 .0255972
966.513 .0255915
967.129 .0255854
967.745 .0255793
968.361 .0255733
968.976 .0255678
969.590 .0255626
970.205 .0255583
970.818 .0255540
971.432 .0255501
972.045 .0255457
972.658 .0255407
973.271 .0255348
973.883 .0255278
974.495 .0255194
975.106 .0255100
975.717 .0254999
976.328 .0254895
976.938 .0254788
977.548 .0254683
978.158 .0254579
978.768 .0254478
979.377 .0254374
979.985 .0254264
980.594 .0254146
981.202 .0254020
981.809 .0253880
982.417 .0253735
983.024 .0253586
983.631 .0253435
984.237 .0253285
984.843 .0253140
985.449 .0252996
986.054 .0252851
986.659 .0252702
987.264 .0252549
987.868 .0252387
988.472 .0252223
989.076 .0252056
989.679 .0251892
990.282 .0251738
990.885 .0251587
991.487 .0251443
992.090 .0251307
992.691 .0251178
993.293 .0251055
993.894 .0250937
994.495 .0250831
995.095 .0250732
995.696 .0250636
996.296 .0250546
996.895 .0250459
997.494 .0250382
998.093 .0250310
998.692 .0250244
999.291 .0250182
999.889 .0250125
1000.487 .0250067
1001.084 .0250013
1001.681 .0249957
1002.278 .0249894
1002.875 .0249817
1003.471 .0249727
1004.067 .0249625
1004.663 .0249514
1005.258 .0249399
1005.854 .0249286
1006.449 .0249176
1007.043 .0249067
1007.638 .0248952
1008.232 .0248833
1008.826 .0248709
1009.419 .0248573
1010.012 .0248425
1010.605 .0248268
1011.198 .0248108
1011.791 .0247950
1012.383 .0247805
1012.975 .0247672
1013.566 .0247556
1014.158 .0247452
1014.749 .0247355
1015.340 .0247258
1015.931 .0247162
1016.521 .0247068
1017.111 .0246981
1017.701 .0246905
1018.291 .0246843
1018.880 .0246795
1019.470 .0246772
1020.059 .0246760
1020.647 .0246763
1021.236 .0246773
1021.824 .0246786
1022.412 .0246800
1023.000 .0246816
1023.588 .0246831
1024.175 .0246848
1024.762 .0246871
1025.349 .0246897
1025.936 .0246929
1026.523 .0246970
1027.109 .0247006
1027.695 .0247038
1028.281 .0247066
1028.867 .0247083
1029.452 .0247087
1030.038 .0247090
1030.623 .0247082
1031.208 .0247066
1031.792 .0247047
1032.377 .0247018
1032.961 .0246987
1033.546 .0246953
1034.130 .0246912
1034.714 .0246856
1035.297 .0246797
1035.881 .0246732
1036.464 .0246662
1037.047 .0246611
1037.630 .0246568
1038.213 .0246540
1038.796 .0246526
1039.378 .0246527
1039.961 .0246531
1040.543 .0246542
1041.125 .0246552
1041.707 .0246552
1042.289 .0246536
1042.871 .0246512
1043.452 .0246473
1044.034 .0246441
1044.615 .0246418
1045.196 .0246407
1045.777 .0246402
1046.358 .0246409
1046.939 .0246413
1047.520 .0246414
1048.101 .0246406
1048.681 .0246393
1049.262 .0246361
1049.842 .0246327
1050.422 .0246293
1051.002 .0246267
1051.582 .0246254
1052.162 .0246272
1052.742 .0246303
1053.322 .0246349
1053.902 .0246396
1054.482 .0246439
1055.061 .0246474
1055.641 .0246506
1056.220 .0246530
1056.800 .0246548
1057.379 .0246569
1057.958 .0246602
1058.538 .0246635
1059.117 .0246685
1059.696 .0246743
1060.275 .0246803
1060.854 .0246861
1061.433 .0246925
1062.012 .0246977
1062.592 .0247036
1063.171 .0247119
1063.750 .0247226
1064.329 .0247360
1064.908 .0247522
1065.487 .0247701
1066.066 .0247892
1066.645 .0248094
1067.224 .0248292
1067.803 .0248471
1068.382 .0248639
1068.961 .0248784
1069.540 .0248905
1070.119 .0249006
1070.698 .0249090
1071.278 .0249157
1071.857 .0249213
1072.436 .0249253
1073.016 .0249267
1073.595 .0249264
1074.175 .0249250
1074.754 .0249229
1075.334 .0249196
1075.913 .0249150
1076.493 .0249104
1077.073 .0249049
1077.653 .0248997
1078.233 .0248939
1078.813 .0248888
1079.393 .0248837
1079.974 .0248806
1080.554 .0248785
1081.135 .0248787
1081.716 .0248821
1082.296 .0248875
1082.877 .0248952
1083.458 .0249037
1084.040 .0249112
1084.621 .0249175
1085.202 .0249214
1085.784 .0249241
1086.366 .0249237
1086.948 .0249245
1087.530 .0249259
1088.112 .0249301
1088.695 .0249378
1089.277 .0249492
1089.860 .0249640
1090.443 .0249815
1091.026 .0249980
1091.610 .0250121
1092.193 .0250237
1092.777 .0250315
1093.361 .0250360
1093.946 .0250390
1094.530 .0250392
1095.115 .0250411
1095.700 .0250429
1096.285 .0250465
1096.871 .0250497
1097.456 .0250537
1098.042 .0250558
1098.628 .0250551
1099.215 .0250523
1099.802 .0250456
1100.389 .0250361
1100.976 .0250275
1101.564 .0250192
1102.152 .0250134
1102.740 .0250106
1103.329 .0250117
1103.917 .0250168
1104.507 .0250262
1105.096 .0250371
1105.686 .0250506
1106.276 .0250649
1106.867 .0250801
1107.457 .0250936
1108.049 .0251070
1108.640 .0251197
1109.232 .0251316
1109.825 .0251419
1110.417 .0251507
1111.010 .0251582
1111.604 .0251631
1112.198 .0251668
1112.792 .0251699
1113.387 .0251714
1113.982 .0251715
1114.577 .0251708
1115.173 .0251703
1115.769 .0251677
1116.366 .0251644
1116.963 .0251598
1117.561 .0251542
1118.159 .0251496
1118.758 .0251456
1119.357 .0251439
1119.957 .0251470
1120.557 .0251535
1121.157 .0251608
1121.758 .0251726
1122.360 .0251869
1122.962 .0251998
1123.564 .0252111
1124.167 .0252232
1124.771 .0252335
1125.375 .0252425
1125.980 .0252531
1126.585 .0252638
1127.191 .0252731
1127.797 .0252832
1128.404 .0252908
1129.012 .0252979
1129.620 .0253059
1130.229 .0253126
1130.838 .0253175
1131.448 .0253236
1132.058 .0253293
1132.669 .0253319
1133.281 .0253366
1133.894 .0253453
1134.507 .0253512
1135.120 .0253623
1135.735 .0253776
1136.350 .0254011
1136.965 .0254333
1137.582 .0254769
1138.199 .0255290
1138.816 .0255865
1139.435 .0256544
1140.054 .0257281
1140.674 .0258129
1141.294 .0259190
1141.916 .0260400
1142.538 .0260580
1143.160 .0262027
1143.784 .0264383
1144.408 .0268224
1145.033 .0269753
