Measurement Sequence started on: 14-45-04-498
Integration time: 36
Scans to Average: 2 
>>>>>Begin Spectral Data<<<<<
433.946 .0589731
434.870 .0597277
435.793 .0529493
436.715 .0532960
437.635 .0497159
438.555 .0507454
439.473 .0497555
440.389 .0489443
441.305 .0484420
442.219 .0479978
443.132 .0476909
444.044 .0474357
444.954 .0472346
445.863 .0470871
446.771 .0470303
447.678 .0470309
448.584 .0470775
449.488 .0471493
450.391 .0472065
451.293 .0472420
452.194 .0472494
453.094 .0472217
453.992 .0471552
454.890 .0470681
455.786 .0469748
456.681 .0468816
457.575 .0467839
458.468 .0466825
459.360 .0465775
460.250 .0464721
461.140 .0463437
462.028 .0462003
462.915 .0460486
463.801 .0458903
464.687 .0457194
465.571 .0455468
466.454 .0453824
467.335 .0452306
468.216 .0450901
469.096 .0449659
469.975 .0448647
470.853 .0447853
471.729 .0447197
472.605 .0446677
473.479 .0446209
474.353 .0445716
475.226 .0445109
476.097 .0444429
476.968 .0443634
477.838 .0442723
478.706 .0441750
479.574 .0440821
480.441 .0439977
481.306 .0439228
482.171 .0438561
483.035 .0437999
483.898 .0437510
484.760 .0437000
485.621 .0436439
486.481 .0435883
487.340 .0435354
488.198 .0434887
489.055 .0434534
489.912 .0434290
490.767 .0434206
491.622 .0434253
492.476 .0434369
493.329 .0434510
494.180 .0434632
495.032 .0434745
495.882 .0434784
496.731 .0434797
497.580 .0434762
498.427 .0434671
499.274 .0434546
500.120 .0434302
500.965 .0433954
501.809 .0433511
502.653 .0432967
503.495 .0432337
504.337 .0431695
505.178 .0431045
506.018 .0430418
506.858 .0429850
507.696 .0429351
508.534 .0428900
509.371 .0428489
510.208 .0428135
511.043 .0427787
511.878 .0427523
512.712 .0427324
513.545 .0427157
514.377 .0427139
515.209 .0427133
516.040 .0427145
516.870 .0427123
517.699 .0427113
518.528 .0427048
519.356 .0426957
520.183 .0426852
521.010 .0426736
521.836 .0426653
522.661 .0426632
523.485 .0426507
524.309 .0426357
525.132 .0426154
525.954 .0425782
526.776 .0425246
527.597 .0424675
528.417 .0423990
529.237 .0423320
530.056 .0422669
530.874 .0422073
531.692 .0421440
532.508 .0420937
533.325 .0420424
534.140 .0419928
534.955 .0419490
535.770 .0419023
536.583 .0418374
537.397 .0417676
538.209 .0416794
539.021 .0415719
539.832 .0414607
540.643 .0413493
541.453 .0412344
542.262 .0411387
543.071 .0410573
543.879 .0409918
544.687 .0409416
545.494 .0409116
546.300 .0408807
547.106 .0408563
547.911 .0408264
548.716 .0407895
549.520 .0407544
550.323 .0407251
551.126 .0406916
551.929 .0406643
552.731 .0406413
553.532 .0406114
554.332 .0405751
555.133 .0405321
555.932 .0404732
556.731 .0404040
557.530 .0403195
558.328 .0402233
559.125 .0401225
559.922 .0400243
560.719 .0399256
561.515 .0398360
562.310 .0397541
563.105 .0396725
563.899 .0395927
564.693 .0395135
565.487 .0394322
566.280 .0393510
567.072 .0392716
567.864 .0391916
568.655 .0391161
569.446 .0390473
570.236 .0389806
571.026 .0389170
571.816 .0388564
572.605 .0387930
573.393 .0387268
574.181 .0386611
574.969 .0385942
575.756 .0385318
576.543 .0384744
577.329 .0384266
578.115 .0383868
578.900 .0383569
579.685 .0383343
580.469 .0383142
581.253 .0382992
582.036 .0382860
582.820 .0382712
583.602 .0382601
584.384 .0382523
585.166 .0382494
585.947 .0382492
586.728 .0382522
587.509 .0382531
588.289 .0382521
589.069 .0382478
589.848 .0382389
590.627 .0382242
591.405 .0382058
592.183 .0381820
592.961 .0381546
593.738 .0381256
594.515 .0380928
595.291 .0380576
596.067 .0380217
596.843 .0379843
597.618 .0379455
598.393 .0379050
599.167 .0378645
599.941 .0378239
600.715 .0377823
601.488 .0377400
602.261 .0376976
603.034 .0376562
603.806 .0376155
604.578 .0375772
605.349 .0375423
606.121 .0375111
606.891 .0374836
607.662 .0374595
608.432 .0374381
609.201 .0374189
609.971 .0374010
610.740 .0373839
611.508 .0373673
612.277 .0373523
613.045 .0373376
613.812 .0373248
614.579 .0373136
615.346 .0373022
616.113 .0372914
616.879 .0372813
617.645 .0372713
618.411 .0372601
619.176 .0372489
619.941 .0372381
620.705 .0372270
621.470 .0372161
622.233 .0372045
622.997 .0371915
623.760 .0371772
624.523 .0371599
625.286 .0371380
626.048 .0371135
626.810 .0370874
627.572 .0370593
628.333 .0370311
629.095 .0370028
629.855 .0369748
630.616 .0369474
631.376 .0369218
632.136 .0368967
632.895 .0368718
633.655 .0368475
634.414 .0368232
635.172 .0367991
635.931 .0367758
636.689 .0367527
637.447 .0367314
638.204 .0367115
638.962 .0366925
639.718 .0366735
640.475 .0366548
641.231 .0366365
641.988 .0366178
642.743 .0365974
643.499 .0365756
644.254 .0365518
645.009 .0365260
645.764 .0364977
646.518 .0364681
647.272 .0364368
648.026 .0364048
648.780 .0363725
649.533 .0363403
650.286 .0363084
651.039 .0362777
651.792 .0362481
652.544 .0362199
653.296 .0361933
654.048 .0361682
654.799 .0361447
655.550 .0361239
656.301 .0361052
657.052 .0360886
657.802 .0360734
658.552 .0360596
659.302 .0360463
660.052 .0360328
660.801 .0360189
661.550 .0360039
662.299 .0359885
663.048 .0359725
663.796 .0359565
664.544 .0359405
665.292 .0359248
666.040 .0359091
666.787 .0358930
667.534 .0358753
668.281 .0358557
669.028 .0358336
669.774 .0358099
670.521 .0357848
671.266 .0357596
672.012 .0357348
672.758 .0357127
673.503 .0356921
674.248 .0356743
674.992 .0356571
675.737 .0356404
676.481 .0356234
677.225 .0356053
677.969 .0355850
678.712 .0355636
679.455 .0355417
680.199 .0355202
680.941 .0354987
681.684 .0354784
682.426 .0354579
683.168 .0354377
683.910 .0354169
684.652 .0353958
685.393 .0353734
686.134 .0353519
686.875 .0353305
687.616 .0353115
688.356 .0352948
689.097 .0352810
689.837 .0352694
690.576 .0352594
691.316 .0352493
692.055 .0352380
692.794 .0352254
693.533 .0352122
694.272 .0351984
695.010 .0351847
695.748 .0351717
696.486 .0351599
697.224 .0351491
697.962 .0351387
698.699 .0351277
699.436 .0351156
700.173 .0351011
700.909 .0350840
701.646 .0350642
702.382 .0350425
703.118 .0350205
703.853 .0349983
704.589 .0349768
705.324 .0349564
706.059 .0349368
706.794 .0349176
707.529 .0348994
708.263 .0348817
708.997 .0348641
709.731 .0348457
710.465 .0348266
711.198 .0348070
711.931 .0347872
712.664 .0347677
713.397 .0347486
714.130 .0347304
714.862 .0347137
715.594 .0346971
716.326 .0346822
717.058 .0346685
717.789 .0346557
718.520 .0346429
719.251 .0346297
719.982 .0346154
720.713 .0346003
721.443 .0345840
722.173 .0345671
722.903 .0345502
723.633 .0345335
724.362 .0345164
725.091 .0344996
725.820 .0344833
726.549 .0344671
727.278 .0344504
728.006 .0344340
728.734 .0344171
729.462 .0344005
730.190 .0343838
730.917 .0343671
731.644 .0343515
732.371 .0343361
733.098 .0343210
733.825 .0343059
734.551 .0342907
735.277 .0342755
736.003 .0342601
736.728 .0342447
737.454 .0342293
738.179 .0342143
738.904 .0341996
739.629 .0341849
740.353 .0341710
741.077 .0341577
741.801 .0341446
742.525 .0341318
743.249 .0341195
743.972 .0341065
744.695 .0340937
745.418 .0340804
746.141 .0340665
746.863 .0340523
747.585 .0340379
748.307 .0340225
749.029 .0340071
749.750 .0339911
750.472 .0339749
751.193 .0339583
751.913 .0339419
752.634 .0339246
753.354 .0339065
754.074 .0338883
754.794 .0338701
755.514 .0338521
756.233 .0338348
756.952 .0338177
757.671 .0338024
758.390 .0337885
759.108 .0337758
759.826 .0337639
760.544 .0337527
761.262 .0337412
761.979 .0337289
762.697 .0337149
763.414 .0336997
764.130 .0336838
764.847 .0336682
765.563 .0336531
766.279 .0336392
766.995 .0336270
767.710 .0336164
768.426 .0336067
769.141 .0335976
769.855 .0335878
770.570 .0335779
771.284 .0335668
771.998 .0335553
772.712 .0335441
773.426 .0335339
774.139 .0335251
774.852 .0335180
775.565 .0335115
776.277 .0335048
776.990 .0334966
777.702 .0334865
778.414 .0334734
779.125 .0334579
779.836 .0334405
780.547 .0334226
781.258 .0334054
781.969 .0333898
782.679 .0333758
783.389 .0333639
784.099 .0333530
784.808 .0333425
785.517 .0333318
786.226 .0333208
786.935 .0333091
787.643 .0332976
788.352 .0332868
789.060 .0332776
789.767 .0332700
790.475 .0332637
791.182 .0332581
791.889 .0332527
792.595 .0332467
793.301 .0332396
794.008 .0332316
794.713 .0332223
795.419 .0332118
796.124 .0332008
796.829 .0331892
797.534 .0331771
798.238 .0331646
798.942 .0331522
799.646 .0331394
800.350 .0331264
801.053 .0331136
801.756 .0331012
802.459 .0330898
803.162 .0330786
803.864 .0330675
804.566 .0330565
805.267 .0330447
805.969 .0330313
806.670 .0330164
807.371 .0330008
808.071 .0329849
808.772 .0329692
809.472 .0329538
810.171 .0329394
810.871 .0329260
811.570 .0329132
812.269 .0329005
812.967 .0328872
813.666 .0328733
814.364 .0328582
815.061 .0328430
815.759 .0328275
816.456 .0328121
817.153 .0327971
817.849 .0327825
818.545 .0327681
819.241 .0327531
819.937 .0327371
820.632 .0327205
821.327 .0327028
822.022 .0326842
822.717 .0326651
823.411 .0326460
824.105 .0326273
824.798 .0326095
825.491 .0325916
826.184 .0325733
826.877 .0325545
827.569 .0325353
828.261 .0325154
828.953 .0324954
829.645 .0324755
830.336 .0324560
831.027 .0324379
831.717 .0324207
832.407 .0324041
833.097 .0323883
833.787 .0323731
834.476 .0323574
835.165 .0323416
835.854 .0323264
836.542 .0323113
837.230 .0322976
837.918 .0322854
838.605 .0322740
839.292 .0322637
839.979 .0322539
840.665 .0322444
841.352 .0322352
842.037 .0322260
842.723 .0322166
843.408 .0322075
844.093 .0321997
844.777 .0321923
845.462 .0321851
846.145 .0321786
846.829 .0321721
847.512 .0321642
848.195 .0321556
848.878 .0321460
849.560 .0321362
850.242 .0321259
850.923 .0321155
851.605 .0321051
852.286 .0320948
852.966 .0320841
853.646 .0320720
854.326 .0320590
855.006 .0320450
855.685 .0320287
856.364 .0320115
857.043 .0319938
857.721 .0319765
858.399 .0319597
859.077 .0319436
859.754 .0319282
860.431 .0319128
861.107 .0318975
861.784 .0318816
862.459 .0318653
863.135 .0318482
863.810 .0318305
864.485 .0318122
865.160 .0317945
865.834 .0317777
866.508 .0317620
867.181 .0317479
867.854 .0317352
868.527 .0317230
869.199 .0317108
869.872 .0316989
870.543 .0316869
871.215 .0316742
871.886 .0316612
872.557 .0316475
873.227 .0316338
873.897 .0316207
874.567 .0316086
875.236 .0315973
875.905 .0315871
876.573 .0315775
877.242 .0315679
877.909 .0315580
878.577 .0315478
879.244 .0315370
879.911 .0315260
880.577 .0315139
881.243 .0315005
881.909 .0314867
882.575 .0314724
883.240 .0314576
883.904 .0314423
884.569 .0314267
885.232 .0314107
885.896 .0313940
886.559 .0313774
887.222 .0313613
887.885 .0313463
888.547 .0313319
889.208 .0313178
889.870 .0313045
890.531 .0312915
891.192 .0312785
891.852 .0312659
892.512 .0312536
893.171 .0312418
893.830 .0312303
894.489 .0312201
895.148 .0312110
895.806 .0312031
896.464 .0311959
897.121 .0311892
897.778 .0311824
898.434 .0311751
899.091 .0311667
899.747 .0311579
900.402 .0311484
901.057 .0311384
901.712 .0311276
902.366 .0311163
903.020 .0311042
903.674 .0310914
904.327 .0310773
904.980 .0310625
905.633 .0310467
906.285 .0310305
906.936 .0310144
907.588 .0309986
908.239 .0309834
908.889 .0309687
909.540 .0309549
910.190 .0309418
910.839 .0309293
911.488 .0309174
912.137 .0309059
912.785 .0308953
913.433 .0308857
914.081 .0308771
914.728 .0308695
915.375 .0308623
916.021 .0308546
916.668 .0308456
917.313 .0308348
917.959 .0308215
918.604 .0308062
919.248 .0307887
919.892 .0307696
920.536 .0307491
921.180 .0307278
921.823 .0307057
922.465 .0306830
923.108 .0306593
923.750 .0306344
924.391 .0306078
925.032 .0305802
925.673 .0305514
926.313 .0305227
926.953 .0304941
927.593 .0304660
928.232 .0304386
928.871 .0304121
929.510 .0303858
930.148 .0303600
930.786 .0303343
931.423 .0303084
932.060 .0302824
932.697 .0302560
933.333 .0302292
933.969 .0302025
934.604 .0301759
935.239 .0301494
935.874 .0301225
936.508 .0300969
937.142 .0300716
937.776 .0300470
938.409 .0300237
939.042 .0300009
939.674 .0299784
940.306 .0299561
940.938 .0299333
941.569 .0299103
942.200 .0298871
942.830 .0298640
943.460 .0298412
944.090 .0298195
944.720 .0297986
945.349 .0297788
945.977 .0297606
946.606 .0297436
947.233 .0297263
947.861 .0297097
948.488 .0296929
949.115 .0296750
949.741 .0296568
950.367 .0296382
950.993 .0296197
951.618 .0296020
952.243 .0295849
952.868 .0295681
953.492 .0295518
954.115 .0295361
954.739 .0295198
955.362 .0295037
955.984 .0294878
956.607 .0294716
957.229 .0294560
957.850 .0294412
958.471 .0294267
959.092 .0294123
959.713 .0293983
960.333 .0293844
960.952 .0293704
961.572 .0293570
962.191 .0293439
962.809 .0293319
963.428 .0293210
964.045 .0293108
964.663 .0293016
965.280 .0292930
965.897 .0292843
966.513 .0292753
967.129 .0292659
967.745 .0292564
968.361 .0292474
968.976 .0292396
969.590 .0292332
970.205 .0292287
970.818 .0292266
971.432 .0292264
972.045 .0292279
972.658 .0292311
973.271 .0292344
973.883 .0292378
974.495 .0292399
975.106 .0292405
975.717 .0292404
976.328 .0292396
976.938 .0292383
977.548 .0292373
978.158 .0292368
978.768 .0292364
979.377 .0292352
979.985 .0292332
980.594 .0292302
981.202 .0292256
981.809 .0292196
982.417 .0292121
983.024 .0292041
983.631 .0291972
984.237 .0291915
984.843 .0291881
985.449 .0291867
986.054 .0291858
986.659 .0291857
987.264 .0291851
987.868 .0291842
988.472 .0291830
989.076 .0291821
989.679 .0291820
990.282 .0291833
990.885 .0291856
991.487 .0291890
992.090 .0291927
992.691 .0291970
993.293 .0291992
993.894 .0291993
994.495 .0291975
995.095 .0291936
995.696 .0291892
996.296 .0291851
996.895 .0291810
997.494 .0291784
998.093 .0291764
998.692 .0291748
999.291 .0291724
999.889 .0291692
1000.487 .0291645
1001.084 .0291579
1001.681 .0291496
1002.278 .0291399
1002.875 .0291290
1003.471 .0291183
1004.067 .0291079
1004.663 .0290981
1005.258 .0290884
1005.854 .0290783
1006.449 .0290685
1007.043 .0290585
1007.638 .0290479
1008.232 .0290368
1008.826 .0290244
1009.419 .0290118
1010.012 .0289989
1010.605 .0289860
1011.198 .0289736
1011.791 .0289625
1012.383 .0289529
1012.975 .0289447
1013.566 .0289378
1014.158 .0289317
1014.749 .0289258
1015.340 .0289208
1015.931 .0289155
1016.521 .0289093
1017.111 .0289021
1017.701 .0288942
1018.291 .0288858
1018.880 .0288767
1019.470 .0288669
1020.059 .0288571
1020.647 .0288473
1021.236 .0288383
1021.824 .0288292
1022.412 .0288208
1023.000 .0288123
1023.588 .0288042
1024.175 .0287956
1024.762 .0287863
1025.349 .0287760
1025.936 .0287660
1026.523 .0287561
1027.109 .0287474
1027.695 .0287399
1028.281 .0287336
1028.867 .0287286
1029.452 .0287245
1030.038 .0287206
1030.623 .0287162
1031.208 .0287103
1031.792 .0287039
1032.377 .0286960
1032.961 .0286883
1033.546 .0286807
1034.130 .0286736
1034.714 .0286676
1035.297 .0286630
1035.881 .0286579
1036.464 .0286528
1037.047 .0286476
1037.630 .0286416
1038.213 .0286356
1038.796 .0286306
1039.378 .0286262
1039.961 .0286222
1040.543 .0286198
1041.125 .0286185
1041.707 .0286162
1042.289 .0286135
1042.871 .0286087
1043.452 .0286027
1044.034 .0285963
1044.615 .0285900
1045.196 .0285843
1045.777 .0285810
1046.358 .0285799
1046.939 .0285796
1047.520 .0285789
1048.101 .0285776
1048.681 .0285747
1049.262 .0285691
1049.842 .0285610
1050.422 .0285510
1051.002 .0285389
1051.582 .0285265
1052.162 .0285145
1052.742 .0285027
1053.322 .0284906
1053.902 .0284783
1054.482 .0284650
1055.061 .0284507
1055.641 .0284354
1056.220 .0284187
1056.800 .0284033
1057.379 .0283896
1057.958 .0283771
1058.538 .0283654
1059.117 .0283562
1059.696 .0283492
1060.275 .0283429
1060.854 .0283356
1061.433 .0283284
1062.012 .0283206
1062.592 .0283138
1063.171 .0283074
1063.750 .0283018
1064.329 .0282972
1064.908 .0282923
1065.487 .0282850
1066.066 .0282749
1066.645 .0282608
1067.224 .0282452
1067.803 .0282269
1068.382 .0282088
1068.961 .0281927
1069.540 .0281795
1070.119 .0281711
1070.698 .0281679
1071.278 .0281681
1071.857 .0281706
1072.436 .0281722
1073.016 .0281722
1073.595 .0281694
1074.175 .0281643
1074.754 .0281570
1075.334 .0281488
1075.913 .0281428
1076.493 .0281385
1077.073 .0281345
1077.653 .0281329
1078.233 .0281317
1078.813 .0281302
1079.393 .0281268
1079.974 .0281207
1080.554 .0281134
1081.135 .0281066
1081.716 .0281003
1082.296 .0280978
1082.877 .0281007
1083.458 .0281094
1084.040 .0281213
1084.621 .0281370
1085.202 .0281564
1085.784 .0281767
1086.366 .0281970
1086.948 .0282176
1087.530 .0282375
1088.112 .0282590
1088.695 .0282789
1089.277 .0283011
1089.860 .0283235
1090.443 .0283473
1091.026 .0283714
1091.610 .0283942
1092.193 .0284144
1092.777 .0284335
1093.361 .0284513
1093.946 .0284688
1094.530 .0284848
1095.115 .0285006
1095.700 .0285139
1096.285 .0285269
1096.871 .0285383
1097.456 .0285467
1098.042 .0285505
1098.628 .0285525
1099.215 .0285486
1099.802 .0285412
1100.389 .0285310
1100.976 .0285184
1101.564 .0285045
1102.152 .0284918
1102.740 .0284764
1103.329 .0284580
1103.917 .0284406
1104.507 .0284246
1105.096 .0284087
1105.686 .0283971
1106.276 .0283870
1106.867 .0283815
1107.457 .0283807
1108.049 .0283849
1108.640 .0283905
1109.232 .0284003
1109.825 .0284135
1110.417 .0284251
1111.010 .0284353
1111.604 .0284460
1112.198 .0284550
1112.792 .0284675
1113.387 .0284829
1113.982 .0284994
1114.577 .0285201
1115.173 .0285455
1115.769 .0285733
1116.366 .0286028
1116.963 .0286337
1117.561 .0286646
1118.159 .0286934
1118.758 .0287244
1119.357 .0287565
1119.957 .0287900
1120.557 .0288314
1121.157 .0288773
1121.758 .0289268
1122.360 .0289803
1122.962 .0290325
1123.564 .0290804
1124.167 .0291219
1124.771 .0291541
1125.375 .0291756
1125.980 .0291888
1126.585 .0291970
1127.191 .0292013
1127.797 .0292070
1128.404 .0292150
1129.012 .0292234
1129.620 .0292366
1130.229 .0292542
1130.838 .0292748
1131.448 .0292965
1132.058 .0293252
1132.669 .0293573
1133.281 .0293930
1133.894 .0294342
1134.507 .0294795
1135.120 .0295297
1135.735 .0295818
1136.350 .0296337
1136.965 .0296888
1137.582 .0297446
1138.199 .0298065
1138.816 .0298642
1139.435 .0299177
1140.054 .0299613
1140.674 .0299973
1141.294 .0300316
1141.916 .0300838
1142.538 .0299870
1143.160 .0299081
1143.784 .0300956
1144.408 .0303430
1145.033 .0309305
