Measurement Sequence started on: 14-45-04-498
Integration time: 36
Scans to Average: 2 
>>>>>Begin Spectral Data<<<<<
433.946 .0341209
434.870 .0399949
435.793 .0409007
436.715 .0389631
437.635 .0389897
438.555 .0390487
439.473 .0391659
440.389 .0391102
441.305 .0390693
442.219 .0390919
443.132 .0391285
444.044 .0391740
444.954 .0392285
445.863 .0392934
446.771 .0393655
447.678 .0394421
448.584 .0395195
449.488 .0395881
450.391 .0396338
451.293 .0396569
452.194 .0396646
453.094 .0396470
453.992 .0396220
454.890 .0395909
455.786 .0395521
456.681 .0395068
457.575 .0394664
458.468 .0394172
459.360 .0393627
460.250 .0393136
461.140 .0392600
462.028 .0392024
462.915 .0391431
463.801 .0390830
464.687 .0390189
465.571 .0389557
466.454 .0388902
467.335 .0388150
468.216 .0387410
469.096 .0386628
469.975 .0385780
470.853 .0384942
471.729 .0384105
472.605 .0383239
473.479 .0382419
474.353 .0381636
475.226 .0380827
476.097 .0380049
476.968 .0379301
477.838 .0378548
478.706 .0377820
479.574 .0377137
480.441 .0376500
481.306 .0375911
482.171 .0375398
483.035 .0374916
483.898 .0374475
484.760 .0374090
485.621 .0373707
486.481 .0373339
487.340 .0372997
488.198 .0372654
489.055 .0372320
489.912 .0371999
490.767 .0371655
491.622 .0371289
492.476 .0370889
493.329 .0370445
494.180 .0369955
495.032 .0369442
495.882 .0368935
496.731 .0368458
497.580 .0368055
498.427 .0367723
499.274 .0367438
500.120 .0367222
500.965 .0367019
501.809 .0366798
502.653 .0366551
503.495 .0366268
504.337 .0365958
505.178 .0365644
506.018 .0365346
506.858 .0365113
507.696 .0364969
508.534 .0364908
509.371 .0364893
510.208 .0364922
511.043 .0364965
511.878 .0364928
512.712 .0364828
513.545 .0364650
514.377 .0364389
515.209 .0364069
516.040 .0363723
516.870 .0363379
517.699 .0363065
518.528 .0362792
519.356 .0362595
520.183 .0362433
521.010 .0362295
521.836 .0362115
522.661 .0361881
523.485 .0361641
524.309 .0361302
525.132 .0360852
525.954 .0360338
526.776 .0359740
527.597 .0359115
528.417 .0358444
529.237 .0357794
530.056 .0357149
530.874 .0356468
531.692 .0355759
532.508 .0354925
533.325 .0354023
534.140 .0353001
534.955 .0351882
535.770 .0350699
536.583 .0349477
537.397 .0348268
538.209 .0347182
539.021 .0346284
539.832 .0345590
540.643 .0345082
541.453 .0344779
542.262 .0344651
543.071 .0344623
543.879 .0344639
544.687 .0344734
545.494 .0344826
546.300 .0344936
547.106 .0344998
547.911 .0345064
548.716 .0345139
549.520 .0345179
550.323 .0345172
551.126 .0345064
551.929 .0344863
552.731 .0344524
553.532 .0344024
554.332 .0343422
555.133 .0342741
555.932 .0341995
556.731 .0341223
557.530 .0340467
558.328 .0339746
559.125 .0339063
559.922 .0338449
560.719 .0337868
561.515 .0337339
562.310 .0336839
563.105 .0336387
563.899 .0335978
564.693 .0335614
565.487 .0335254
566.280 .0334921
567.072 .0334632
567.864 .0334341
568.655 .0334035
569.446 .0333729
570.236 .0333391
571.026 .0333030
571.816 .0332610
572.605 .0332159
573.393 .0331688
574.181 .0331227
574.969 .0330768
575.756 .0330311
576.543 .0329880
577.329 .0329464
578.115 .0329058
578.900 .0328671
579.685 .0328284
580.469 .0327901
581.253 .0327539
582.036 .0327201
582.820 .0326884
583.602 .0326618
584.384 .0326395
585.166 .0326205
585.947 .0326046
586.728 .0325897
587.509 .0325762
588.289 .0325636
589.069 .0325516
589.848 .0325384
590.627 .0325243
591.405 .0325095
592.183 .0324931
592.961 .0324756
593.738 .0324570
594.515 .0324366
595.291 .0324153
596.067 .0323926
596.843 .0323667
597.618 .0323389
598.393 .0323086
599.167 .0322767
599.941 .0322431
600.715 .0322082
601.488 .0321726
602.261 .0321373
603.034 .0321022
603.806 .0320676
604.578 .0320332
605.349 .0320000
606.121 .0319673
606.891 .0319347
607.662 .0319016
608.432 .0318686
609.201 .0318357
609.971 .0318035
610.740 .0317711
611.508 .0317394
612.277 .0317084
613.045 .0316783
613.812 .0316489
614.579 .0316199
615.346 .0315911
616.113 .0315629
616.879 .0315349
617.645 .0315074
618.411 .0314801
619.176 .0314538
619.941 .0314288
620.705 .0314055
621.470 .0313828
622.233 .0313605
622.997 .0313382
623.760 .0313156
624.523 .0312922
625.286 .0312682
626.048 .0312442
626.810 .0312210
627.572 .0311987
628.333 .0311781
629.095 .0311595
629.855 .0311438
630.616 .0311304
631.376 .0311188
632.136 .0311085
632.895 .0310989
633.655 .0310895
634.414 .0310809
635.172 .0310728
635.931 .0310660
636.689 .0310601
637.447 .0310554
638.204 .0310510
638.962 .0310464
639.718 .0310408
640.475 .0310334
641.231 .0310234
641.988 .0310101
642.743 .0309933
643.499 .0309731
644.254 .0309500
645.009 .0309248
645.764 .0308978
646.518 .0308701
647.272 .0308418
648.026 .0308132
648.780 .0307839
649.533 .0307552
650.286 .0307271
651.039 .0306994
651.792 .0306722
652.544 .0306456
653.296 .0306193
654.048 .0305935
654.799 .0305679
655.550 .0305420
656.301 .0305158
657.052 .0304898
657.802 .0304629
658.552 .0304358
659.302 .0304086
660.052 .0303812
660.801 .0303530
661.550 .0303252
662.299 .0302970
663.048 .0302682
663.796 .0302399
664.544 .0302120
665.292 .0301841
666.040 .0301572
666.787 .0301311
667.534 .0301061
668.281 .0300825
669.028 .0300601
669.774 .0300384
670.521 .0300179
671.266 .0299989
672.012 .0299812
672.758 .0299652
673.503 .0299511
674.248 .0299381
674.992 .0299262
675.737 .0299151
676.481 .0299042
677.225 .0298932
677.969 .0298819
678.712 .0298702
679.455 .0298589
680.199 .0298482
680.941 .0298382
681.684 .0298303
682.426 .0298242
683.168 .0298196
683.910 .0298160
684.652 .0298125
685.393 .0298091
686.134 .0298054
686.875 .0298014
687.616 .0297969
688.356 .0297927
689.097 .0297892
689.837 .0297862
690.576 .0297844
691.316 .0297835
692.055 .0297828
692.794 .0297816
693.533 .0297796
694.272 .0297759
695.010 .0297708
695.748 .0297645
696.486 .0297573
697.224 .0297499
697.962 .0297424
698.699 .0297349
699.436 .0297271
700.173 .0297192
700.909 .0297107
701.646 .0297013
702.382 .0296911
703.118 .0296801
703.853 .0296687
704.589 .0296575
705.324 .0296468
706.059 .0296375
706.794 .0296293
707.529 .0296219
708.263 .0296152
708.997 .0296089
709.731 .0296016
710.465 .0295937
711.198 .0295847
711.931 .0295744
712.664 .0295629
713.397 .0295504
714.130 .0295368
714.862 .0295226
715.594 .0295077
716.326 .0294917
717.058 .0294750
717.789 .0294577
718.520 .0294390
719.251 .0294195
719.982 .0293993
720.713 .0293781
721.443 .0293561
722.173 .0293335
722.903 .0293104
723.633 .0292874
724.362 .0292649
725.091 .0292428
725.820 .0292215
726.549 .0292013
727.278 .0291820
728.006 .0291634
728.734 .0291456
729.462 .0291282
730.190 .0291114
730.917 .0290953
731.644 .0290795
732.371 .0290645
733.098 .0290502
733.825 .0290366
734.551 .0290242
735.277 .0290124
736.003 .0290011
736.728 .0289906
737.454 .0289810
738.179 .0289717
738.904 .0289628
739.629 .0289541
740.353 .0289458
741.077 .0289379
741.801 .0289298
742.525 .0289216
743.249 .0289139
743.972 .0289066
744.695 .0288997
745.418 .0288934
746.141 .0288879
746.863 .0288834
747.585 .0288800
748.307 .0288771
749.029 .0288748
749.750 .0288725
750.472 .0288699
751.193 .0288666
751.913 .0288633
752.634 .0288593
753.354 .0288551
754.074 .0288515
754.794 .0288481
755.514 .0288448
756.233 .0288420
756.952 .0288391
757.671 .0288363
758.390 .0288330
759.108 .0288294
759.826 .0288252
760.544 .0288215
761.262 .0288181
761.979 .0288155
762.697 .0288141
763.414 .0288141
764.130 .0288152
764.847 .0288176
765.563 .0288206
766.279 .0288238
766.995 .0288270
767.710 .0288300
768.426 .0288325
769.141 .0288345
769.855 .0288357
770.570 .0288363
771.284 .0288365
771.998 .0288365
772.712 .0288364
773.426 .0288364
774.139 .0288363
774.852 .0288362
775.565 .0288360
776.277 .0288350
776.990 .0288334
777.702 .0288315
778.414 .0288290
779.125 .0288257
779.836 .0288220
780.547 .0288178
781.258 .0288136
781.969 .0288093
782.679 .0288049
783.389 .0287999
784.099 .0287943
784.808 .0287874
785.517 .0287797
786.226 .0287712
786.935 .0287622
787.643 .0287526
788.352 .0287434
789.060 .0287338
789.767 .0287237
790.475 .0287129
791.182 .0287014
791.889 .0286888
792.595 .0286754
793.301 .0286605
794.008 .0286447
794.713 .0286286
795.419 .0286122
796.124 .0285957
796.829 .0285796
797.534 .0285635
798.238 .0285472
798.942 .0285310
799.646 .0285149
800.350 .0284990
801.053 .0284836
801.756 .0284683
802.459 .0284531
803.162 .0284380
803.864 .0284224
804.566 .0284066
805.267 .0283906
805.969 .0283748
806.670 .0283591
807.371 .0283438
808.071 .0283289
808.772 .0283149
809.472 .0283012
810.171 .0282877
810.871 .0282740
811.570 .0282603
812.269 .0282464
812.967 .0282323
813.666 .0282186
814.364 .0282057
815.061 .0281933
815.759 .0281821
816.456 .0281715
817.153 .0281616
817.849 .0281513
818.545 .0281406
819.241 .0281291
819.937 .0281174
820.632 .0281050
821.327 .0280925
822.022 .0280805
822.717 .0280693
823.411 .0280585
824.105 .0280481
824.798 .0280381
825.491 .0280283
826.184 .0280184
826.877 .0280084
827.569 .0279983
828.261 .0279887
828.953 .0279796
829.645 .0279713
830.336 .0279640
831.027 .0279580
831.717 .0279531
832.407 .0279490
833.097 .0279459
833.787 .0279434
834.476 .0279415
835.165 .0279399
835.854 .0279392
836.542 .0279390
837.230 .0279393
837.918 .0279402
838.605 .0279423
839.292 .0279449
839.979 .0279485
840.665 .0279527
841.352 .0279572
842.037 .0279618
842.723 .0279663
843.408 .0279700
844.093 .0279730
844.777 .0279752
845.462 .0279764
846.145 .0279763
846.829 .0279757
847.512 .0279740
848.195 .0279716
848.878 .0279688
849.560 .0279660
850.242 .0279626
850.923 .0279588
851.605 .0279544
852.286 .0279492
852.966 .0279434
853.646 .0279373
854.326 .0279309
855.006 .0279248
855.685 .0279189
856.364 .0279138
857.043 .0279092
857.721 .0279056
858.399 .0279025
859.077 .0278995
859.754 .0278964
860.431 .0278923
861.107 .0278872
861.784 .0278808
862.459 .0278736
863.135 .0278654
863.810 .0278568
864.485 .0278484
865.160 .0278404
865.834 .0278331
866.508 .0278264
867.181 .0278200
867.854 .0278132
868.527 .0278054
869.199 .0277961
869.872 .0277851
870.543 .0277727
871.215 .0277588
871.886 .0277449
872.557 .0277310
873.227 .0277180
873.897 .0277061
874.567 .0276950
875.236 .0276845
875.905 .0276743
876.573 .0276633
877.242 .0276512
877.909 .0276380
878.577 .0276239
879.244 .0276085
879.911 .0275928
880.577 .0275769
881.243 .0275608
881.909 .0275450
882.575 .0275293
883.240 .0275134
883.904 .0274972
884.569 .0274803
885.232 .0274623
885.896 .0274438
886.559 .0274249
887.222 .0274051
887.885 .0273853
888.547 .0273656
889.208 .0273462
889.870 .0273275
890.531 .0273101
891.192 .0272937
891.852 .0272786
892.512 .0272646
893.171 .0272511
893.830 .0272384
894.489 .0272260
895.148 .0272137
895.806 .0272014
896.464 .0271894
897.121 .0271773
897.778 .0271650
898.434 .0271532
899.091 .0271417
899.747 .0271303
900.402 .0271184
901.057 .0271061
901.712 .0270933
902.366 .0270797
903.020 .0270653
903.674 .0270505
904.327 .0270354
904.980 .0270200
905.633 .0270045
906.285 .0269891
906.936 .0269737
907.588 .0269586
908.239 .0269437
908.889 .0269290
909.540 .0269143
910.190 .0268998
910.839 .0268851
911.488 .0268709
912.137 .0268564
912.785 .0268414
913.433 .0268262
914.081 .0268109
914.728 .0267952
915.375 .0267791
916.021 .0267631
916.668 .0267471
917.313 .0267311
917.959 .0267153
918.604 .0266997
919.248 .0266845
919.892 .0266697
920.536 .0266555
921.180 .0266421
921.823 .0266295
922.465 .0266175
923.108 .0266061
923.750 .0265951
924.391 .0265838
925.032 .0265725
925.673 .0265608
926.313 .0265494
926.953 .0265379
927.593 .0265263
928.232 .0265147
928.871 .0265032
929.510 .0264918
930.148 .0264797
930.786 .0264668
931.423 .0264531
932.060 .0264386
932.697 .0264234
933.333 .0264075
933.969 .0263917
934.604 .0263761
935.239 .0263609
935.874 .0263460
936.508 .0263315
937.142 .0263178
937.776 .0263047
938.409 .0262924
939.042 .0262804
939.674 .0262690
940.306 .0262582
940.938 .0262480
941.569 .0262384
942.200 .0262295
942.830 .0262207
943.460 .0262119
944.090 .0262031
944.720 .0261943
945.349 .0261855
945.977 .0261769
946.606 .0261688
947.233 .0261612
947.861 .0261540
948.488 .0261471
949.115 .0261406
949.741 .0261348
950.367 .0261296
950.993 .0261249
951.618 .0261214
952.243 .0261190
952.868 .0261177
953.492 .0261175
954.115 .0261184
954.739 .0261203
955.362 .0261222
955.984 .0261238
956.607 .0261248
957.229 .0261251
957.850 .0261249
958.471 .0261237
959.092 .0261221
959.713 .0261202
960.333 .0261177
960.952 .0261153
961.572 .0261128
962.191 .0261103
962.809 .0261075
963.428 .0261045
964.045 .0261010
964.663 .0260972
965.280 .0260935
965.897 .0260901
966.513 .0260876
967.129 .0260865
967.745 .0260861
968.361 .0260870
968.976 .0260887
969.590 .0260910
970.205 .0260934
970.818 .0260955
971.432 .0260967
972.045 .0260971
972.658 .0260963
973.271 .0260945
973.883 .0260914
974.495 .0260872
975.106 .0260821
975.717 .0260760
976.328 .0260690
976.938 .0260616
977.548 .0260540
978.158 .0260466
978.768 .0260386
979.377 .0260303
979.985 .0260213
980.594 .0260112
981.202 .0260009
981.809 .0259898
982.417 .0259785
983.024 .0259672
983.631 .0259567
984.237 .0259469
984.843 .0259377
985.449 .0259284
986.054 .0259185
986.659 .0259079
987.264 .0258961
987.868 .0258826
988.472 .0258688
989.076 .0258553
989.679 .0258428
990.282 .0258313
990.885 .0258218
991.487 .0258137
992.090 .0258071
992.691 .0258008
993.293 .0257944
993.894 .0257878
994.495 .0257807
995.095 .0257731
995.696 .0257653
996.296 .0257576
996.895 .0257504
997.494 .0257433
998.093 .0257370
998.692 .0257304
999.291 .0257239
999.889 .0257167
1000.487 .0257090
1001.084 .0257001
1001.681 .0256900
1002.278 .0256787
1002.875 .0256667
1003.471 .0256543
1004.067 .0256418
1004.663 .0256293
1005.258 .0256174
1005.854 .0256060
1006.449 .0255949
1007.043 .0255836
1007.638 .0255723
1008.232 .0255604
1008.826 .0255479
1009.419 .0255345
1010.012 .0255209
1010.605 .0255071
1011.198 .0254936
1011.791 .0254803
1012.383 .0254670
1012.975 .0254543
1013.566 .0254415
1014.158 .0254284
1014.749 .0254148
1015.340 .0254012
1015.931 .0253877
1016.521 .0253745
1017.111 .0253623
1017.701 .0253514
1018.291 .0253418
1018.880 .0253338
1019.470 .0253265
1020.059 .0253199
1020.647 .0253136
1021.236 .0253073
1021.824 .0253011
1022.412 .0252953
1023.000 .0252895
1023.588 .0252844
1024.175 .0252798
1024.762 .0252761
1025.349 .0252723
1025.936 .0252687
1026.523 .0252647
1027.109 .0252599
1027.695 .0252540
1028.281 .0252479
1028.867 .0252411
1029.452 .0252346
1030.038 .0252283
1030.623 .0252222
1031.208 .0252164
1031.792 .0252107
1032.377 .0252050
1032.961 .0251993
1033.546 .0251935
1034.130 .0251875
1034.714 .0251812
1035.297 .0251756
1035.881 .0251707
1036.464 .0251660
1037.047 .0251619
1037.630 .0251576
1038.213 .0251530
1038.796 .0251476
1039.378 .0251416
1039.961 .0251344
1040.543 .0251270
1041.125 .0251193
1041.707 .0251121
1042.289 .0251047
1042.871 .0250986
1043.452 .0250931
1044.034 .0250889
1044.615 .0250856
1045.196 .0250831
1045.777 .0250800
1046.358 .0250777
1046.939 .0250758
1047.520 .0250741
1048.101 .0250724
1048.681 .0250715
1049.262 .0250705
1049.842 .0250695
1050.422 .0250681
1051.002 .0250657
1051.582 .0250622
1052.162 .0250587
1052.742 .0250533
1053.322 .0250465
1053.902 .0250391
1054.482 .0250314
1055.061 .0250238
1055.641 .0250179
1056.220 .0250132
1056.800 .0250105
1057.379 .0250100
1057.958 .0250107
1058.538 .0250119
1059.117 .0250132
1059.696 .0250142
1060.275 .0250151
1060.854 .0250161
1061.433 .0250180
1062.012 .0250211
1062.592 .0250267
1063.171 .0250342
1063.750 .0250434
1064.329 .0250531
1064.908 .0250618
1065.487 .0250688
1066.066 .0250742
1066.645 .0250781
1067.224 .0250806
1067.803 .0250828
1068.382 .0250861
1068.961 .0250919
1069.540 .0251002
1070.119 .0251100
1070.698 .0251221
1071.278 .0251340
1071.857 .0251448
1072.436 .0251535
1073.016 .0251605
1073.595 .0251659
1074.175 .0251707
1074.754 .0251752
1075.334 .0251796
1075.913 .0251852
1076.493 .0251911
1077.073 .0251970
1077.653 .0252036
1078.233 .0252098
1078.813 .0252154
1079.393 .0252202
1079.974 .0252256
1080.554 .0252302
1081.135 .0252349
1081.716 .0252399
1082.296 .0252433
1082.877 .0252450
1083.458 .0252437
1084.040 .0252394
1084.621 .0252331
1085.202 .0252253
1085.784 .0252179
1086.366 .0252111
1086.948 .0252071
1087.530 .0252047
1088.112 .0252041
1088.695 .0252050
1089.277 .0252079
1089.860 .0252108
1090.443 .0252134
1091.026 .0252149
1091.610 .0252165
1092.193 .0252193
1092.777 .0252242
1093.361 .0252324
1093.946 .0252446
1094.530 .0252585
1095.115 .0252741
1095.700 .0252884
1096.285 .0253016
1096.871 .0253127
1097.456 .0253217
1098.042 .0253278
1098.628 .0253320
1099.215 .0253343
1099.802 .0253342
1100.389 .0253348
1100.976 .0253370
1101.564 .0253376
1102.152 .0253378
1102.740 .0253379
1103.329 .0253370
1103.917 .0253364
1104.507 .0253381
1105.096 .0253409
1105.686 .0253453
1106.276 .0253520
1106.867 .0253587
1107.457 .0253649
1108.049 .0253707
1108.640 .0253745
1109.232 .0253760
1109.825 .0253783
1110.417 .0253800
1111.010 .0253830
1111.604 .0253911
1112.198 .0254052
1112.792 .0254235
1113.387 .0254470
1113.982 .0254748
1114.577 .0255054
1115.173 .0255395
1115.769 .0255754
1116.366 .0256102
1116.963 .0256434
1117.561 .0256750
1118.159 .0257046
1118.758 .0257314
1119.357 .0257550
1119.957 .0257758
1120.557 .0257959
1121.157 .0258144
1121.758 .0258304
1122.360 .0258470
1122.962 .0258635
1123.564 .0258786
1124.167 .0258884
1124.771 .0258935
1125.375 .0258918
1125.980 .0258873
1126.585 .0258789
1127.191 .0258710
1127.797 .0258666
1128.404 .0258679
1129.012 .0258744
1129.620 .0258927
1130.229 .0259179
1130.838 .0259476
1131.448 .0259803
1132.058 .0260141
1132.669 .0260412
1133.281 .0260658
1133.894 .0260875
1134.507 .0261101
1135.120 .0261356
1135.735 .0261676
1136.350 .0262028
1136.965 .0262446
1137.582 .0262895
1138.199 .0263325
1138.816 .0263695
1139.435 .0264046
1140.054 .0264340
1140.674 .0264660
1141.294 .0264927
1141.916 .0265184
1142.538 .0265358
1143.160 .0266063
1143.784 .0268285
1144.408 .0265946
1145.033 .0265502
