BestFit value for E:\RC_data\Compressed_For_Future_Analysis_Lite\run\0009_2025-09-03_21-49-49\Interpretation_History\2025-09-07_13-20-10\ResultsGraphs\BestFit\(Run)spectra_21-50-40-306_BestFit.txt
600.715 0.0352654
601.488 0.0352229
602.261 0.0351805
603.034 0.0351382
603.806 0.0350961
604.578 0.0350541
605.349 0.0350123
606.121 0.0349705
606.891 0.0349290
607.662 0.0348875
608.432 0.0348461
609.201 0.0348050
609.971 0.0347639
610.740 0.0347229
611.508 0.0346821
612.277 0.0346414
613.045 0.0346009
613.812 0.0345605
614.579 0.0345202
615.346 0.0344801
616.113 0.0344401
616.879 0.0344003
617.645 0.0343606
618.411 0.0343210
619.176 0.0342817
619.941 0.0342425
620.705 0.0342034
621.470 0.0341645
622.233 0.0341258
622.997 0.0340873
623.760 0.0340489
624.523 0.0340108
625.286 0.0339727
626.048 0.0339350
626.810 0.0338974
627.572 0.0338599
628.333 0.0338227
629.095 0.0337857
629.855 0.0337489
630.616 0.0337123
631.376 0.0336760
632.136 0.0336398
632.895 0.0336039
633.655 0.0335681
634.414 0.0335326
635.172 0.0334974
635.931 0.0334623
636.689 0.0334275
637.447 0.0333929
638.204 0.0333586
638.962 0.0333244
639.718 0.0332905
640.475 0.0332568
641.231 0.0332234
641.988 0.0331901
642.743 0.0331572
643.499 0.0331244
644.254 0.0330918
645.009 0.0330594
645.764 0.0330273
646.518 0.0329954
647.272 0.0329637
648.026 0.0329321
648.780 0.0329008
649.533 0.0328697
650.286 0.0328387
651.039 0.0328080
651.792 0.0327774
652.544 0.0327470
653.296 0.0327167
654.048 0.0326866
654.799 0.0326567
655.550 0.0326270
656.301 0.0325973
657.052 0.0325678
657.802 0.0325385
658.552 0.0325092
659.302 0.0324801
660.052 0.0324510
660.801 0.0324221
661.550 0.0323933
662.299 0.0323645
663.048 0.0323359
663.796 0.0323073
664.544 0.0322788
665.292 0.0322503
666.040 0.0322219
666.787 0.0321935
667.534 0.0321652
668.281 0.0321369
669.028 0.0321087
669.774 0.0320804
670.521 0.0320522
671.266 0.0320240
672.012 0.0319958
672.758 0.0319676
673.503 0.0319395
674.248 0.0319113
674.992 0.0318831
675.737 0.0318549
676.481 0.0318267
677.225 0.0317985
677.969 0.0317703
678.712 0.0317421
679.455 0.0317138
680.199 0.0316855
680.941 0.0316572
681.684 0.0316289
682.426 0.0316006
683.168 0.0315722
683.910 0.0315438
684.652 0.0315154
685.393 0.0314870
686.134 0.0314586
686.875 0.0314302
687.616 0.0314018
688.356 0.0313733
689.097 0.0313449
689.837 0.0313165
690.576 0.0312881
691.316 0.0312596
692.055 0.0312313
692.794 0.0312029
693.533 0.0311745
694.272 0.0311462
695.010 0.0311180
695.748 0.0310898
696.486 0.0310616
697.224 0.0310335
697.962 0.0310054
698.699 0.0309774
699.436 0.0309495
700.173 0.0309217
700.909 0.0308940
701.646 0.0308663
702.382 0.0308388
703.118 0.0308114
703.853 0.0307841
704.589 0.0307569
705.324 0.0307299
706.059 0.0307030
706.794 0.0306762
707.529 0.0306496
708.263 0.0306232
708.997 0.0305969
709.731 0.0305708
710.465 0.0305448
711.198 0.0305191
711.931 0.0304935
712.664 0.0304682
713.397 0.0304430
714.130 0.0304180
714.862 0.0303932
715.594 0.0303687
716.326 0.0303444
717.058 0.0303202
717.789 0.0302964
718.520 0.0302727
719.251 0.0302493
719.982 0.0302260
720.713 0.0302030
721.443 0.0301803
722.173 0.0301578
722.903 0.0301356
723.633 0.0301135
724.362 0.0300917
725.091 0.0300702
725.820 0.0300489
726.549 0.0300278
727.278 0.0300069
728.006 0.0299863
728.734 0.0299660
729.462 0.0299458
730.190 0.0299259
730.917 0.0299062
731.644 0.0298867
732.371 0.0298675
733.098 0.0298484
733.825 0.0298296
734.551 0.0298109
735.277 0.0297925
736.003 0.0297743
736.728 0.0297562
737.454 0.0297383
738.179 0.0297207
738.904 0.0297031
739.629 0.0296857
740.353 0.0296686
741.077 0.0296515
741.801 0.0296346
742.525 0.0296178
743.249 0.0296011
743.972 0.0295846
744.695 0.0295682
745.418 0.0295518
746.141 0.0295356
746.863 0.0295195
747.585 0.0295034
748.307 0.0294874
749.029 0.0294715
749.750 0.0294556
750.472 0.0294397
751.193 0.0294239
751.913 0.0294082
752.634 0.0293924
753.354 0.0293767
754.074 0.0293610
754.794 0.0293452
755.514 0.0293295
756.233 0.0293137
756.952 0.0292979
757.671 0.0292821
758.390 0.0292662
759.108 0.0292502
759.826 0.0292343
760.544 0.0292182
761.262 0.0292021
761.979 0.0291859
762.697 0.0291696
763.414 0.0291532
764.130 0.0291367
764.847 0.0291202
765.563 0.0291035
766.279 0.0290867
766.995 0.0290698
767.710 0.0290528
768.426 0.0290356
769.141 0.0290183
769.855 0.0290010
770.570 0.0289834
771.284 0.0289657
771.998 0.0289479
772.712 0.0289299
773.426 0.0289118
774.139 0.0288936
774.852 0.0288752
775.565 0.0288567
776.277 0.0288380
776.990 0.0288192
777.702 0.0288002
778.414 0.0287811
779.125 0.0287618
779.836 0.0287424
780.547 0.0287229
781.258 0.0287032
781.969 0.0286833
782.679 0.0286634
783.389 0.0286433
784.099 0.0286230
784.808 0.0286027
785.517 0.0285822
786.226 0.0285617
786.935 0.0285410
787.643 0.0285202
788.352 0.0284992
789.060 0.0284782
789.767 0.0284571
790.475 0.0284359
791.182 0.0284147
791.889 0.0283933
792.595 0.0283719
793.301 0.0283505
794.008 0.0283289
794.713 0.0283074
795.419 0.0282857
796.124 0.0282641
796.829 0.0282424
797.534 0.0282207
798.238 0.0281990
798.942 0.0281773
799.646 0.0281556
800.350 0.0281339
801.053 0.0281122
801.756 0.0280906
802.459 0.0280689
803.162 0.0280473
803.864 0.0280258
804.566 0.0280043
805.267 0.0279830
805.969 0.0279616
806.670 0.0279404
807.371 0.0279192
808.071 0.0278982
808.772 0.0278772
809.472 0.0278564
810.171 0.0278357
810.871 0.0278151
811.570 0.0277946
812.269 0.0277743
812.967 0.0277542
813.666 0.0277342
814.364 0.0277143
815.061 0.0276947
815.759 0.0276752
816.456 0.0276559
817.153 0.0276368
817.849 0.0276179
818.545 0.0275992
819.241 0.0275808
819.937 0.0275625
820.632 0.0275444
821.327 0.0275266
822.022 0.0275090
822.717 0.0274916
823.411 0.0274745
824.105 0.0274576
824.798 0.0274410
825.491 0.0274246
826.184 0.0274085
826.877 0.0273926
827.569 0.0273770
828.261 0.0273616
828.953 0.0273465
829.645 0.0273317
830.336 0.0273171
831.027 0.0273029
831.717 0.0272889
832.407 0.0272751
833.097 0.0272616
833.787 0.0272484
834.476 0.0272355
835.165 0.0272229
835.854 0.0272105
836.542 0.0271984
837.230 0.0271866
837.918 0.0271750
838.605 0.0271637
839.292 0.0271527
839.979 0.0271419
840.665 0.0271314
841.352 0.0271212
842.037 0.0271112
842.723 0.0271014
843.408 0.0270920
844.093 0.0270827
844.777 0.0270737
845.462 0.0270650
846.145 0.0270565
846.829 0.0270482
847.512 0.0270401
848.195 0.0270323
848.878 0.0270246
849.560 0.0270172
850.242 0.0270100
850.923 0.0270030
851.605 0.0269962
852.286 0.0269896
852.966 0.0269832
853.646 0.0269769
854.326 0.0269708
855.006 0.0269649
855.685 0.0269591
856.364 0.0269535
857.043 0.0269480
857.721 0.0269427
858.399 0.0269375
859.077 0.0269324
859.754 0.0269274
860.431 0.0269225
861.107 0.0269178
861.784 0.0269131
862.459 0.0269085
863.135 0.0269040
863.810 0.0268996
864.485 0.0268952
865.160 0.0268909
865.834 0.0268866
866.508 0.0268824
867.181 0.0268782
867.854 0.0268741
868.527 0.0268699
869.199 0.0268658
869.872 0.0268617
870.543 0.0268576
871.215 0.0268534
871.886 0.0268493
872.557 0.0268451
873.227 0.0268408
873.897 0.0268366
874.567 0.0268323
875.236 0.0268279
875.905 0.0268235
876.573 0.0268190
877.242 0.0268145
877.909 0.0268098
878.577 0.0268051
879.244 0.0268003
879.911 0.0267953
880.577 0.0267903
881.243 0.0267852
881.909 0.0267799
882.575 0.0267745
883.240 0.0267690
883.904 0.0267634
884.569 0.0267576
885.232 0.0267517
885.896 0.0267456
886.559 0.0267394
887.222 0.0267330
887.885 0.0267264
888.547 0.0267197
889.208 0.0267128
889.870 0.0267057
890.531 0.0266985
891.192 0.0266911
891.852 0.0266834
892.512 0.0266756
893.171 0.0266676
893.830 0.0266595
894.489 0.0266511
895.148 0.0266425
895.806 0.0266337
896.464 0.0266247
897.121 0.0266155
897.778 0.0266061
898.434 0.0265965
899.091 0.0265866
899.747 0.0265766
900.402 0.0265664
901.057 0.0265559
901.712 0.0265452
902.366 0.0265343
903.020 0.0265232
903.674 0.0265119
904.327 0.0265004
904.980 0.0264886
905.633 0.0264767
906.285 0.0264645
906.936 0.0264521
907.588 0.0264396
908.239 0.0264268
908.889 0.0264138
909.540 0.0264006
910.190 0.0263871
910.839 0.0263735
911.488 0.0263597
912.137 0.0263457
912.785 0.0263315
913.433 0.0263172
914.081 0.0263026
914.728 0.0262878
915.375 0.0262729
916.021 0.0262578
916.668 0.0262424
917.313 0.0262270
917.959 0.0262113
918.604 0.0261955
919.248 0.0261796
919.892 0.0261635
920.536 0.0261472
921.180 0.0261307
921.823 0.0261142
922.465 0.0260975
923.108 0.0260806
923.750 0.0260637
924.391 0.0260466
925.032 0.0260294
925.673 0.0260120
926.313 0.0259946
926.953 0.0259770
927.593 0.0259594
928.232 0.0259416
928.871 0.0259238
929.510 0.0259058
930.148 0.0258878
930.786 0.0258698
931.423 0.0258516
932.060 0.0258334
932.697 0.0258151
933.333 0.0257968
933.969 0.0257785
934.604 0.0257601
935.239 0.0257416
935.874 0.0257231
936.508 0.0257047
937.142 0.0256861
937.776 0.0256676
938.409 0.0256491
939.042 0.0256305
939.674 0.0256120
940.306 0.0255935
940.938 0.0255750
941.569 0.0255565
942.200 0.0255381
942.830 0.0255197
943.460 0.0255013
944.090 0.0254830
944.720 0.0254647
945.349 0.0254465
945.977 0.0254283
946.606 0.0254102
947.233 0.0253922
947.861 0.0253743
948.488 0.0253564
949.115 0.0253386
949.741 0.0253210
950.367 0.0253034
950.993 0.0252859
951.618 0.0252686
952.243 0.0252513
952.868 0.0252342
953.492 0.0252172
954.115 0.0252003
954.739 0.0251836
955.362 0.0251670
955.984 0.0251505
956.607 0.0251342
957.229 0.0251180
957.850 0.0251021
958.471 0.0250862
959.092 0.0250705
959.713 0.0250550
960.333 0.0250410
960.952 0.0250283
961.572 0.0250158
962.191 0.0250035
962.809 0.0249913
963.428 0.0249793
964.045 0.0249675
964.663 0.0249559
965.280 0.0249445
965.897 0.0249333
966.513 0.0249222
967.129 0.0249114
967.745 0.0249008
968.361 0.0248903
968.976 0.0248801
969.590 0.0248701
970.205 0.0248603
970.818 0.0248507
971.432 0.0248413
972.045 0.0248321
972.658 0.0248232
973.271 0.0248144
973.883 0.0248059
974.495 0.0247977
975.106 0.0247896
975.717 0.0247818
976.328 0.0247742
976.938 0.0247668
977.548 0.0247597
978.158 0.0247528
978.768 0.0247461
979.377 0.0247397
979.985 0.0247335
980.594 0.0247275
981.202 0.0247217
981.809 0.0247162
982.417 0.0247110
983.024 0.0247059
983.631 0.0247011
984.237 0.0246966
984.843 0.0246922
985.449 0.0246881
986.054 0.0246842
986.659 0.0246806
987.264 0.0246772
987.868 0.0246740
988.472 0.0246711
989.076 0.0246684
989.679 0.0246659
990.282 0.0246636
990.885 0.0246616
991.487 0.0246598
992.090 0.0246582
992.691 0.0246568
993.293 0.0246557
993.894 0.0246548
994.495 0.0246541
995.095 0.0246536
995.696 0.0246533
996.296 0.0246532
996.895 0.0246534
997.494 0.0246537
998.093 0.0246543
998.692 0.0246550
999.291 0.0246560
999.889 0.0246571
1000.487 0.0246567
1001.084 0.0246562
1001.681 0.0246558
1002.278 0.0246556
1002.875 0.0246557
1003.471 0.0246559
1004.067 0.0246563
1004.663 0.0246568
1005.258 0.0246576
1005.854 0.0246585
1006.449 0.0246596
1007.043 0.0246609
1007.638 0.0246623
1008.232 0.0246639
1008.826 0.0246656
1009.419 0.0246675
1010.012 0.0246696
1010.605 0.0246718
1011.198 0.0246741
1011.791 0.0246766
1012.383 0.0246792
1012.975 0.0246820
1013.566 0.0246849
1014.158 0.0246879
1014.749 0.0246910
1015.34 0.0246943
1015.931 0.0246976
1016.521 0.0247011
1017.111 0.0247047
1017.701 0.0247084
1018.291 0.0247121
1018.88 0.0247160
1019.47 0.0247200
1020.059 0.0247240
1020.647 0.0247281
1021.236 0.0247324
1021.824 0.0247366
1022.412 0.0247410
1023000 0.0247454
1023.588 0.0247499
1024.175 0.0247544
1024.762 0.0247590
1025.349 0.0247636
1025.936 0.0247683
1026.523 0.0247730
1027.109 0.0247778
1027.695 0.0247826
1028.281 0.0247874
1028.867 0.0247922
1029.452 0.0247971
1030.038 0.0248020
1030.623 0.0248069
1031.208 0.0248118
1031.792 0.0248167
1032.377 0.0248216
1032.961 0.0248265
1033.546 0.0248314
1034.13 0.0248363
1034.714 0.0248411
1035.297 0.0248460
1035.881 0.0248508
1036.464 0.0248556
1037.047 0.0248603
1037.63 0.0248651
1038.213 0.0248697
1038.796 0.0248744
1039.378 0.0248790
1039.961 0.0248835
1040.543 0.0248880
1041.125 0.0248925
1041.707 0.0248968
1042.289 0.0249011
1042.871 0.0249054
1043.452 0.0249095
1044.034 0.0249136
1044.615 0.0249176
1045.196 0.0249216
1045.777 0.0249254
1046.358 0.0249292
1046.939 0.0249328
1047.52 0.0249364
1048.101 0.0249398
1048.681 0.0249432
1049.262 0.0249465
1049.842 0.0249496
1050.422 0.0249526
1051.002 0.0249556
1051.582 0.0249584
1052.162 0.0249610
1052.742 0.0249636
1053.322 0.0249660
1053.902 0.0249683
1054.482 0.0249705
1055.061 0.0249725
1055.641 0.0249744
1056.22 0.0249762
1056.80 0.0249778
1057.379 0.0249792
1057.958 0.0249805
1058.538 0.0249817
1059.117 0.0249827
1059.696 0.0249836
1060.275 0.0249843
1060.854 0.0249848
1061.433 0.0249852
1062.012 0.0249854
1062.592 0.0249855
1063.171 0.0249853
1063.75 0.0249851
1064.329 0.0249846
1064.908 0.0249840
1065.487 0.0249832
1066.066 0.0249822
1066.645 0.0249810
1067.224 0.0249797
1067.803 0.0249781
1068.382 0.0249764
1068.961 0.0249745
1069.54 0.0249724
1070.119 0.0249702
1070.698 0.0249677
1071.278 0.0249651
1071.857 0.0249622
1072.436 0.0249592
1073.016 0.0249560
1073.595 0.0249525
1074.175 0.0249489
1074.754 0.0249451
1075.334 0.0249411
1075.913 0.0249369
1076.493 0.0249325
1077.073 0.0249279
1077.653 0.0249231
1078.233 0.0249181
1078.813 0.0249128
1079.393 0.0249074
1079.974 0.0249018
1080.554 0.0248960
1081.135 0.0248900
1081.716 0.0248838
1082.296 0.0248773
1082.877 0.0248707
1083.458 0.0248639
1084.04 0.0248568
1084.621 0.0248496
1085.202 0.0248422
1085.784 0.0248345
1086.366 0.0248267
1086.948 0.0248186
1087.53 0.0248103
1088.112 0.0248019
1088.695 0.0247932
1089.277 0.0247844
1089.86 0.0247753
1090.443 0.0247661
1091.026 0.0247566
1091.61 0.0247469
1092.193 0.0247371
1092.777 0.0247270
1093.361 0.0247168
1093.946 0.0247063
1094.53 0.0246957
1095.115 0.0246848
1095.70 0.0246738
1096.285 0.0246626
1096.871 0.0246511
1097.456 0.0246396
1098.042 0.0246278
1098.628 0.0246158
1099.215 0.0246036
1099.802 0.0245913
1100.389 0.0245787
1100.976 0.0245660
1101.564 0.0245531
1102.152 0.0245400
1102.74 0.0245268
1103.329 0.0245134
1103.917 0.0244998
1104.507 0.0244860
1105.096 0.0244720
1105.686 0.0244579
1106.276 0.0244437
1106.867 0.0244292
1107.457 0.0244146
1108.049 0.0243998
1108.64 0.0243849
1109.232 0.0243698
1109.825 0.0243546
1110.417 0.0243392
1111.01 0.0243237
1111.604 0.0243080
1112.198 0.0242921
1112.792 0.0242761
1113.387 0.0242600
1113.982 0.0242438
1114.577 0.0242274
1115.173 0.0242108
1115.769 0.0241942
1116.366 0.0241774
1116.963 0.0241605
1117.561 0.0241434
1118.159 0.0241263
1118.758 0.0241090
1119.357 0.0240916
1119.957 0.0240741
1120.557 0.0240564
1121.157 0.0240387
1121.758 0.0240209
1122.36 0.0240029
1122.962 0.0239849
1123.564 0.0239668
1124.167 0.0239486
1124.771 0.0239302
1125.375 0.0239118
1125.98 0.0238934
1126.585 0.0238748
1127.191 0.0238561
1127.797 0.0238374
1128.404 0.0238187
1129.012 0.0237998
1129.62 0.0237809
1130.229 0.0237619
1130.838 0.0237428
1131.448 0.0237237
1132.058 0.0237046
1132.669 0.0236854
1133.281 0.0236662
1133.894 0.0236469
1134.507 0.0236275
1135.12 0.0236082
1135.735 0.0235888
1136.35 0.0235694
1136.965 0.0235499
1137.582 0.0235305
1138.199 0.0235110
1138.816 0.0234915
1139.435 0.0234720
1140.054 0.0234525
1140.674 0.0234330
1141.294 0.0234135
1141.916 0.0233939
1142.538 0.0233744
1143.16 0.0233550
1143.784 0.0233355
1144.408 0.0233161
1145.033 0.0232966
